###################################################################
## OUTPUT of StarlightChains_v04.for    [Cid@UFSC - 01/Apr/2007] ##
###################################################################

## Some input info
NGC1904_a_1.cxt                          [arq_obs]
Base.BC03.N                              [arq_base]
NGC1904_a_1.msk                          [arq_masks]
StCv04.C99.config                        [arq_config]
   45                                    [N_base]
    0                                    [N_YAV_components = # of components with extra extinction!]
    0                                    [i_FitPowerLaw (1/0 = Yes/No)]
-9.99                                    [alpha_PowerLaw]
CCM                                      [red_law_option]
 1.458241                                [q_norm = A(l_norm)/A(V)]

## (Re)Sampling Parameters
 3359.00                                 [l_ini (A)]
 6428.00                                 [l_fin (A)]
    1.00                                 [dl    (A)]     (OBS: dl_cushion =    50.00 A)

## Normalization info
 4020.00                                 [l_norm (A) - for base]
 4010.00                                 [llow_norm (A) - window for f_obs]
 4060.00                                 [lupp_norm (A) - window for f_obs]
1.460937E-14                             [fobs_norm (in input units)]

## S/N
 4730.00                                 [llow_SN (A) - window for S/N]
 4780.00                                 [lupp_SN (A) - window for S/N]
 130.069                                 [S/N in S/N window]
 127.140                                 [S/N in norm. window]
 564.433                                 [S/N_err in S/N window]
 551.723                                 [S/N_err in norm. window]
  1.0000                                 [fscale_chi2]

## etc...
  2147483646                             [idum_orig]
  3067                                   [NOl_eff]
   328                                   [Nl_eff]
  2739    NSIGMA                         [Ntot_cliped & clip_method]
  8148000                                [Nglobal_steps]
   7                                     [N_chains]
   5                                     [NEX0s_base = N_base in EX0s-fits]
 0   0   1      254   2.0   1.168E+03    [Clip-Bug, RC-Crash & Burn-In warning-flags, n_censored_weights, wei_nsig_threshold & wei_limit]
    61     61.622     61.618      0.004  [idt_all, wdt_TotTime, wdt_UsrTime & wdt_SysTime (sec)]

## Synthesis Results - Best model ##

 2.92241E+00                             [chi2/Nl_eff]
     0.37802                             [adev (%)]

   104.03535                             [sum-of-x (%)]
 2.03434E-14                             [Flux_tot (units of input spectrum!)]
 1.22596E-10                             [Mini_tot (???)]
 6.76769E-11                             [Mcor_tot (???)]

 -12.84                                  [v0_min  (km/s)]
 107.31                                  [vd_min  (km/s)]
 0.2171                                  [AV_min  (mag)]
 0.0000                                  [YAV_min (mag)]

# j     x_j(%)      Mini_j(%)     Mcor_j(%)     age_j(yr)     Z_j      (L/M)_j    YAV?  Mstars   component_j        a/Fe...       SSP_chi2r SSP_adev(%)   SSP_AV   SSP_x(%)
  1      0.0000     0.0000E+00    0.0000E+00    1.000000E+06  0.00400  1.114E-02    0   1.0000   age020_m42            0.0000     6.8531E+03    14.2276   3.4596    77.7279
  2     18.3558     7.1883E-02    1.3020E-01    3.160000E+06  0.00400  4.073E-02    0   0.9999   age045_m42            0.0000     1.3104E+03     6.4241   2.4095    92.6058
  3      0.0000     0.0000E+00    0.0000E+00    5.010000E+06  0.00400  2.534E-02    0   0.9488   age055_m42            0.0000     3.3834E+03    10.2466   2.8603    85.6238
  4      0.0000     0.0000E+00    0.0000E+00    1.000000E+07  0.00400  1.271E-02    0   0.8862   age070_m42            0.0000     3.0364E+03    10.0377   2.0577    89.2044
  5      0.0000     0.0000E+00    0.0000E+00    2.512000E+07  0.00400  5.070E-03    0   0.8174   age090_m42            0.0000     2.6268E+03     9.3344   1.9171    90.8199
  6      0.0000     0.0000E+00    0.0000E+00    4.000000E+07  0.00400  3.505E-03    0   0.7851   age104_m42            0.0000     1.5166E+03     7.0272   1.5758    93.9660
  7     14.9712     1.0529E+00    1.3746E+00    1.015200E+08  0.00400  2.268E-03    0   0.7207   age116_m42            0.0000     3.6287E+03     6.4923   1.4575   105.2583
  8      0.0000     0.0000E+00    0.0000E+00    2.861200E+08  0.00400  1.079E-03    0   0.6613   age125_m42            0.0000     3.8450E+03     7.4704   0.9364   108.1179
  9      0.0000     0.0000E+00    0.0000E+00    6.405400E+08  0.00400  5.077E-04    0   0.6197   age132_m42            0.0000     4.2040E+03     7.9926   0.5546   112.8816
 10     11.6771     5.2688E+00    5.7496E+00    9.047900E+08  0.00400  3.535E-04    0   0.6024   age135_m42            0.0000     2.2539E+03     6.1745   0.3150   112.1361
 11      2.9072     2.4278E+00    2.5138E+00    1.434000E+09  0.00400  1.910E-04    0   0.5716   age139_m42            0.0000     7.9850E+02     4.7611  -0.2397   111.0312
 12     56.1240     9.1179E+01    9.0232E+01    2.500000E+09  0.00400  9.818E-05    0   0.5463   age150_m42            0.0000     8.0234E+02     4.2028  -0.5018   105.8626
 13      0.0000     0.0000E+00    0.0000E+00    5.000000E+09  0.00400  4.718E-05    0   0.5228   age161_m42            0.0000     1.5896E+03     4.8310  -0.6513   101.9833
 14      0.0000     0.0000E+00    0.0000E+00    1.100000E+10  0.00400  2.205E-05    0   0.4980   age185_m42            0.0000     3.5093E+03     6.9588  -0.9318    99.8138
 15      0.0000     0.0000E+00    0.0000E+00    1.300000E+10  0.00400  1.883E-05    0   0.4927   age193_m42            0.0000     3.8242E+03     7.2291  -0.9477    99.5959
 16      0.0000     0.0000E+00    0.0000E+00    1.000000E+06  0.02000  1.989E-02    0   1.0000   age020_m62            0.0000     6.8718E+03    14.1772   3.4190    78.4650
 17      0.0000     0.0000E+00    0.0000E+00    3.160000E+06  0.02000  3.772E-02    0   0.9858   age045_m62            0.0000     6.1485E+03    13.4716   3.2668    80.5065
 18      0.0000     0.0000E+00    0.0000E+00    5.010000E+06  0.02000  3.227E-02    0   0.9342   age055_m62            0.0000     2.2935E+03     8.4077   2.6963    88.6435
 19      0.0000     0.0000E+00    0.0000E+00    1.000000E+07  0.02000  1.011E-02    0   0.8751   age070_m62            0.0000     7.4678E+03    15.5481   2.0984    84.8820
 20      0.0000     0.0000E+00    0.0000E+00    2.512000E+07  0.02000  4.206E-03    0   0.8099   age090_m62            0.0000     5.4947E+03    13.1065   2.0221    85.8268
 21      0.0000     0.0000E+00    0.0000E+00    4.000000E+07  0.02000  3.373E-03    0   0.7799   age104_m62            0.0000     1.5836E+03     6.7657   1.7723    95.4411
 22      0.0000     0.0000E+00    0.0000E+00    1.015200E+08  0.02000  1.878E-03    0   0.7221   age116_m62            0.0000     3.0714E+03     5.8340   1.5050   104.9517
 23      0.0000     0.0000E+00    0.0000E+00    2.861200E+08  0.02000  8.869E-04    0   0.6700   age125_m62            0.0000     7.4263E+03    10.1757   0.9076   113.5977
 24      0.0000     0.0000E+00    0.0000E+00    6.405400E+08  0.02000  3.657E-04    0   0.6322   age132_m62            0.0000     4.1175E+03     9.2528   0.1455   119.1186
 25      0.0000     0.0000E+00    0.0000E+00    9.047900E+08  0.02000  2.312E-04    0   0.6152   age135_m62            0.0000     2.0273E+03     7.2965  -0.2316   118.1822
 26      0.0000     0.0000E+00    0.0000E+00    1.434000E+09  0.02000  1.168E-04    0   0.5865   age139_m62            0.0000     1.0091E+03     5.1440  -0.6095   111.0050
 27      0.0000     0.0000E+00    0.0000E+00    2.500000E+09  0.02000  5.505E-05    0   0.5610   age150_m62            0.0000     2.5937E+03     6.8320  -0.9962   107.9415
 28      0.0000     0.0000E+00    0.0000E+00    5.000000E+09  0.02000  2.596E-05    0   0.5353   age161_m62            0.0000     6.8520E+03    10.9526  -1.0000   101.7780
 29      0.0000     0.0000E+00    0.0000E+00    1.100000E+10  0.02000  1.169E-05    0   0.5103   age185_m62            0.0000     1.4858E+04    17.7633  -1.0000    95.0461
 30      0.0000     0.0000E+00    0.0000E+00    1.300000E+10  0.02000  9.691E-06    0   0.5047   age193_m62            0.0000     1.6290E+04    18.6526  -1.0000    94.1440
 31      0.0000     0.0000E+00    0.0000E+00    1.000000E+06  0.05000  2.651E-02    0   0.9998   age020_m72            0.0000     6.3580E+03    13.4668   3.4199    79.2846
 32      0.0000     0.0000E+00    0.0000E+00    3.160000E+06  0.05000  4.817E-02    0   0.9577   age045_m72            0.0000     4.2499E+03    11.0721   3.1084    83.8618
 33      0.0000     0.0000E+00    0.0000E+00    5.010000E+06  0.05000  3.101E-02    0   0.9147   age055_m72            0.0000     3.9952E+03    10.9729   2.7338    86.4247
 34      0.0000     0.0000E+00    0.0000E+00    1.000000E+07  0.05000  8.954E-03    0   0.8524   age070_m72            0.0000     4.1399E+03    10.8386   2.9741    85.0417
 35      0.0000     0.0000E+00    0.0000E+00    2.512000E+07  0.05000  4.207E-03    0   0.7902   age090_m72            0.0000     1.9947E+03     7.5286   2.4930    91.0129
 36      0.0000     0.0000E+00    0.0000E+00    4.000000E+07  0.05000  3.198E-03    0   0.7618   age104_m72            0.0000     1.7253E+03     4.3000   1.8928   100.2527
 37      0.0000     0.0000E+00    0.0000E+00    1.015200E+08  0.05000  1.716E-03    0   0.7092   age116_m72            0.0000     3.8543E+03     6.6435   1.5707   105.4525
 38      0.0000     0.0000E+00    0.0000E+00    2.861200E+08  0.05000  7.047E-04    0   0.6618   age125_m72            0.0000     6.9333E+03    10.3935   0.6549   114.9540
 39      0.0000     0.0000E+00    0.0000E+00    6.405400E+08  0.05000  2.633E-04    0   0.6253   age132_m72            0.0000     2.9744E+03     8.5746  -0.2686   119.1806
 40      0.0000     0.0000E+00    0.0000E+00    9.047900E+08  0.05000  1.484E-04    0   0.6088   age135_m72            0.0000     1.7807E+03     7.1436  -0.7369   113.3039
 41      0.0000     0.0000E+00    0.0000E+00    1.434000E+09  0.05000  7.827E-05    0   0.5847   age139_m72            0.0000     3.5959E+03     8.4664  -1.0000   107.0864
 42      0.0000     0.0000E+00    0.0000E+00    2.500000E+09  0.05000  3.759E-05    0   0.5583   age150_m72            0.0000     8.1210E+03    12.3996  -1.0000    99.9057
 43      0.0000     0.0000E+00    0.0000E+00    5.000000E+09  0.05000  1.548E-05    0   0.5320   age161_m72            0.0000     1.7371E+04    19.5017  -1.0000    90.2579
 44      0.0000     0.0000E+00    0.0000E+00    1.100000E+10  0.05000  6.532E-06    0   0.5070   age185_m72            0.0000     2.9619E+04    25.6847  -1.0000    80.7640
 45      0.0000     0.0000E+00    0.0000E+00    1.300000E+10  0.05000  5.316E-06    0   0.5018   age193_m72            0.0000     3.4217E+04    27.4773  -1.0000    77.8475


## Synthesis Results - Average & Chains ##

# j      x_j: min, <> & last-chain-values for 1 ...  7 chains
  1      0.0000      0.0143      0.0000      0.0000      0.0000      0.0000      0.0000      0.0000      0.0000
  2     18.3558     17.9193     17.9446     17.8437     17.9605     17.9849     18.1318     18.0348     18.0565
  3      0.0000      0.0156      0.0000      0.0000      0.0000      0.0000      0.0000      0.0000      0.0091
  4      0.0000      0.0153      0.0503      0.0000      0.0158      0.0000      0.0000      0.0168      0.0000
  5      0.0000      0.0223      0.0000      0.0000      0.0000      0.0000      0.0000      0.0000      0.0000
  6      0.0000      0.0418      0.0152      0.0527      0.0855      0.0597      0.0000      0.0000      0.0274
  7     14.9712     15.4296     15.4075     15.0981     15.0658     15.4623     15.5375     15.3581     15.5203
  8      0.0000      0.0939      0.1158      0.0629      0.0701      0.2143      0.0194      0.4249      0.1435
  9      0.0000      0.0927      0.0000      0.0000      0.1712      0.0000      0.1178      0.0714      0.0801
 10     11.6771     10.7095     10.8378     11.1305     11.0632     10.7571     10.9027     10.7650     10.7841
 11      2.9072      2.5967      2.7797      2.5700      2.5942      2.5700      2.5582      2.3832      2.7044
 12     56.1240     56.1338     56.4051     56.2668     56.1058     56.3578     56.6821     56.5119     56.4277
 13      0.0000      0.0478      0.0000      0.0000      0.0363      0.0000      0.0000      0.1596      0.0000
 14      0.0000      0.0200      0.0000      0.0000      0.0000      0.0855      0.0000      0.0096      0.0000
 15      0.0000      0.0243      0.0108      0.0000      0.0000      0.0000      0.0000      0.0000      0.0199
 16      0.0000      0.0138      0.0363      0.0000      0.0000      0.0000      0.0095      0.0000      0.0000
 17      0.0000      0.0120      0.0000      0.0000      0.0291      0.0378      0.0000      0.0000      0.0000
 18      0.0000      0.0116      0.0000      0.0000      0.0252      0.0000      0.0000      0.0000      0.0000
 19      0.0000      0.0110      0.0000      0.0000      0.0000      0.0000      0.0000      0.0000      0.0000
 20      0.0000      0.0230      0.0000      0.1764      0.0000      0.0000      0.0000      0.0000      0.0000
 21      0.0000      0.0314      0.0185      0.0000      0.0000      0.0000      0.0000      0.0000      0.0000
 22      0.0000      0.0316      0.0000      0.0970      0.0465      0.0000      0.0000      0.0223      0.0000
 23      0.0000      0.0584      0.0000      0.0000      0.0302      0.0000      0.0158      0.0437      0.0000
 24      0.0000      0.0781      0.1586      0.0000      0.0000      0.0795      0.0000      0.0404      0.0000
 25      0.0000      0.1114      0.0444      0.0000      0.0019      0.3098      0.0157      0.0000      0.0401
 26      0.0000      0.0478      0.0000      0.0000      0.0000      0.0000      0.0000      0.0000      0.0000
 27      0.0000      0.0297      0.0000      0.0000      0.0199      0.0000      0.0000      0.0000      0.0000
 28      0.0000      0.0188      0.0000      0.0000      0.0000      0.0000      0.0000      0.0083      0.0000
 29      0.0000      0.0073      0.0000      0.0000      0.0000      0.0000      0.0000      0.0000      0.0022
 30      0.0000      0.0052      0.0000      0.0000      0.0000      0.0000      0.0000      0.0000      0.0000
 31      0.0000      0.0088      0.0000      0.0000      0.0000      0.0000      0.0000      0.0000      0.0000
 32      0.0000      0.0142      0.0869      0.0000      0.0942      0.0521      0.0000      0.0721      0.0647
 33      0.0000      0.0190      0.0515      0.1128      0.0881      0.0035      0.0000      0.0000      0.0000
 34      0.0000      0.0104      0.0000      0.0000      0.0000      0.0000      0.0000      0.0000      0.0252
 35      0.0000      0.0125      0.0000      0.0000      0.0110      0.0401      0.0177      0.0000      0.0017
 36      0.0000      0.0310      0.0000      0.0632      0.0000      0.0000      0.0000      0.0000      0.0000
 37      0.0000      0.0275      0.0000      0.0718      0.0000      0.0178      0.0000      0.0000      0.0000
 38      0.0000      0.0518      0.0478      0.0327      0.0000      0.0000      0.0000      0.0000      0.0000
 39      0.0000      0.0911      0.0000      0.4722      0.4773      0.0091      0.0229      0.0595      0.0538
 40      0.0000      0.0614      0.0000      0.0000      0.0307      0.0000      0.0000      0.0238      0.0626
 41      0.0000      0.0194      0.0000      0.0000      0.0000      0.0000      0.0000      0.0000      0.0054
 42      0.0000      0.0074      0.0000      0.0000      0.0180      0.0000      0.0000      0.0000      0.0000
 43      0.0000      0.0052      0.0000      0.0000      0.0000      0.0000      0.0000      0.0214      0.0000
 44      0.0000      0.0021      0.0000      0.0000      0.0000      0.0000      0.0000      0.0000      0.0000
 45      0.0000      0.0015      0.0000      0.0000      0.0000      0.0000      0.0000      0.0000      0.0000

# j      m_j: min, <> & last-chain-values for 1 ...  7 chains
  1  0.0000E+00  3.6785E-04  0.0000E+00  0.0000E+00  0.0000E+00  0.0000E+00  0.0000E+00  0.0000E+00  0.0000E+00
  2  1.3020E-01  1.2611E-01  1.2703E-01  1.2650E-01  1.2725E-01  1.2686E-01  1.2818E-01  1.2692E-01  1.2768E-01
  3  0.0000E+00  1.6740E-04  0.0000E+00  0.0000E+00  0.0000E+00  0.0000E+00  0.0000E+00  0.0000E+00  9.7611E-05
  4  0.0000E+00  3.0500E-04  1.0105E-03  0.0000E+00  3.1760E-04  0.0000E+00  0.0000E+00  3.3607E-04  0.0000E+00
  5  0.0000E+00  1.0311E-03  0.0000E+00  0.0000E+00  0.0000E+00  0.0000E+00  0.0000E+00  0.0000E+00  0.0000E+00
  6  0.0000E+00  2.6835E-03  9.8491E-04  3.4055E-03  5.5296E-03  3.8393E-03  0.0000E+00  0.0000E+00  1.7647E-03
  7  1.3746E+00  1.4056E+00  1.4118E+00  1.3854E+00  1.3817E+00  1.4117E+00  1.4217E+00  1.3990E+00  1.4206E+00
  8  0.0000E+00  1.6497E-02  2.0471E-02  1.1130E-02  1.2393E-02  3.7738E-02  3.4299E-03  7.4650E-02  2.5336E-02
  9  0.0000E+00  3.2455E-02  0.0000E+00  0.0000E+00  6.0313E-02  0.0000E+00  4.1402E-02  2.4967E-02  2.8161E-02
 10  5.7496E+00  5.2320E+00  5.3257E+00  5.4772E+00  5.4411E+00  5.2669E+00  5.3500E+00  5.2587E+00  5.2934E+00
 11  2.5138E+00  2.2278E+00  2.3988E+00  2.2210E+00  2.2406E+00  2.2098E+00  2.2045E+00  2.0445E+00  2.3312E+00
 12  9.0232E+01  8.9544E+01  9.0504E+01  9.0408E+01  9.0100E+01  9.0101E+01  9.0819E+01  9.0141E+01  9.0439E+01
 13  0.0000E+00  1.5197E-01  0.0000E+00  0.0000E+00  1.1620E-01  0.0000E+00  0.0000E+00  5.0704E-01  0.0000E+00
 14  0.0000E+00  1.2951E-01  0.0000E+00  0.0000E+00  0.0000E+00  5.5503E-01  0.0000E+00  6.2183E-02  0.0000E+00
 15  0.0000E+00  1.8236E-01  8.1592E-02  0.0000E+00  0.0000E+00  0.0000E+00  0.0000E+00  0.0000E+00  1.5005E-01
 16  0.0000E+00  1.9819E-04  5.2677E-04  0.0000E+00  0.0000E+00  0.0000E+00  1.3747E-04  0.0000E+00  0.0000E+00
 17  0.0000E+00  8.9855E-05  0.0000E+00  0.0000E+00  2.1925E-04  2.8366E-04  0.0000E+00  0.0000E+00  0.0000E+00
 18  0.0000E+00  9.6565E-05  0.0000E+00  0.0000E+00  2.1030E-04  0.0000E+00  0.0000E+00  0.0000E+00  0.0000E+00
 19  0.0000E+00  2.7242E-04  0.0000E+00  0.0000E+00  0.0000E+00  0.0000E+00  0.0000E+00  0.0000E+00  0.0000E+00
 20  0.0000E+00  1.2681E-03  0.0000E+00  9.8099E-03  0.0000E+00  0.0000E+00  0.0000E+00  0.0000E+00  0.0000E+00
 21  0.0000E+00  2.0834E-03  1.2330E-03  0.0000E+00  0.0000E+00  0.0000E+00  0.0000E+00  0.0000E+00  0.0000E+00
 22  0.0000E+00  3.4876E-03  0.0000E+00  1.0767E-02  5.1596E-03  0.0000E+00  0.0000E+00  2.4613E-03  0.0000E+00
 23  0.0000E+00  1.2659E-02  0.0000E+00  0.0000E+00  6.5901E-03  0.0000E+00  3.4420E-03  9.4568E-03  0.0000E+00
 24  0.0000E+00  3.8728E-02  7.9068E-02  0.0000E+00  0.0000E+00  3.9504E-02  0.0000E+00  2.0005E-02  0.0000E+00
 25  0.0000E+00  8.5006E-02  3.4034E-02  0.0000E+00  1.4324E-03  2.3688E-01  1.2060E-02  0.0000E+00  3.0745E-02
 26  0.0000E+00  6.8747E-02  0.0000E+00  0.0000E+00  0.0000E+00  0.0000E+00  0.0000E+00  0.0000E+00  0.0000E+00
 27  0.0000E+00  8.6717E-02  0.0000E+00  0.0000E+00  5.8622E-02  0.0000E+00  0.0000E+00  0.0000E+00  0.0000E+00
 28  0.0000E+00  1.1128E-01  0.0000E+00  0.0000E+00  0.0000E+00  0.0000E+00  0.0000E+00  4.8916E-02  0.0000E+00
 29  0.0000E+00  9.0913E-02  0.0000E+00  0.0000E+00  0.0000E+00  0.0000E+00  0.0000E+00  0.0000E+00  2.7881E-02
 30  0.0000E+00  7.8205E-02  0.0000E+00  0.0000E+00  0.0000E+00  0.0000E+00  0.0000E+00  0.0000E+00  0.0000E+00
 31  0.0000E+00  9.4828E-05  0.0000E+00  0.0000E+00  0.0000E+00  0.0000E+00  0.0000E+00  0.0000E+00  0.0000E+00
 32  0.0000E+00  8.1094E-05  4.9827E-04  0.0000E+00  5.4033E-04  2.9739E-04  0.0000E+00  4.1095E-04  3.7075E-04
 33  0.0000E+00  1.6041E-04  4.3802E-04  9.6112E-04  7.4975E-04  3.0036E-05  0.0000E+00  0.0000E+00  0.0000E+00
