###################################################################
## OUTPUT of StarlightChains_v04.for    [Cid@UFSC - 01/Apr/2007] ##
###################################################################

## Some input info
NGC1851_a_1.cxt                          [arq_obs]
Base.BC03.N                              [arq_base]
NGC1851_a_1.msk                          [arq_masks]
StCv04.C99.config                        [arq_config]
   45                                    [N_base]
    0                                    [N_YAV_components = # of components with extra extinction!]
    0                                    [i_FitPowerLaw (1/0 = Yes/No)]
-9.99                                    [alpha_PowerLaw]
CCM                                      [red_law_option]
 1.458241                                [q_norm = A(l_norm)/A(V)]

## (Re)Sampling Parameters
 3359.00                                 [l_ini (A)]
 6428.00                                 [l_fin (A)]
    1.00                                 [dl    (A)]     (OBS: dl_cushion =    50.00 A)

## Normalization info
 4020.00                                 [l_norm (A) - for base]
 4010.00                                 [llow_norm (A) - window for f_obs]
 4060.00                                 [lupp_norm (A) - window for f_obs]
8.317932E-14                             [fobs_norm (in input units)]

## S/N
 4730.00                                 [llow_SN (A) - window for S/N]
 4780.00                                 [lupp_SN (A) - window for S/N]
  72.129                                 [S/N in S/N window]
  63.854                                 [S/N in norm. window]
 355.079                                 [S/N_err in S/N window]
 314.342                                 [S/N_err in norm. window]
  1.0000                                 [fscale_chi2]

## etc...
  2147483647                             [idum_orig]
  3064                                   [NOl_eff]
   624                                   [Nl_eff]
  2440    NSIGMA                         [Ntot_cliped & clip_method]
  4570720                                [Nglobal_steps]
   7                                     [N_chains]
   5                                     [NEX0s_base = N_base in EX0s-fits]
 0   0   1      243   2.0   6.677E+02    [Clip-Bug, RC-Crash & Burn-In warning-flags, n_censored_weights, wei_nsig_threshold & wei_limit]
    40     39.950     39.950      0.000  [idt_all, wdt_TotTime, wdt_UsrTime & wdt_SysTime (sec)]

## Synthesis Results - Best model ##

 2.53390E+00                             [chi2/Nl_eff]
     0.57167                             [adev (%)]

   102.80819                             [sum-of-x (%)]
 1.09148E-13                             [Flux_tot (units of input spectrum!)]
 9.58067E-10                             [Mini_tot (???)]
 5.23655E-10                             [Mcor_tot (???)]

  -0.38                                  [v0_min  (km/s)]
  81.91                                  [vd_min  (km/s)]
 0.1817                                  [AV_min  (mag)]
 0.0000                                  [YAV_min (mag)]

# j     x_j(%)      Mini_j(%)     Mcor_j(%)     age_j(yr)     Z_j      (L/M)_j    YAV?  Mstars   component_j        a/Fe...       SSP_chi2r SSP_adev(%)   SSP_AV   SSP_x(%)
  1      0.0000     0.0000E+00    0.0000E+00    1.000000E+06  0.00400  1.114E-02    0   1.0000   age020_m42            0.0000     2.7690E+03    15.1011   3.7214    78.2083
  2      9.1799     2.4975E-02    4.5690E-02    3.160000E+06  0.00400  4.073E-02    0   0.9999   age045_m42            0.0000     8.6599E+02     8.6019   2.7480    91.9992
  3      0.0000     0.0000E+00    0.0000E+00    5.010000E+06  0.00400  2.534E-02    0   0.9488   age055_m42            0.0000     1.6207E+03    11.9527   3.1580    85.6952
  4      0.3235     2.8203E-03    4.5727E-03    1.000000E+07  0.00400  1.271E-02    0   0.8862   age070_m42            0.0000     1.5281E+03    11.9232   2.3643    89.1329
  5      0.0000     0.0000E+00    0.0000E+00    2.512000E+07  0.00400  5.070E-03    0   0.8174   age090_m42            0.0000     1.3698E+03    11.2223   2.2336    90.6027
  6      0.0000     0.0000E+00    0.0000E+00    4.000000E+07  0.00400  3.505E-03    0   0.7851   age104_m42            0.0000     9.3387E+02     9.1073   1.9084    93.5583
  7      5.6108     2.7414E-01    3.6148E-01    1.015200E+08  0.00400  2.268E-03    0   0.7207   age116_m42            0.0000     1.5783E+03     8.3560   1.8928   102.7402
  8      0.0000     0.0000E+00    0.0000E+00    2.861200E+08  0.00400  1.079E-03    0   0.6613   age125_m42            0.0000     1.5659E+03     8.2235   1.3923   105.1341
  9      0.0000     0.0000E+00    0.0000E+00    6.405400E+08  0.00400  5.077E-04    0   0.6197   age132_m42            0.0000     1.6869E+03     8.5401   1.0217   109.2843
 10      0.0000     0.0000E+00    0.0000E+00    9.047900E+08  0.00400  3.535E-04    0   0.6024   age135_m42            0.0000     1.0080E+03     6.6801   0.7687   108.9225
 11      0.0000     0.0000E+00    0.0000E+00    1.434000E+09  0.00400  1.910E-04    0   0.5716   age139_m42            0.0000     3.1522E+02     3.8819   0.2117   108.2003
 12     87.1039     9.8312E+01    9.8262E+01    2.500000E+09  0.00400  9.818E-05    0   0.5463   age150_m42            0.0000     5.4737E+01     2.1599  -0.0821   104.1160
 13      0.5902     1.3861E+00    1.3258E+00    5.000000E+09  0.00400  4.718E-05    0   0.5228   age161_m42            0.0000     1.6387E+02     2.9796  -0.2514   100.8549
 14      0.0000     0.0000E+00    0.0000E+00    1.100000E+10  0.00400  2.205E-05    0   0.4980   age185_m42            0.0000     5.6661E+02     5.2637  -0.5326    98.9990
 15      0.0000     0.0000E+00    0.0000E+00    1.300000E+10  0.00400  1.883E-05    0   0.4927   age193_m42            0.0000     6.3400E+02     5.5407  -0.5503    98.8391
 16      0.0000     0.0000E+00    0.0000E+00    1.000000E+06  0.02000  1.989E-02    0   1.0000   age020_m62            0.0000     2.7935E+03    15.0781   3.6825    78.8591
 17      0.0000     0.0000E+00    0.0000E+00    3.160000E+06  0.02000  3.772E-02    0   0.9858   age045_m62            0.0000     2.5631E+03    14.5777   3.5373    81.0036
 18      0.0000     0.0000E+00    0.0000E+00    5.010000E+06  0.02000  3.227E-02    0   0.9342   age055_m62            0.0000     1.2815E+03    10.5380   3.0074    88.4941
 19      0.0000     0.0000E+00    0.0000E+00    1.000000E+07  0.02000  1.011E-02    0   0.8751   age070_m62            0.0000     2.9245E+03    16.1130   2.4145    85.2082
 20      0.0000     0.0000E+00    0.0000E+00    2.512000E+07  0.02000  4.206E-03    0   0.8099   age090_m62            0.0000     2.2293E+03    13.9269   2.3378    86.2108
 21      0.0000     0.0000E+00    0.0000E+00    4.000000E+07  0.02000  3.373E-03    0   0.7799   age104_m62            0.0000     1.0284E+03     8.9716   2.1368    94.7362
 22      0.0000     0.0000E+00    0.0000E+00    1.015200E+08  0.02000  1.878E-03    0   0.7221   age116_m62            0.0000     1.5004E+03     8.5634   1.9349   102.6178
 23      0.0000     0.0000E+00    0.0000E+00    2.861200E+08  0.02000  8.869E-04    0   0.6700   age125_m62            0.0000     2.6601E+03    10.2601   1.4005   109.7463
 24      0.0000     0.0000E+00    0.0000E+00    6.405400E+08  0.02000  3.657E-04    0   0.6322   age132_m62            0.0000     1.4839E+03     8.2247   0.6608   114.7269
 25      0.0000     0.0000E+00    0.0000E+00    9.047900E+08  0.02000  2.312E-04    0   0.6152   age135_m62            0.0000     7.0727E+02     5.9770   0.2672   114.2120
 26      0.0000     0.0000E+00    0.0000E+00    1.434000E+09  0.02000  1.168E-04    0   0.5865   age139_m62            0.0000     1.7282E+02     3.5885  -0.1461   108.3234
 27      0.0000     0.0000E+00    0.0000E+00    2.500000E+09  0.02000  5.505E-05    0   0.5610   age150_m62            0.0000     4.2709E+02     5.0826  -0.5363   105.6473
 28      0.0000     0.0000E+00    0.0000E+00    5.000000E+09  0.02000  2.596E-05    0   0.5353   age161_m62            0.0000     1.1085E+03     7.9701  -0.8948   105.9254
 29      0.0000     0.0000E+00    0.0000E+00    1.100000E+10  0.02000  1.169E-05    0   0.5103   age185_m62            0.0000     2.3303E+03    10.9817  -1.0000   101.5248
 30      0.0000     0.0000E+00    0.0000E+00    1.300000E+10  0.02000  9.691E-06    0   0.5047   age193_m62            0.0000     2.6334E+03    11.6822  -1.0000   100.6618
 31      0.0000     0.0000E+00    0.0000E+00    1.000000E+06  0.05000  2.651E-02    0   0.9998   age020_m72            0.0000     2.6067E+03    14.4597   3.6843    79.7175
 32      0.0000     0.0000E+00    0.0000E+00    3.160000E+06  0.05000  4.817E-02    0   0.9577   age045_m72            0.0000     1.9359E+03    12.6638   3.3925    84.1508
 33      0.0000     0.0000E+00    0.0000E+00    5.010000E+06  0.05000  3.101E-02    0   0.9147   age055_m72            0.0000     1.7889E+03    12.3833   3.0444    86.6286
 34      0.0000     0.0000E+00    0.0000E+00    1.000000E+07  0.05000  8.954E-03    0   0.8524   age070_m72            0.0000     1.8205E+03    12.2368   3.2838    85.2644
 35      0.0000     0.0000E+00    0.0000E+00    2.512000E+07  0.05000  4.207E-03    0   0.7902   age090_m72            0.0000     1.1224E+03     9.5168   2.8448    90.6235
 36      0.0000     0.0000E+00    0.0000E+00    4.000000E+07  0.05000  3.198E-03    0   0.7618   age104_m72            0.0000     1.0541E+03     7.1652   2.3222    98.4217
 37      0.0000     0.0000E+00    0.0000E+00    1.015200E+08  0.05000  1.716E-03    0   0.7092   age116_m72            0.0000     1.7330E+03     8.8891   2.0349   102.7813
 38      0.0000     0.0000E+00    0.0000E+00    2.861200E+08  0.05000  7.047E-04    0   0.6618   age125_m72            0.0000     2.4494E+03     9.7944   1.1775   110.7530
 39      0.0000     0.0000E+00    0.0000E+00    6.405400E+08  0.05000  2.633E-04    0   0.6253   age132_m72            0.0000     1.0278E+03     7.1943   0.2630   114.6628
 40      0.0000     0.0000E+00    0.0000E+00    9.047900E+08  0.05000  1.484E-04    0   0.6088   age135_m72            0.0000     4.0881E+02     5.4762  -0.2377   109.9029
 41      0.0000     0.0000E+00    0.0000E+00    1.434000E+09  0.05000  7.827E-05    0   0.5847   age139_m72            0.0000     6.8108E+02     6.7767  -0.6424   106.4652
 42      0.0000     0.0000E+00    0.0000E+00    2.500000E+09  0.05000  3.759E-05    0   0.5583   age150_m72            0.0000     1.2533E+03     8.6176  -0.9787   105.8137
 43      0.0000     0.0000E+00    0.0000E+00    5.000000E+09  0.05000  1.548E-05    0   0.5320   age161_m72            0.0000     2.7568E+03    12.4316  -1.0000    97.0349
 44      0.0000     0.0000E+00    0.0000E+00    1.100000E+10  0.05000  6.532E-06    0   0.5070   age185_m72            0.0000     5.6347E+03    18.3792  -1.0000    87.5086
 45      0.0000     0.0000E+00    0.0000E+00    1.300000E+10  0.05000  5.316E-06    0   0.5018   age193_m72            0.0000     6.8386E+03    20.3196  -1.0000    84.5705


## Synthesis Results - Average & Chains ##

# j      x_j: min, <> & last-chain-values for 1 ...  7 chains
  1      0.0000      0.0097      0.0461      0.0000      0.0000      0.0000      0.0000      0.0000      0.0000
  2      9.1799      8.5773      8.7553      8.5916      8.7211      8.6863      8.6498      8.6516      8.7570
  3      0.0000      0.0324      0.0418      0.0589      0.0615      0.0110      0.0000      0.0000      0.0000
  4      0.3235      0.5489      0.5745      0.5605      0.6236      0.6665      0.5933      0.5189      0.5223
  5      0.0000      0.0374      0.0000      0.0000      0.0000      0.0000      0.0420      0.0890      0.0000
  6      0.0000      0.0456      0.0000      0.0307      0.0000      0.0154      0.0468      0.0619      0.0000
  7      5.6108      5.5442      5.5270      5.6536      5.6924      5.5956      5.5897      5.6252      5.6255
  8      0.0000      0.0380      0.0060      0.0000      0.0000      0.0023      0.0000      0.0446      0.0000
  9      0.0000      0.0664      0.0000      0.0763      0.0052      0.0365      0.0000      0.0000      0.0000
 10      0.0000      0.0744      0.3930      0.2136      0.0000      0.0000      0.0000      0.0265      0.0656
 11      0.0000      0.0904      0.0029      0.0000      0.1205      0.0000      0.0251      0.0000      0.0070
 12     87.1039     86.0680     86.6009     86.6104     86.3210     86.5491     86.6706     86.4425     86.9675
 13      0.5902      0.1815      0.0000      0.0000      0.2489      0.0000      0.2344      0.0242      0.0000
 14      0.0000      0.0636      0.0000      0.0000      0.0000      0.0000      0.0589      0.0000      0.0000
 15      0.0000      0.0730      0.0461      0.0268      0.0000      0.0215      0.1279      0.0734      0.0230
 16      0.0000      0.0093      0.0000      0.0000      0.0000      0.0000      0.0000      0.0000      0.0000
 17      0.0000      0.0135      0.0000      0.0000      0.0000      0.0000      0.0052      0.0000      0.0000
 18      0.0000      0.0387      0.0518      0.0535      0.0000      0.0000      0.0000      0.0121      0.0735
 19      0.0000      0.0280      0.0000      0.0000      0.0000      0.0000      0.0018      0.0000      0.0000
 20      0.0000      0.0161      0.0295      0.0000      0.0000      0.0249      0.0034      0.0000      0.0063
 21      0.0000      0.0351      0.0497      0.0191      0.0299      0.0000      0.0000      0.0223      0.0064
 22      0.0000      0.0263      0.0000      0.0017      0.0000      0.0315      0.0475      0.0000      0.0000
 23      0.0000      0.0272      0.0044      0.0196      0.0000      0.0000      0.0000      0.1301      0.0000
 24      0.0000      0.0218      0.0000      0.0380      0.0000      0.0060      0.0000      0.0000      0.0000
 25      0.0000      0.0738      0.0000      0.0000      0.0000      0.0544      0.0745      0.0000      0.0648
 26      0.0000      0.1068      0.0568      0.0000      0.0000      0.0000      0.0000      0.0655      0.0000
 27      0.0000      0.0932      0.2021      0.0000      0.0666      0.1213      0.0000      0.0000      0.0130
 28      0.0000      0.0422      0.0000      0.0000      0.0000      0.0345      0.0000      0.0289      0.0000
 29      0.0000      0.0173      0.0000      0.0000      0.0000      0.0000      0.0000      0.0000      0.0016
 30      0.0000      0.0181      0.0000      0.0000      0.0000      0.0066      0.0000      0.0000      0.0000
 31      0.0000      0.0090      0.0000      0.0000      0.0364      0.0000      0.0045      0.0000      0.0000
 32      0.0000      0.0214      0.0000      0.0000      0.0012      0.0000      0.0453      0.0213      0.1318
 33      0.0000      0.0575      0.0000      0.1785      0.0834      0.1692      0.0173      0.1847      0.0000
 34      0.0000      0.0177      0.0000      0.0000      0.0000      0.0000      0.0000      0.0000      0.0000
 35      0.0000      0.0191      0.0000      0.0000      0.0000      0.0000      0.0000      0.0000      0.0000
 36      0.0000      0.0225      0.0000      0.0322      0.0000      0.0264      0.0101      0.0150      0.0000
 37      0.0000      0.0286      0.0287      0.0409      0.0000      0.0000      0.1965      0.0665      0.0122
 38      0.0000      0.0351      0.0000      0.0000      0.0684      0.0000      0.0000      0.0000      0.0895
 39      0.0000      0.0694      0.0000      0.0066      0.1274      0.0944      0.0000      0.0184      0.0539
 40      0.0000      0.1560      0.1060      0.0076      0.1380      0.2044      0.0000      0.1704      0.0000
 41      0.0000      0.1258      0.0000      0.2012      0.2089      0.1325      0.1049      0.1772      0.1204
 42      0.0000      0.0377      0.0000      0.0000      0.0000      0.0117      0.0000      0.0000      0.0000
 43      0.0000      0.0828      0.1562      0.3016      0.1302      0.1164      0.1713      0.1574      0.1128
 44      0.0000      0.0753      0.0564      0.0489      0.0411      0.1150      0.0259      0.0780      0.0842
 45      0.0000      0.0751      0.1175      0.0837      0.1187      0.0853      0.0804      0.1356      0.0936

# j      m_j: min, <> & last-chain-values for 1 ...  7 chains
  1  0.0000E+00  1.7035E-04  8.1262E-04  0.0000E+00  0.0000E+00  0.0000E+00  0.0000E+00  0.0000E+00  0.0000E+00
  2  4.5690E-02  4.1347E-02  4.2192E-02  4.1449E-02  4.2182E-02  4.1820E-02  4.1782E-02  4.1426E-02  4.2366E-02
  3  0.0000E+00  2.3786E-04  3.0694E-04  4.3365E-04  4.5368E-04  8.0970E-05  0.0000E+00  0.0000E+00  0.0000E+00
  4  4.5727E-03  7.5149E-03  7.8630E-03  7.6807E-03  8.5669E-03  9.1133E-03  8.1392E-03  7.0567E-03  7.1773E-03
  5  0.0000E+00  1.1831E-03  0.0000E+00  0.0000E+00  0.0000E+00  0.0000E+00  1.3315E-03  2.7980E-03  0.0000E+00
  6  0.0000E+00  2.0046E-03  0.0000E+00  1.3527E-03  0.0000E+00  6.7807E-04  2.0614E-03  2.7049E-03  0.0000E+00
  7  3.6148E-01  3.4595E-01  3.4476E-01  3.5305E-01  3.5638E-01  3.4871E-01  3.4949E-01  3.4864E-01  3.5228E-01
  8  0.0000E+00  4.5765E-03  7.2524E-04  0.0000E+00  0.0000E+00  2.7947E-04  0.0000E+00  5.3303E-03  0.0000E+00
  9  0.0000E+00  1.5909E-02  0.0000E+00  1.8298E-02  1.2520E-03  8.7308E-03  0.0000E+00  0.0000E+00  0.0000E+00
 10  0.0000E+00  2.4894E-02  1.3145E-01  7.1538E-02  0.0000E+00  0.0000E+00  0.0000E+00  8.8067E-03  2.2015E-02
 11  0.0000E+00  5.3144E-02  1.7023E-03  0.0000E+00  7.1057E-02  0.0000E+00  1.4806E-02  0.0000E+00  4.1573E-03
 12  9.8262E+01  9.4039E+01  9.4590E+01  9.4706E+01  9.4632E+01  9.4444E+01  9.4889E+01  9.3813E+01  9.5364E+01
 13  1.3258E+00  3.9489E-01  0.0000E+00  0.0000E+00  5.4329E-01  0.0000E+00  5.1116E-01  5.2216E-02  0.0000E+00
 14  0.0000E+00  2.8188E-01  0.0000E+00  0.0000E+00  0.0000E+00  0.0000E+00  2.6178E-01  0.0000E+00  0.0000E+00
 15  0.0000E+00  3.7518E-01  2.3691E-01  1.3777E-01  0.0000E+00  1.1028E-01  6.5869E-01  3.7456E-01  1.1841E-01
 16  0.0000E+00  9.2263E-05  0.0000E+00  0.0000E+00  0.0000E+00  0.0000E+00  0.0000E+00  0.0000E+00  0.0000E+00
 17  0.0000E+00  6.9478E-05  0.0000E+00  0.0000E+00  0.0000E+00  0.0000E+00  2.6694E-05  0.0000E+00  0.0000E+00
 18  0.0000E+00  2.1974E-04  2.9411E-04  3.0452E-04  0.0000E+00  0.0000E+00  0.0000E+00  6.8468E-05  4.1906E-04
 19  0.0000E+00  4.7547E-04  0.0000E+00  0.0000E+00  0.0000E+00  0.0000E+00  3.1383E-05  0.0000E+00  0.0000E+00
 20  0.0000E+00  6.0702E-04  1.1133E-03  0.0000E+00  0.0000E+00  9.3859E-04  1.2996E-04  0.0000E+00  2.3971E-04
 21  0.0000E+00  1.5945E-03  2.2542E-03  8.6810E-04  1.3627E-03  0.0000E+00  0.0000E+00  1.0056E-03  2.9390E-04
 22  0.0000E+00  1.9823E-03  0.0000E+00  1.2984E-04  0.0000E+00  2.3732E-03  3.5905E-03  0.0000E+00  0.0000E+00
 23  0.0000E+00  4.0343E-03  6.5815E-04  2.9126E-03  0.0000E+00  0.0000E+00  0.0000E+00  1.9165E-02  0.0000E+00
 24  0.0000E+00  7.4144E-03  0.0000E+00  1.2924E-02  0.0000E+00  2.0408E-03  0.0000E+00  0.0000E+00  0.0000E+00
 25  0.0000E+00  3.8579E-02  0.0000E+00  0.0000E+00  0.0000E+00  2.8377E-02  3.9005E-02  0.0000E+00  3.3981E-02
 26  0.0000E+00  1.0526E-01  5.5972E-02  0.0000E+00  0.0000E+00  0.0000E+00  0.0000E+00  6.4121E-02  0.0000E+00
 27  0.0000E+00  1.8646E-01  4.0430E-01  0.0000E+00  1.3366E-01  2.4233E-01  0.0000E+00  0.0000E+00  2.6087E-02
 28  0.0000E+00  1.7078E-01  0.0000E+00  0.0000E+00  0.0000E+00  1.3966E-01  0.0000E+00  1.1638E-01  0.0000E+00
 29  0.0000E+00  1.4821E-01  0.0000E+00  0.0000E+00  0.0000E+00  0.0000E+00  0.0000E+00  0.0000E+00  1.3954E-02
 30  0.0000E+00  1.8546E-01  0.0000E+00  0.0000E+00  0.0000E+00  6.7608E-02  0.0000E+00  0.0000E+00  0.0000E+00
 31  0.0000E+00  6.6385E-05  0.0000E+00  0.0000E+00  2.7059E-04  0.0000E+00  3.3402E-05  0.0000E+00  0.0000E+00
 32  0.0000E+00  8.3735E-05  0.0000E+00  0.0000E+00  4.8483E-06  0.0000E+00  1.7706E-04  8.2562E-05  5.1627E-04
 33  0.0000E+00  3.3319E-04  0.0000E+00  1.0344E-03  4.8448E-04  9.7895E-04  1.0043E-04  1.0624E-03  0.0000E+00
