###################################################################
## OUTPUT of StarlightChains_v04.for    [Cid@UFSC - 01/Apr/2007] ##
###################################################################

## Some input info
NGC1904_b_1.cxt                          [arq_obs]
Base.BC03.N                              [arq_base]
NGC1904_b_1.msk                          [arq_masks]
StCv04.C99.config                        [arq_config]
   45                                    [N_base]
    0                                    [N_YAV_components = # of components with extra extinction!]
    0                                    [i_FitPowerLaw (1/0 = Yes/No)]
-9.99                                    [alpha_PowerLaw]
CCM                                      [red_law_option]
 1.458241                                [q_norm = A(l_norm)/A(V)]

## (Re)Sampling Parameters
 3359.00                                 [l_ini (A)]
 6428.00                                 [l_fin (A)]
    1.00                                 [dl    (A)]     (OBS: dl_cushion =    50.00 A)

## Normalization info
 4020.00                                 [l_norm (A) - for base]
 4010.00                                 [llow_norm (A) - window for f_obs]
 4060.00                                 [lupp_norm (A) - window for f_obs]
3.423556E-14                             [fobs_norm (in input units)]

## S/N
 4730.00                                 [llow_SN (A) - window for S/N]
 4780.00                                 [lupp_SN (A) - window for S/N]
 126.287                                 [S/N in S/N window]
 125.997                                 [S/N in norm. window]
 129.607                                 [S/N_err in S/N window]
 129.310                                 [S/N_err in norm. window]
  1.0000                                 [fscale_chi2]

## etc...
  2147483645                             [idum_orig]
  3066                                   [NOl_eff]
  2001                                   [Nl_eff]
  1065    NSIGMA                         [Ntot_cliped & clip_method]
  1148700                                [Nglobal_steps]
   7                                     [N_chains]
   6                                     [NEX0s_base = N_base in EX0s-fits]
 0   0   1      245   2.0   2.750E+02    [Clip-Bug, RC-Crash & Burn-In warning-flags, n_censored_weights, wei_nsig_threshold & wei_limit]
    20     20.329     20.321      0.008  [idt_all, wdt_TotTime, wdt_UsrTime & wdt_SysTime (sec)]

## Synthesis Results - Best model ##

 2.23407E+00                             [chi2/Nl_eff]
     1.11913                             [adev (%)]

   102.56390                             [sum-of-x (%)]
 5.71561E-14                             [Flux_tot (units of input spectrum!)]
 3.21540E-10                             [Mini_tot (???)]
 1.77142E-10                             [Mcor_tot (???)]

 -10.35                                  [v0_min  (km/s)]
 114.91                                  [vd_min  (km/s)]
 0.3627                                  [AV_min  (mag)]
 0.0000                                  [YAV_min (mag)]

# j     x_j(%)      Mini_j(%)     Mcor_j(%)     age_j(yr)     Z_j      (L/M)_j    YAV?  Mstars   component_j        a/Fe...       SSP_chi2r SSP_adev(%)   SSP_AV   SSP_x(%)
  1      0.0000     0.0000E+00    0.0000E+00    1.000000E+06  0.00400  1.114E-02    0   1.0000   age020_m42            0.0000     3.3104E+02    10.3790   3.3400    76.2945
  2     18.4282     7.8416E-02    1.4232E-01    3.160000E+06  0.00400  4.073E-02    0   0.9999   age045_m42            0.0000     6.1065E+01     4.7031   2.3378    91.6767
  3      0.0000     0.0000E+00    0.0000E+00    5.010000E+06  0.00400  2.534E-02    0   0.9488   age055_m42            0.0000     1.6301E+02     7.5451   2.7671    84.5175
  4      0.4611     6.2880E-03    1.0115E-02    1.000000E+07  0.00400  1.271E-02    0   0.8862   age070_m42            0.0000     1.3771E+02     7.4305   1.9792    88.2271
  5      0.0000     0.0000E+00    0.0000E+00    2.512000E+07  0.00400  5.070E-03    0   0.8174   age090_m42            0.0000     1.1811E+02     6.8745   1.8485    89.8099
  6      0.0000     0.0000E+00    0.0000E+00    4.000000E+07  0.00400  3.505E-03    0   0.7851   age104_m42            0.0000     6.6413E+01     5.1163   1.5233    93.1189
  7     18.7195     1.4305E+00    1.8713E+00    1.015200E+08  0.00400  2.268E-03    0   0.7207   age116_m42            0.0000     1.0821E+02     4.0615   1.4685   104.9519
  8      0.0000     0.0000E+00    0.0000E+00    2.861200E+08  0.00400  1.079E-03    0   0.6613   age125_m42            0.0000     1.2490E+02     4.8057   0.9711   107.2178
  9      0.0000     0.0000E+00    0.0000E+00    6.405400E+08  0.00400  5.077E-04    0   0.6197   age132_m42            0.0000     1.4558E+02     5.2169   0.6080   111.4132
 10     18.4696     9.0553E+00    9.9015E+00    9.047900E+08  0.00400  3.535E-04    0   0.6024   age135_m42            0.0000     8.0007E+01     4.1719   0.3747   110.2892
 11      0.0000     0.0000E+00    0.0000E+00    1.434000E+09  0.00400  1.910E-04    0   0.5716   age139_m42            0.0000     3.6928E+01     3.6941  -0.1493   108.5979
 12     42.6228     7.5240E+01    7.4610E+01    2.500000E+09  0.00400  9.818E-05    0   0.5463   age150_m42            0.0000     3.6625E+01     3.2579  -0.4138   103.3041
 13      3.8626     1.4189E+01    1.3465E+01    5.000000E+09  0.00400  4.718E-05    0   0.5228   age161_m42            0.0000     6.5698E+01     3.7059  -0.5728    99.5317
 14      0.0000     0.0000E+00    0.0000E+00    1.100000E+10  0.00400  2.205E-05    0   0.4980   age185_m42            0.0000     1.3217E+02     5.1418  -0.8355    97.3135
 15      0.0000     0.0000E+00    0.0000E+00    1.300000E+10  0.00400  1.883E-05    0   0.4927   age193_m42            0.0000     1.4332E+02     5.3154  -0.8522    97.1100
 16      0.0000     0.0000E+00    0.0000E+00    1.000000E+06  0.02000  1.989E-02    0   1.0000   age020_m62            0.0000     3.3117E+02    10.3595   3.3052    76.9441
 17      0.0000     0.0000E+00    0.0000E+00    3.160000E+06  0.02000  3.772E-02    0   0.9858   age045_m62            0.0000     2.9225E+02     9.8306   3.1639    79.1858
 18      0.0000     0.0000E+00    0.0000E+00    5.010000E+06  0.02000  3.227E-02    0   0.9342   age055_m62            0.0000     1.0269E+02     5.9940   2.6173    87.7859
 19      0.0000     0.0000E+00    0.0000E+00    1.000000E+07  0.02000  1.011E-02    0   0.8751   age070_m62            0.0000     3.3124E+02    11.4227   2.0281    83.4525
 20      0.0000     0.0000E+00    0.0000E+00    2.512000E+07  0.02000  4.206E-03    0   0.8099   age090_m62            0.0000     2.4137E+02     9.4480   1.9572    84.7037
 21      0.0000     0.0000E+00    0.0000E+00    4.000000E+07  0.02000  3.373E-03    0   0.7799   age104_m62            0.0000     5.2163E+01     4.5704   1.7353    94.7884
 22      0.0000     0.0000E+00    0.0000E+00    1.015200E+08  0.02000  1.878E-03    0   0.7221   age116_m62            0.0000     8.1736E+01     3.5326   1.5100   104.6954
 23      0.0000     0.0000E+00    0.0000E+00    2.861200E+08  0.02000  8.869E-04    0   0.6700   age125_m62            0.0000     2.5519E+02     6.8458   0.9697   112.7607
 24      0.0000     0.0000E+00    0.0000E+00    6.405400E+08  0.02000  3.657E-04    0   0.6322   age132_m62            0.0000     1.6923E+02     6.8880   0.2864   116.2032
 25      0.0000     0.0000E+00    0.0000E+00    9.047900E+08  0.02000  2.312E-04    0   0.6152   age135_m62            0.0000     9.3955E+01     5.7467  -0.0810   114.8052
 26      0.0000     0.0000E+00    0.0000E+00    1.434000E+09  0.02000  1.168E-04    0   0.5865   age139_m62            0.0000     5.1715E+01     4.2935  -0.4803   107.8968
 27      0.0000     0.0000E+00    0.0000E+00    2.500000E+09  0.02000  5.505E-05    0   0.5610   age150_m62            0.0000     1.0564E+02     5.3977  -0.8491   104.6476
 28      0.0000     0.0000E+00    0.0000E+00    5.000000E+09  0.02000  2.596E-05    0   0.5353   age161_m62            0.0000     2.3433E+02     7.1528  -1.0000    99.9923
 29      0.0000     0.0000E+00    0.0000E+00    1.100000E+10  0.02000  1.169E-05    0   0.5103   age185_m62            0.0000     5.4704E+02    12.1483  -1.0000    91.3245
 30      0.0000     0.0000E+00    0.0000E+00    1.300000E+10  0.02000  9.691E-06    0   0.5047   age193_m62            0.0000     6.0688E+02    12.8666  -1.0000    90.1898
 31      0.0000     0.0000E+00    0.0000E+00    1.000000E+06  0.05000  2.651E-02    0   0.9998   age020_m72            0.0000     3.0778E+02     9.8392   3.3075    77.8476
 32      0.0000     0.0000E+00    0.0000E+00    3.160000E+06  0.05000  4.817E-02    0   0.9577   age045_m72            0.0000     2.0220E+02     8.0438   3.0133    82.7685
 33      0.0000     0.0000E+00    0.0000E+00    5.010000E+06  0.05000  3.101E-02    0   0.9147   age055_m72            0.0000     1.8368E+02     7.9012   2.6497    85.3760
 34      0.0000     0.0000E+00    0.0000E+00    1.000000E+07  0.05000  8.954E-03    0   0.8524   age070_m72            0.0000     1.9807E+02     7.8821   2.8950    83.8869
 35      0.0000     0.0000E+00    0.0000E+00    2.512000E+07  0.05000  4.207E-03    0   0.7902   age090_m72            0.0000     8.4559E+01     5.2320   2.4405    90.1611
 36      0.0000     0.0000E+00    0.0000E+00    4.000000E+07  0.05000  3.198E-03    0   0.7618   age104_m72            0.0000     3.6915E+01     2.6671   1.8920    99.8543
 37      0.0000     0.0000E+00    0.0000E+00    1.015200E+08  0.05000  1.716E-03    0   0.7092   age116_m72            0.0000     1.0929E+02     4.1391   1.5882   105.1792
 38      0.0000     0.0000E+00    0.0000E+00    2.861200E+08  0.05000  7.047E-04    0   0.6618   age125_m72            0.0000     2.5093E+02     7.3276   0.7554   113.4945
 39      0.0000     0.0000E+00    0.0000E+00    6.405400E+08  0.05000  2.633E-04    0   0.6253   age132_m72            0.0000     1.3505E+02     6.6814  -0.0983   115.6665
 40      0.0000     0.0000E+00    0.0000E+00    9.047900E+08  0.05000  1.484E-04    0   0.6088   age135_m72            0.0000     8.3638E+01     5.6534  -0.5683   109.7007
 41      0.0000     0.0000E+00    0.0000E+00    1.434000E+09  0.05000  7.827E-05    0   0.5847   age139_m72            0.0000     1.3945E+02     6.6062  -0.9517   105.6700
 42      0.0000     0.0000E+00    0.0000E+00    2.500000E+09  0.05000  3.759E-05    0   0.5583   age150_m72            0.0000     2.7854E+02     8.0822  -1.0000    97.6772
 43      0.0000     0.0000E+00    0.0000E+00    5.000000E+09  0.05000  1.548E-05    0   0.5320   age161_m72            0.0000     6.6313E+02    13.8422  -1.0000    85.9655
 44      0.0000     0.0000E+00    0.0000E+00    1.100000E+10  0.05000  6.532E-06    0   0.5070   age185_m72            0.0000     1.1944E+03    18.7876  -1.0000    75.3997
 45      0.0000     0.0000E+00    0.0000E+00    1.300000E+10  0.05000  5.316E-06    0   0.5018   age193_m72            0.0000     1.3903E+03    20.1179  -1.0000    72.2958


## Synthesis Results - Average & Chains ##

# j      x_j: min, <> & last-chain-values for 1 ...  7 chains
  1      0.0000      0.0029      0.0000      0.0000      0.0000      0.0000      0.0000      0.0000      0.0057
  2     18.4282     16.1138     16.1767     16.3507     16.2697     16.3069     16.1814     16.3653     16.4527
  3      0.0000      0.0111      0.0000      0.0000      0.0000      0.0000      0.0000      0.0000      0.0000
  4      0.4611      2.2298      2.2249      2.2204      2.2325      2.1067      2.3262      2.2083      2.0795
  5      0.0000      0.0215      0.0166      0.0000      0.0000      0.0000      0.0000      0.0000      0.0000
  6      0.0000      0.0156      0.0059      0.0000      0.0000      0.0000      0.0000      0.0000      0.0000
  7     18.7195     18.4163     18.7508     18.6436     18.4768     18.5753     18.4677     18.4614     18.5061
  8      0.0000      0.0693      0.0582      0.0414      0.0348      0.0000      0.0000      0.0000      0.1856
  9      0.0000      0.0971      0.2153      0.3173      0.0814      0.0302      0.0772      0.1478      0.0372
 10     18.4696     18.4746     17.8741     18.3480     18.9919     18.4938     19.0038     18.6257     18.5340
 11      0.0000      0.7343      0.5944      0.1282      0.0000      0.6392      0.0000      0.3944      0.1878
 12     42.6228     40.8183     41.3950     41.2974     41.2945     41.3460     40.9871     40.8970     41.3181
 13      3.8626      4.9881      4.6668      4.9085      4.9653      4.8366      5.1476      4.9308      4.8924
 14      0.0000      0.0103      0.0000      0.0000      0.0000      0.0000      0.0000      0.0056      0.0000
 15      0.0000      0.0098      0.0000      0.0000      0.0036      0.0000      0.0000      0.0000      0.0000
 16      0.0000      0.0023      0.0000      0.0000      0.0000      0.0000      0.0000      0.0000      0.0000
 17      0.0000      0.0038      0.0000      0.0000      0.0000      0.0000      0.0000      0.0000      0.0000
 18      0.0000      0.0164      0.1054      0.0000      0.0000      0.0000      0.0000      0.0000      0.0000
 19      0.0000      0.0057      0.0000      0.0000      0.0000      0.0000      0.0000      0.0000      0.0080
 20      0.0000      0.0027      0.0000      0.0000      0.0000      0.0000      0.0000      0.0000      0.0000
 21      0.0000      0.0082      0.0000      0.0000      0.0000      0.0000      0.0000      0.0000      0.0000
 22      0.0000      0.0243      0.0000      0.0000      0.0000      0.0000      0.0000      0.0000      0.0000
 23      0.0000      0.0204      0.0105      0.0000      0.0000      0.0546      0.0000      0.0000      0.0000
 24      0.0000      0.0206      0.0000      0.0023      0.0000      0.0000      0.0028      0.0000      0.0000
 25      0.0000      0.0514      0.0000      0.0000      0.0000      0.0000      0.0000      0.0573      0.0000
 26      0.0000      0.0983      0.1613      0.1696      0.0000      0.1466      0.1446      0.2674      0.1386
 27      0.0000      0.0198      0.0000      0.0000      0.0000      0.0000      0.0123      0.0000      0.0000
 28      0.0000      0.0088      0.0000      0.0336      0.0000      0.0000      0.0000      0.0004      0.0000
 29      0.0000      0.0052      0.0000      0.0000      0.0000      0.0000      0.0000      0.0006      0.0000
 30      0.0000      0.0034      0.0000      0.0089      0.0000      0.0020      0.0000      0.0000      0.0000
 31      0.0000      0.0037      0.0000      0.0000      0.0000      0.0000      0.0000      0.0000      0.0000
 32      0.0000      0.0043      0.0000      0.0000      0.0000      0.0000      0.0000      0.0000      0.0000
 33      0.0000      0.0069      0.0000      0.0000      0.0000      0.0000      0.0000      0.0000      0.0001
 34      0.0000      0.0031      0.0000      0.0000      0.0000      0.0019      0.0000      0.0000      0.0000
 35      0.0000      0.0070      0.0000      0.0000      0.0000      0.0000      0.0000      0.0000      0.0000
 36      0.0000      0.0136      0.0000      0.0000      0.0000      0.0000      0.0000      0.0000      0.0000
 37      0.0000      0.0152      0.0102      0.0000      0.0000      0.0091      0.0000      0.0000      0.0000
 38      0.0000      0.0364      0.1366      0.0000      0.0000      0.0000      0.0869      0.0000      0.0718
 39      0.0000      0.0609      0.1565      0.0000      0.0000      0.0000      0.0000      0.0000      0.0557
 40      0.0000      0.0650      0.0000      0.0000      0.0898      0.0476      0.0000      0.2111      0.0689
 41      0.0000      0.0425      0.0000      0.0654      0.1184      0.0000      0.1311      0.0000      0.0504
 42      0.0000      0.0261      0.0000      0.0000      0.0273      0.0000      0.0000      0.0000      0.0000
 43      0.0000      0.0023      0.0000      0.0000      0.0000      0.0000      0.0000      0.0000      0.0000
 44      0.0000      0.0008      0.0000      0.0000      0.0000      0.0000      0.0000      0.0000      0.0000
 45      0.0000      0.0008      0.0000      0.0000      0.0000      0.0000      0.0000      0.0000      0.0000

# j      m_j: min, <> & last-chain-values for 1 ...  7 chains
  1  0.0000E+00  7.8719E-05  0.0000E+00  0.0000E+00  0.0000E+00  0.0000E+00  0.0000E+00  0.0000E+00  1.5725E-04
  2  1.4232E-01  1.2135E-01  1.2317E-01  1.2342E-01  1.2272E-01  1.2331E-01  1.2188E-01  1.2391E-01  1.2451E-01
  3  0.0000E+00  1.2755E-04  0.0000E+00  0.0000E+00  0.0000E+00  0.0000E+00  0.0000E+00  0.0000E+00  0.0000E+00
  4  1.0115E-02  4.7690E-02  4.8113E-02  4.7604E-02  4.7827E-02  4.5244E-02  4.9763E-02  4.7486E-02  4.4695E-02
  5  0.0000E+00  1.0623E-03  8.3118E-04  0.0000E+00  0.0000E+00  0.0000E+00  0.0000E+00  0.0000E+00  0.0000E+00
  6  0.0000E+00  1.0718E-03  4.1191E-04  0.0000E+00  0.0000E+00  0.0000E+00  0.0000E+00  0.0000E+00  0.0000E+00
  7  1.8713E+00  1.7951E+00  1.8480E+00  1.8216E+00  1.8040E+00  1.8182E+00  1.8005E+00  1.8093E+00  1.8127E+00
  8  0.0000E+00  1.3020E-02  1.1068E-02  7.7936E-03  6.5562E-03  0.0000E+00  0.0000E+00  0.0000E+00  3.5055E-02
  9  0.0000E+00  3.6348E-02  8.1515E-02  1.1908E-01  3.0524E-02  1.1347E-02  2.8925E-02  5.5638E-02  1.3996E-02
 10  9.9015E+00  9.6573E+00  9.4470E+00  9.6139E+00  9.9442E+00  9.7075E+00  9.9361E+00  9.7889E+00  9.7358E+00
 11  0.0000E+00  6.7411E-01  5.5170E-01  1.1793E-01  0.0000E+00  5.8926E-01  0.0000E+00  3.6398E-01  1.7326E-01
 12  7.4610E+01  6.9670E+01  7.1438E+01  7.0656E+01  7.0600E+01  7.0864E+01  6.9973E+01  7.0182E+01  7.0869E+01
 13  1.3465E+01  1.6955E+01  1.6039E+01  1.6724E+01  1.6906E+01  1.6508E+01  1.7501E+01  1.6851E+01  1.6711E+01
 14  0.0000E+00  7.1587E-02  0.0000E+00  0.0000E+00  0.0000E+00  0.0000E+00  0.0000E+00  3.9241E-02  0.0000E+00
 15  0.0000E+00  7.8552E-02  0.0000E+00  0.0000E+00  2.8570E-02  0.0000E+00  0.0000E+00  0.0000E+00  0.0000E+00
 16  0.0000E+00  3.5786E-05  0.0000E+00  0.0000E+00  0.0000E+00  0.0000E+00  0.0000E+00  0.0000E+00  0.0000E+00
 17  0.0000E+00  3.0380E-05  0.0000E+00  0.0000E+00  0.0000E+00  0.0000E+00  0.0000E+00  0.0000E+00  0.0000E+00
 18  0.0000E+00  1.4555E-04  9.4668E-04  0.0000E+00  0.0000E+00  0.0000E+00  0.0000E+00  0.0000E+00  0.0000E+00
 19  0.0000E+00  1.5101E-04  0.0000E+00  0.0000E+00  0.0000E+00  0.0000E+00  0.0000E+00  0.0000E+00  2.1294E-04
 20  0.0000E+00  1.6051E-04  0.0000E+00  0.0000E+00  0.0000E+00  0.0000E+00  0.0000E+00  0.0000E+00  0.0000E+00
 21  0.0000E+00  5.8001E-04  0.0000E+00  0.0000E+00  0.0000E+00  0.0000E+00  0.0000E+00  0.0000E+00  0.0000E+00
 22  0.0000E+00  2.8627E-03  0.0000E+00  0.0000E+00  0.0000E+00  0.0000E+00  0.0000E+00  0.0000E+00  0.0000E+00
 23  0.0000E+00  4.7383E-03  2.4631E-03  0.0000E+00  0.0000E+00  1.2702E-02  0.0000E+00  0.0000E+00  0.0000E+00
 24  0.0000E+00  1.0934E-02  0.0000E+00  1.2214E-03  0.0000E+00  0.0000E+00  1.5063E-03  0.0000E+00  0.0000E+00
 25  0.0000E+00  4.1941E-02  0.0000E+00  0.0000E+00  0.0000E+00  0.0000E+00  0.0000E+00  4.7015E-02  0.0000E+00
 26  0.0000E+00  1.5140E-01  2.5118E-01  2.6187E-01  0.0000E+00  2.2673E-01  2.2279E-01  4.1406E-01  2.1447E-01
 27  0.0000E+00  6.1879E-02  0.0000E+00  0.0000E+00  0.0000E+00  0.0000E+00  3.8509E-02  0.0000E+00  0.0000E+00
 28  0.0000E+00  5.5467E-02  0.0000E+00  2.1323E-01  0.0000E+00  0.0000E+00  0.0000E+00  2.7252E-03  0.0000E+00
 29  0.0000E+00  6.9194E-02  0.0000E+00  0.0000E+00  0.0000E+00  0.0000E+00  0.0000E+00  7.9868E-03  0.0000E+00
 30  0.0000E+00  5.5092E-02  0.0000E+00  1.4243E-01  0.0000E+00  3.1661E-02  0.0000E+00  0.0000E+00  0.0000E+00
 31  0.0000E+00  4.2800E-05  0.0000E+00  0.0000E+00  0.0000E+00  0.0000E+00  0.0000E+00  0.0000E+00  0.0000E+00
 32  0.0000E+00  2.6158E-05  0.0000E+00  0.0000E+00  0.0000E+00  0.0000E+00  0.0000E+00  0.0000E+00  0.0000E+00
 33  0.0000E+00  6.2734E-05  0.0000E+00  0.0000E+00  0.0000E+00  0.0000E+00  0.0000E+00  0.0000E+00  1.3293E-06
