###################################################################
## OUTPUT of StarlightChains_v04.for    [Cid@UFSC - 01/Apr/2007] ##
###################################################################

## Some input info
NGC104_a_1.cxt                           [arq_obs]
Base.BC03.N                              [arq_base]
NGC104_a_1.msk                           [arq_masks]
StCv04.C99.config                        [arq_config]
   45                                    [N_base]
    0                                    [N_YAV_components = # of components with extra extinction!]
    0                                    [i_FitPowerLaw (1/0 = Yes/No)]
-9.99                                    [alpha_PowerLaw]
CCM                                      [red_law_option]
 1.458241                                [q_norm = A(l_norm)/A(V)]

## (Re)Sampling Parameters
 3359.00                                 [l_ini (A)]
 6428.00                                 [l_fin (A)]
    1.00                                 [dl    (A)]     (OBS: dl_cushion =    50.00 A)

## Normalization info
 4020.00                                 [l_norm (A) - for base]
 4010.00                                 [llow_norm (A) - window for f_obs]
 4060.00                                 [lupp_norm (A) - window for f_obs]
2.050577E-13                             [fobs_norm (in input units)]

## S/N
 4730.00                                 [llow_SN (A) - window for S/N]
 4780.00                                 [lupp_SN (A) - window for S/N]
  43.784                                 [S/N in S/N window]
  33.933                                 [S/N in norm. window]
1000.000                                 [S/N_err in S/N window]
 775.022                                 [S/N_err in norm. window]
  1.0000                                 [fscale_chi2]

## etc...
 -2147483648                             [idum_orig]
  3067                                   [NOl_eff]
   234                                   [Nl_eff]
  2833    NSIGMA                         [Ntot_cliped & clip_method]
 14866740                                [Nglobal_steps]
   7                                     [N_chains]
   6                                     [NEX0s_base = N_base in EX0s-fits]
 0   0   1      254   2.0   1.654E+03    [Clip-Bug, RC-Crash & Burn-In warning-flags, n_censored_weights, wei_nsig_threshold & wei_limit]
    91     90.841     90.821      0.019  [idt_all, wdt_TotTime, wdt_UsrTime & wdt_SysTime (sec)]

## Synthesis Results - Best model ##

 2.82026E+00                             [chi2/Nl_eff]
     0.34211                             [adev (%)]

   101.27538                             [sum-of-x (%)]
 1.92286E-13                             [Flux_tot (units of input spectrum!)]
 6.16423E-09                             [Mini_tot (???)]
 3.25242E-09                             [Mcor_tot (???)]

 -26.26                                  [v0_min  (km/s)]
  57.65                                  [vd_min  (km/s)]
-0.0573                                  [AV_min  (mag)]
 0.0000                                  [YAV_min (mag)]

# j     x_j(%)      Mini_j(%)     Mcor_j(%)     age_j(yr)     Z_j      (L/M)_j    YAV?  Mstars   component_j        a/Fe...       SSP_chi2r SSP_adev(%)   SSP_AV   SSP_x(%)
  1      0.0000     0.0000E+00    0.0000E+00    1.000000E+06  0.00400  1.114E-02    0   1.0000   age020_m42            0.0000     1.5993E+04    19.6475   4.0000    77.9088
  2      3.7957     2.8704E-03    5.4396E-03    3.160000E+06  0.00400  4.073E-02    0   0.9999   age045_m42            0.0000     9.4200E+03    13.0303   3.1687    88.6748
  3      0.0000     0.0000E+00    0.0000E+00    5.010000E+06  0.00400  2.534E-02    0   0.9488   age055_m42            0.0000     1.2156E+04    16.2340   3.5469    82.9767
  4      1.9705     4.7753E-03    8.0206E-03    1.000000E+07  0.00400  1.271E-02    0   0.8862   age070_m42            0.0000     1.2697E+04    16.5102   2.7502    86.6608
  5      0.0000     0.0000E+00    0.0000E+00    2.512000E+07  0.00400  5.070E-03    0   0.8174   age090_m42            0.0000     1.1855E+04    15.7584   2.6209    88.1586
  6      0.0000     0.0000E+00    0.0000E+00    4.000000E+07  0.00400  3.505E-03    0   0.7851   age104_m42            0.0000     9.4897E+03    13.5053   2.3163    91.0063
  7      0.0000     0.0000E+00    0.0000E+00    1.015200E+08  0.00400  2.268E-03    0   0.7207   age116_m42            0.0000     1.4107E+04    11.1798   2.4295    97.1038
  8      0.0000     0.0000E+00    0.0000E+00    2.861200E+08  0.00400  1.079E-03    0   0.6613   age125_m42            0.0000     1.4026E+04    10.4793   1.9386    99.3150
  9      0.0000     0.0000E+00    0.0000E+00    6.405400E+08  0.00400  5.077E-04    0   0.6197   age132_m42            0.0000     1.3954E+04    10.4570   1.5653   103.6498
 10      0.0000     0.0000E+00    0.0000E+00    9.047900E+08  0.00400  3.535E-04    0   0.6024   age135_m42            0.0000     1.0165E+04     8.8711   1.3022   103.8765
 11      0.0000     0.0000E+00    0.0000E+00    1.434000E+09  0.00400  1.910E-04    0   0.5716   age139_m42            0.0000     4.8184E+03     5.9236   0.7422   104.1443
 12      4.9318     1.5472E+00    1.6019E+00    2.500000E+09  0.00400  9.818E-05    0   0.5463   age150_m42            0.0000     1.4146E+03     3.1603   0.4285   101.0135
 13     21.5352     1.4059E+01    1.3930E+01    5.000000E+09  0.00400  4.718E-05    0   0.5228   age161_m42            0.0000     4.9558E+02     2.1920   0.2352    98.5907
 14     11.7343     1.6391E+01    1.5471E+01    1.100000E+10  0.00400  2.205E-05    0   0.4980   age185_m42            0.0000     2.0868E+02     1.4950  -0.0452    97.3392
 15      0.0000     0.0000E+00    0.0000E+00    1.300000E+10  0.00400  1.883E-05    0   0.4927   age193_m42            0.0000     2.7826E+02     1.7592  -0.0663    97.3460
 16      0.0000     0.0000E+00    0.0000E+00    1.000000E+06  0.02000  1.989E-02    0   1.0000   age020_m62            0.0000     1.5860E+04    18.8799   4.0000    77.6624
 17      0.0000     0.0000E+00    0.0000E+00    3.160000E+06  0.02000  3.772E-02    0   0.9858   age045_m62            0.0000     1.5214E+04    18.5126   3.8995    78.8044
 18      0.0000     0.0000E+00    0.0000E+00    5.010000E+06  0.02000  3.227E-02    0   0.9342   age055_m62            0.0000     1.1386E+04    15.1700   3.4249    85.2166
 19      0.0000     0.0000E+00    0.0000E+00    1.000000E+07  0.02000  1.011E-02    0   0.8751   age070_m62            0.0000     1.9890E+04    20.8340   2.7028    83.9482
 20      0.0000     0.0000E+00    0.0000E+00    2.512000E+07  0.02000  4.206E-03    0   0.8099   age090_m62            0.0000     1.5767E+04    18.6523   2.6579    84.6183
 21      0.0000     0.0000E+00    0.0000E+00    4.000000E+07  0.02000  3.373E-03    0   0.7799   age104_m62            0.0000     1.1390E+04    13.5469   2.5410    91.6776
 22      0.0000     0.0000E+00    0.0000E+00    1.015200E+08  0.02000  1.878E-03    0   0.7221   age116_m62            0.0000     1.4244E+04    11.1554   2.4419    97.4205
 23      0.0000     0.0000E+00    0.0000E+00    2.861200E+08  0.02000  8.869E-04    0   0.6700   age125_m62            0.0000     1.8636E+04    11.7912   1.9696   103.1090
 24      0.0000     0.0000E+00    0.0000E+00    6.405400E+08  0.02000  3.657E-04    0   0.6322   age132_m62            0.0000     1.1962E+04     8.9971   1.2610   107.9106
 25      0.0000     0.0000E+00    0.0000E+00    9.047900E+08  0.02000  2.312E-04    0   0.6152   age135_m62            0.0000     6.9097E+03     6.8219   0.8500   108.5092
 26      0.0000     0.0000E+00    0.0000E+00    1.434000E+09  0.02000  1.168E-04    0   0.5865   age139_m62            0.0000     1.9169E+03     3.3296   0.3791   104.7606
 27      0.0000     0.0000E+00    0.0000E+00    2.500000E+09  0.02000  5.505E-05    0   0.5610   age150_m62            0.0000     2.9538E+02     1.5031  -0.0295   103.3802
 28     57.3079     6.7995E+01    6.8983E+01    5.000000E+09  0.02000  2.596E-05    0   0.5353   age161_m62            0.0000     7.3018E+02     3.6681  -0.3799   104.4461
 29      0.0000     0.0000E+00    0.0000E+00    1.100000E+10  0.02000  1.169E-05    0   0.5103   age185_m62            0.0000     2.5277E+03     6.4205  -0.7604   106.7960
 30      0.0000     0.0000E+00    0.0000E+00    1.300000E+10  0.02000  9.691E-06    0   0.5047   age193_m62            0.0000     2.9525E+03     6.8442  -0.8101   107.2291
 31      0.0000     0.0000E+00    0.0000E+00    1.000000E+06  0.05000  2.651E-02    0   0.9998   age020_m72            0.0000     1.4935E+04    18.2367   4.0000    78.6463
 32      0.0000     0.0000E+00    0.0000E+00    3.160000E+06  0.05000  4.817E-02    0   0.9577   age045_m72            0.0000     1.2986E+04    16.8453   3.7798    81.5442
 33      0.0000     0.0000E+00    0.0000E+00    5.010000E+06  0.05000  3.101E-02    0   0.9147   age055_m72            0.0000     1.3091E+04    16.9284   3.3947    84.3501
 34      0.0000     0.0000E+00    0.0000E+00    1.000000E+07  0.05000  8.954E-03    0   0.8524   age070_m72            0.0000     1.2902E+04    16.3331   3.6375    82.7977
 35      0.0000     0.0000E+00    0.0000E+00    2.512000E+07  0.05000  4.207E-03    0   0.7902   age090_m72            0.0000     1.0883E+04    13.8268   3.2321    87.5182
 36      0.0000     0.0000E+00    0.0000E+00    4.000000E+07  0.05000  3.198E-03    0   0.7618   age104_m72            0.0000     1.1783E+04    10.7680   2.7841    93.8303
 37      0.0000     0.0000E+00    0.0000E+00    1.015200E+08  0.05000  1.716E-03    0   0.7092   age116_m72            0.0000     1.5453E+04    11.3875   2.5232    97.4810
 38      0.0000     0.0000E+00    0.0000E+00    2.861200E+08  0.05000  7.047E-04    0   0.6618   age125_m72            0.0000     1.6910E+04    10.7558   1.7503   104.0418
 39      0.0000     0.0000E+00    0.0000E+00    6.405400E+08  0.05000  2.633E-04    0   0.6253   age132_m72            0.0000     8.1410E+03     7.1330   0.8528   108.7165
 40      0.0000     0.0000E+00    0.0000E+00    9.047900E+08  0.05000  1.484E-04    0   0.6088   age135_m72            0.0000     2.5417E+03     3.9710   0.3250   105.6449
 41      0.0000     0.0000E+00    0.0000E+00    1.434000E+09  0.05000  7.827E-05    0   0.5847   age139_m72            0.0000     6.6454E+02     2.8915  -0.1107   103.9470
 42      0.0000     0.0000E+00    0.0000E+00    2.500000E+09  0.05000  3.759E-05    0   0.5583   age150_m72            0.0000     1.0142E+03     4.3574  -0.4628   104.2859
 43      0.0000     0.0000E+00    0.0000E+00    5.000000E+09  0.05000  1.548E-05    0   0.5320   age161_m72            0.0000     2.5124E+03     6.0677  -0.9091   105.0716
 44      0.0000     0.0000E+00    0.0000E+00    1.100000E+10  0.05000  6.532E-06    0   0.5070   age185_m72            0.0000     7.7793E+03    10.7379  -1.0000    96.0151
 45      0.0000     0.0000E+00    0.0000E+00    1.300000E+10  0.05000  5.316E-06    0   0.5018   age193_m72            0.0000     1.1358E+04    12.8752  -1.0000    92.4279


## Synthesis Results - Average & Chains ##

# j      x_j: min, <> & last-chain-values for 1 ...  7 chains
  1      0.0000      0.0126      0.0000      0.0068      0.0000      0.0047      0.0046      0.0526      0.0567
  2      3.7957      3.6632      3.6914      3.6408      3.6775      3.6560      3.6915      3.6304      3.5973
  3      0.0000      0.0152      0.0000      0.0000      0.0141      0.0013      0.0000      0.0000      0.0258
  4      1.9705      1.8534      1.8860      1.8470      1.8569      1.8361      1.8619      1.8498      1.8511
  5      0.0000      0.0128      0.0000      0.0000      0.0000      0.0341      0.0087      0.0050      0.0105
  6      0.0000      0.0186      0.0030      0.0278      0.0131      0.0280      0.0528      0.0130      0.0041
  7      0.0000      0.0159      0.0000      0.0681      0.0000      0.0000      0.0000      0.0056      0.0000
  8      0.0000      0.0173      0.0000      0.0000      0.0000      0.0573      0.0000      0.0530      0.0000
  9      0.0000      0.0263      0.0548      0.0608      0.0873      0.0385      0.0957      0.0000      0.0285
 10      0.0000      0.0247      0.1119      0.0895      0.0532      0.0292      0.0218      0.0941      0.0383
 11      0.0000      0.0316      0.0358      0.0000      0.0000      0.0246      0.0000      0.0364      0.0281
 12      4.9318      4.7489      4.7203      4.7576      4.6972      4.7863      4.7736      4.7427      4.8403
 13     21.5352     21.1614     21.0282     21.1412     21.0663     21.2456     21.2097     21.2225     21.1239
 14     11.7343     11.7748     11.8146     11.8325     11.7669     11.7569     11.8078     11.7830     12.0612
 15      0.0000      0.0831      0.0658      0.0748      0.1947      0.0000      0.0594      0.0633      0.0418
 16      0.0000      0.0099      0.0134      0.0001      0.0005      0.0514      0.0000      0.0444      0.0000
 17      0.0000      0.0176      0.0000      0.0856      0.0360      0.0000      0.0000      0.0283      0.0000
 18      0.0000      0.0244      0.0000      0.0000      0.0000      0.0146      0.0135      0.0323      0.0000
 19      0.0000      0.0188      0.0000      0.0565      0.0000      0.0000      0.0651      0.0000      0.0000
 20      0.0000      0.0187      0.1045      0.0055      0.0551      0.0307      0.0297      0.0045      0.0000
 21      0.0000      0.0122      0.0000      0.0173      0.0063      0.0000      0.0000      0.0248      0.0000
 22      0.0000      0.0113      0.0338      0.0109      0.0000      0.0000      0.0037      0.0131      0.0097
 23      0.0000      0.0213      0.0206      0.0130      0.0038      0.0027      0.0120      0.0000      0.0377
 24      0.0000      0.0180      0.0558      0.0000      0.0021      0.0251      0.0000      0.0000      0.0159
 25      0.0000      0.0311      0.0040      0.0630      0.0457      0.0145      0.0000      0.0036      0.2209
 26      0.0000      0.0736      0.0414      0.0115      0.2308      0.0030      0.0149      0.2349      0.0262
 27      0.0000      0.0854      0.1254      0.2497      0.1386      0.0379      0.1010      0.0823      0.0147
 28     57.3079     56.8490     56.8514     56.7079     56.8200     56.9908     57.0284     56.8182     56.2692
 29      0.0000      0.0753      0.1622      0.1119      0.0218      0.0126      0.0625      0.0318      0.1929
 30      0.0000      0.0790      0.0589      0.1177      0.0927      0.0964      0.0169      0.0989      0.3972
 31      0.0000      0.0139      0.0029      0.0211      0.0393      0.0361      0.0000      0.0157      0.0437
 32      0.0000      0.0135      0.0064      0.0000      0.0000      0.0004      0.0000      0.0000      0.0281
 33      0.0000      0.0088      0.0296      0.0000      0.0183      0.0302      0.0342      0.0000      0.0434
 34      0.0000      0.0108      0.0075      0.0003      0.0000      0.0000      0.0189      0.0000      0.0319
 35      0.0000      0.0144      0.0226      0.0029      0.0307      0.0000      0.0000      0.0000      0.0095
 36      0.0000      0.0161      0.0000      0.0000      0.0000      0.0052      0.0000      0.0000      0.0000
 37      0.0000      0.0169      0.0000      0.0000      0.0000      0.0775      0.0256      0.0000      0.0062
 38      0.0000      0.0140      0.0000      0.0113      0.0000      0.0000      0.0057      0.0000      0.0000
 39      0.0000      0.0257      0.0000      0.0241      0.0000      0.0047      0.0220      0.0283      0.0946
 40      0.0000      0.0408      0.0355      0.0000      0.0275      0.0629      0.0350      0.0252      0.0000
 41      0.0000      0.0862      0.0721      0.0247      0.0127      0.0514      0.0550      0.0650      0.0440
 42      0.0000      0.0871      0.0672      0.0860      0.1420      0.0667      0.0365      0.0120      0.0000
 43      0.0000      0.0519      0.1100      0.0362      0.0415      0.0473      0.0196      0.0744      0.0000
 44      0.0000      0.0494      0.0222      0.0000      0.0366      0.0721      0.0411      0.0432      0.0753
 45      0.0000      0.0455      0.0476      0.0947      0.0670      0.0605      0.0650      0.0596      0.0400

# j      m_j: min, <> & last-chain-values for 1 ...  7 chains
  1  0.0000E+00  6.5434E-05  0.0000E+00  3.5575E-05  0.0000E+00  2.4362E-05  2.3935E-05  2.7438E-04  2.9344E-04
  2  5.4396E-03  5.2206E-03  5.2560E-03  5.1807E-03  5.2371E-03  5.2066E-03  5.2627E-03  5.1744E-03  5.0888E-03
  3  0.0000E+00  3.3098E-05  0.0000E+00  0.0000E+00  3.0613E-05  2.8892E-06  0.0000E+00  0.0000E+00  5.5572E-05
  4  8.0206E-03  7.5021E-03  7.6270E-03  7.4646E-03  7.5103E-03  7.4265E-03  7.5387E-03  7.4882E-03  7.4372E-03
  5  0.0000E+00  1.1980E-04  0.0000E+00  0.0000E+00  0.0000E+00  3.1915E-04  8.1069E-05  4.6449E-05  9.7757E-05
  6  0.0000E+00  2.4184E-04  3.9284E-05  3.6074E-04  1.7070E-04  3.6361E-04  6.8689E-04  1.6920E-04  5.2681E-05
  7  0.0000E+00  2.9365E-04  0.0000E+00  1.2547E-03  0.0000E+00  0.0000E+00  0.0000E+00  1.0350E-04  0.0000E+00
  8  0.0000E+00  6.1645E-04  0.0000E+00  0.0000E+00  0.0000E+00  2.0355E-03  0.0000E+00  1.8870E-03  0.0000E+00
  9  0.0000E+00  1.8601E-03  3.8804E-03  4.3028E-03  6.1817E-03  2.7263E-03  6.7818E-03  0.0000E+00  2.0017E-03
 10  0.0000E+00  2.4421E-03  1.1063E-02  8.8423E-03  5.2577E-03  2.8833E-03  2.1619E-03  9.3057E-03  3.7574E-03
 11  0.0000E+00  5.4887E-03  6.2102E-03  0.0000E+00  0.0000E+00  4.2647E-03  0.0000E+00  6.3311E-03  4.8433E-03
 12  1.6019E+00  1.5340E+00  1.5233E+00  1.5344E+00  1.5161E+00  1.5449E+00  1.5424E+00  1.5321E+00  1.5520E+00
 13  1.3930E+01  1.3613E+01  1.3514E+01  1.3579E+01  1.3541E+01  1.3657E+01  1.3648E+01  1.3653E+01  1.3488E+01
 14  1.5471E+01  1.5438E+01  1.5476E+01  1.5490E+01  1.5416E+01  1.5403E+01  1.5486E+01  1.5450E+01  1.5697E+01
 15  0.0000E+00  1.2628E-01  9.9803E-02  1.1345E-01  2.9551E-01  0.0000E+00  9.0186E-02  9.6092E-02  6.3045E-02
 16  0.0000E+00  2.8920E-05  3.8946E-05  2.6622E-07  1.3711E-06  1.5002E-04  0.0000E+00  1.2971E-04  0.0000E+00
 17  0.0000E+00  2.6700E-05  0.0000E+00  1.2970E-04  5.4637E-05  0.0000E+00  0.0000E+00  4.2978E-05  0.0000E+00
 18  0.0000E+00  4.1069E-05  0.0000E+00  0.0000E+00  0.0000E+00  2.4583E-05  2.2674E-05  5.4357E-05  0.0000E+00
 19  0.0000E+00  9.4344E-05  0.0000E+00  2.8371E-04  0.0000E+00  0.0000E+00  3.2716E-04  0.0000E+00  0.0000E+00
 20  0.0000E+00  2.0936E-04  1.1674E-03  6.1600E-05  6.1593E-04  3.4287E-04  3.3252E-04  5.0567E-05  0.0000E+00
 21  0.0000E+00  1.6323E-04  0.0000E+00  2.3205E-04  8.4711E-05  0.0000E+00  0.0000E+00  3.3241E-04  0.0000E+00
 22  0.0000E+00  2.5285E-04  7.5471E-04  2.4316E-04  0.0000E+00  0.0000E+00  8.1529E-05  2.9222E-04  2.1514E-04
 23  0.0000E+00  9.3607E-04  9.0238E-04  5.6935E-04  1.6533E-04  1.1960E-04  5.2780E-04  0.0000E+00  1.6428E-03
 24  0.0000E+00  1.8107E-03  5.5980E-03  0.0000E+00  2.0820E-04  2.5176E-03  0.0000E+00  0.0000E+00  1.5883E-03
 25  0.0000E+00  4.7977E-03  6.1859E-04  9.7201E-03  7.0564E-03  2.2393E-03  0.0000E+00  5.5032E-04  3.3876E-02
 26  0.0000E+00  2.1440E-02  1.2047E-02  3.3334E-03  6.7224E-02  8.7376E-04  4.3517E-03  6.8489E-02  7.5916E-03
 27  0.0000E+00  5.0538E-02  7.4112E-02  1.4748E-01  8.1910E-02  2.2397E-02  5.9746E-02  4.8682E-02  8.6237E-03
 28  6.8983E+01  6.8052E+01  6.7991E+01  6.7777E+01  6.7965E+01  6.8170E+01  6.8287E+01  6.8021E+01  6.6859E+01
 29  0.0000E+00  1.9090E-01  4.1074E-01  2.8321E-01  5.5160E-02  3.1842E-02  1.5838E-01  8.0521E-02  4.8526E-01
 30  0.0000E+00  2.3883E-01  1.7784E-01  3.5544E-01  2.8018E-01  2.9125E-01  5.0984E-02  2.9910E-01  1.1919E+00
 31  0.0000E+00  3.0390E-05  6.4410E-06  4.6221E-05  8.5919E-05  7.8947E-05  0.0000E+00  3.4352E-05  9.5000E-05
 32  0.0000E+00  1.5576E-05  7.3736E-06  0.0000E+00  0.0000E+00  4.5361E-07  0.0000E+00  0.0000E+00  3.2207E-05
 33  0.0000E+00  1.5000E-05  5.0702E-05  0.0000E+00  3.1237E-05  5.1750E-05  5.8574E-05  0.0000E+00  7.3789E-05
