###################################################################
## OUTPUT of StarlightChains_v04.for    [Cid@UFSC - 01/Apr/2007] ##
###################################################################

## Some input info
NGC2808_a_1.cxt                          [arq_obs]
Base.BC03.N                              [arq_base]
NGC2808_a_1.msk                          [arq_masks]
StCv04.C99.config                        [arq_config]
   45                                    [N_base]
    0                                    [N_YAV_components = # of components with extra extinction!]
    0                                    [i_FitPowerLaw (1/0 = Yes/No)]
-9.99                                    [alpha_PowerLaw]
CCM                                      [red_law_option]
 1.458241                                [q_norm = A(l_norm)/A(V)]

## (Re)Sampling Parameters
 3359.00                                 [l_ini (A)]
 6428.00                                 [l_fin (A)]
    1.00                                 [dl    (A)]     (OBS: dl_cushion =    50.00 A)

## Normalization info
 4020.00                                 [l_norm (A) - for base]
 4010.00                                 [llow_norm (A) - window for f_obs]
 4060.00                                 [lupp_norm (A) - window for f_obs]
8.660000E-14                             [fobs_norm (in input units)]

## S/N
 4730.00                                 [llow_SN (A) - window for S/N]
 4780.00                                 [lupp_SN (A) - window for S/N]
  64.505                                 [S/N in S/N window]
  51.490                                 [S/N in norm. window]
 409.712                                 [S/N_err in S/N window]
 327.043                                 [S/N_err in norm. window]
  1.0000                                 [fscale_chi2]

## etc...
  2147483642                             [idum_orig]
  3069                                   [NOl_eff]
   560                                   [Nl_eff]
  2509    NSIGMA                         [Ntot_cliped & clip_method]
  1978200                                [Nglobal_steps]
   7                                     [N_chains]
   6                                     [NEX0s_base = N_base in EX0s-fits]
 0   1   1      258   2.0   6.880E+02    [Clip-Bug, RC-Crash & Burn-In warning-flags, n_censored_weights, wei_nsig_threshold & wei_limit]
    26     26.055     26.055      0.000  [idt_all, wdt_TotTime, wdt_UsrTime & wdt_SysTime (sec)]

## Synthesis Results - Best model ##

 2.85341E+00                             [chi2/Nl_eff]
     0.51116                             [adev (%)]

   102.19685                             [sum-of-x (%)]
 2.49355E-13                             [Flux_tot (units of input spectrum!)]
 2.42791E-09                             [Mini_tot (???)]
 1.30978E-09                             [Mcor_tot (???)]

  -8.69                                  [v0_min  (km/s)]
  74.78                                  [vd_min  (km/s)]
 0.7712                                  [AV_min  (mag)]
 0.0000                                  [YAV_min (mag)]

# j     x_j(%)      Mini_j(%)     Mcor_j(%)     age_j(yr)     Z_j      (L/M)_j    YAV?  Mstars   component_j        a/Fe...       SSP_chi2r SSP_adev(%)   SSP_AV   SSP_x(%)
  1      0.0000     0.0000E+00    0.0000E+00    1.000000E+06  0.00400  1.114E-02    0   1.0000   age020_m42            0.0000     2.3917E+03    12.4898   4.0000    81.2181
  2     10.3403     2.5513E-02    4.7289E-02    3.160000E+06  0.00400  4.073E-02    0   0.9999   age045_m42            0.0000     5.7995E+02     6.1018   3.1255    94.4823
  3      0.0000     0.0000E+00    0.0000E+00    5.010000E+06  0.00400  2.534E-02    0   0.9488   age055_m42            0.0000     1.1387E+03     9.0504   3.5263    87.7818
  4     10.4213     8.2399E-02    1.3536E-01    1.000000E+07  0.00400  1.271E-02    0   0.8862   age070_m42            0.0000     1.0478E+03     8.8718   2.7406    91.5116
  5      0.0000     0.0000E+00    0.0000E+00    2.512000E+07  0.00400  5.070E-03    0   0.8174   age090_m42            0.0000     8.7375E+02     8.1791   2.6119    93.1655
  6      0.0000     0.0000E+00    0.0000E+00    4.000000E+07  0.00400  3.505E-03    0   0.7851   age104_m42            0.0000     5.2718E+02     6.2312   2.2957    96.3029
  7      0.0000     0.0000E+00    0.0000E+00    1.015200E+08  0.00400  2.268E-03    0   0.7207   age116_m42            0.0000     2.2582E+03     8.9353   2.2824   106.8842
  8      0.0000     0.0000E+00    0.0000E+00    2.861200E+08  0.00400  1.079E-03    0   0.6613   age125_m42            0.0000     2.4504E+03     9.5697   1.7937   109.0487
  9      0.0000     0.0000E+00    0.0000E+00    6.405400E+08  0.00400  5.077E-04    0   0.6197   age132_m42            0.0000     2.7070E+03    10.1359   1.4315   113.0333
 10      0.0000     0.0000E+00    0.0000E+00    9.047900E+08  0.00400  3.535E-04    0   0.6024   age135_m42            0.0000     1.7489E+03     8.2969   1.1916   112.2071
 11      0.0000     0.0000E+00    0.0000E+00    1.434000E+09  0.00400  1.910E-04    0   0.5716   age139_m42            0.0000     8.1815E+02     6.3689   0.6662   111.0089
 12     66.1014     6.7660E+01    6.8518E+01    2.500000E+09  0.00400  9.818E-05    0   0.5463   age150_m42            0.0000     2.3497E+02     4.1233   0.3911   106.2501
 13     13.4574     2.8665E+01    2.7779E+01    5.000000E+09  0.00400  4.718E-05    0   0.5228   age161_m42            0.0000     2.1746E+02     3.6847   0.2262   102.7508
 14      0.0000     0.0000E+00    0.0000E+00    1.100000E+10  0.00400  2.205E-05    0   0.4980   age185_m42            0.0000     6.0727E+02     5.6450  -0.0362   100.7140
 15      0.0000     0.0000E+00    0.0000E+00    1.300000E+10  0.00400  1.883E-05    0   0.4927   age193_m42            0.0000     6.7298E+02     5.9196  -0.0531   100.5423
 16      0.0000     0.0000E+00    0.0000E+00    1.000000E+06  0.02000  1.989E-02    0   1.0000   age020_m62            0.0000     2.3319E+03    12.3105   4.0000    81.2289
 17      0.0000     0.0000E+00    0.0000E+00    3.160000E+06  0.02000  3.772E-02    0   0.9858   age045_m62            0.0000     2.0353E+03    11.6769   3.9032    82.6722
 18      1.3277     4.1347E-03    7.1601E-03    5.010000E+06  0.02000  3.227E-02    0   0.9342   age055_m62            0.0000     8.0300E+02     7.5839   3.3792    90.9402
 19      0.0000     0.0000E+00    0.0000E+00    1.000000E+07  0.02000  1.011E-02    0   0.8751   age070_m62            0.0000     2.4228E+03    13.1484   2.7863    87.1134
 20      0.0000     0.0000E+00    0.0000E+00    2.512000E+07  0.02000  4.206E-03    0   0.8099   age090_m62            0.0000     1.6750E+03    10.9565   2.7146    88.2694
 21      0.0000     0.0000E+00    0.0000E+00    4.000000E+07  0.02000  3.373E-03    0   0.7799   age104_m62            0.0000     6.1722E+02     5.9255   2.5173    97.8791
 22      0.0000     0.0000E+00    0.0000E+00    1.015200E+08  0.02000  1.878E-03    0   0.7221   age116_m62            0.0000     1.8963E+03     8.1232   2.3186   106.9601
 23      0.0000     0.0000E+00    0.0000E+00    2.861200E+08  0.02000  8.869E-04    0   0.6700   age125_m62            0.0000     4.1030E+03    12.2893   1.8093   114.2041
 24      0.0000     0.0000E+00    0.0000E+00    6.405400E+08  0.02000  3.657E-04    0   0.6322   age132_m62            0.0000     2.7814E+03    10.9675   1.1236   117.9220
 25      0.0000     0.0000E+00    0.0000E+00    9.047900E+08  0.02000  2.312E-04    0   0.6152   age135_m62            0.0000     1.5843E+03     8.7574   0.7489   116.8699
 26      0.0000     0.0000E+00    0.0000E+00    1.434000E+09  0.02000  1.168E-04    0   0.5865   age139_m62            0.0000     5.1329E+02     5.6355   0.3441   110.6206
 27      0.0000     0.0000E+00    0.0000E+00    2.500000E+09  0.02000  5.505E-05    0   0.5610   age150_m62            0.0000     6.4885E+02     6.3870  -0.0257   107.6811
 28      0.0000     0.0000E+00    0.0000E+00    5.000000E+09  0.02000  2.596E-05    0   0.5353   age161_m62            0.0000     1.4628E+03     9.1715  -0.3611   107.9529
 29      0.0000     0.0000E+00    0.0000E+00    1.100000E+10  0.02000  1.169E-05    0   0.5103   age185_m62            0.0000     2.5961E+03    11.9617  -0.7290   109.7207
 30      0.0000     0.0000E+00    0.0000E+00    1.300000E+10  0.02000  9.691E-06    0   0.5047   age193_m62            0.0000     2.8217E+03    12.4099  -0.7756   110.0015
 31      0.0000     0.0000E+00    0.0000E+00    1.000000E+06  0.05000  2.651E-02    0   0.9998   age020_m72            0.0000     2.1448E+03    11.6976   4.0000    82.1822
 32      0.0000     0.0000E+00    0.0000E+00    3.160000E+06  0.05000  4.817E-02    0   0.9577   age045_m72            0.0000     1.3894E+03     9.7877   3.7597    86.1646
 33      0.0000     0.0000E+00    0.0000E+00    5.010000E+06  0.05000  3.101E-02    0   0.9147   age055_m72            0.0000     1.2353E+03     9.3780   3.4139    88.7232
 34      0.0000     0.0000E+00    0.0000E+00    1.000000E+07  0.05000  8.954E-03    0   0.8524   age070_m72            0.0000     1.2655E+03     9.1920   3.6536    87.2893
 35      0.0000     0.0000E+00    0.0000E+00    2.512000E+07  0.05000  4.207E-03    0   0.7902   age090_m72            0.0000     6.1816E+02     6.4113   3.2183    93.3687
 36      0.0000     0.0000E+00    0.0000E+00    4.000000E+07  0.05000  3.198E-03    0   0.7618   age104_m72            0.0000     1.0592E+03     6.0350   2.7050   102.3808
 37      0.0000     0.0000E+00    0.0000E+00    1.015200E+08  0.05000  1.716E-03    0   0.7092   age116_m72            0.0000     2.2995E+03     9.0168   2.4191   107.1796
 38      0.0000     0.0000E+00    0.0000E+00    2.861200E+08  0.05000  7.047E-04    0   0.6618   age125_m72            0.0000     3.9674E+03    12.4140   1.6083   114.8837
 39      0.0000     0.0000E+00    0.0000E+00    6.405400E+08  0.05000  2.633E-04    0   0.6253   age132_m72            0.0000     2.1662E+03    10.1376   0.7512   117.4410
 40      0.0000     0.0000E+00    0.0000E+00    9.047900E+08  0.05000  1.484E-04    0   0.6088   age135_m72            0.0000     9.7248E+02     7.7073   0.2690   112.2148
 41      0.0000     0.0000E+00    0.0000E+00    1.434000E+09  0.05000  7.827E-05    0   0.5847   age139_m72            0.0000     1.0602E+03     8.2000  -0.1163   108.5643
 42      0.0000     0.0000E+00    0.0000E+00    2.500000E+09  0.05000  3.759E-05    0   0.5583   age150_m72            0.0000     1.6753E+03     9.8861  -0.4365   107.7931
 43      0.5488     3.5625E+00    3.5132E+00    5.000000E+09  0.05000  1.548E-05    0   0.5320   age161_m72            0.0000     2.7269E+03    12.0959  -0.8457   107.7722
 44      0.0000     0.0000E+00    0.0000E+00    1.100000E+10  0.05000  6.532E-06    0   0.5070   age185_m72            0.0000     4.4610E+03    15.4701  -1.0000   102.1888
 45      0.0000     0.0000E+00    0.0000E+00    1.300000E+10  0.05000  5.316E-06    0   0.5018   age193_m72            0.0000     5.5110E+03    17.3033  -1.0000    99.2302


## Synthesis Results - Average & Chains ##

# j      x_j: min, <> & last-chain-values for 1 ...  7 chains
  1      0.0000      0.0111      0.0000      0.0000      0.0000      0.0927      0.0000      0.0000      0.0000
  2     10.3403      9.8214      9.8523      9.8059      9.8986      9.8099     10.0099      9.6662      9.9759
  3      0.0000      0.0280      0.0000      0.0000      0.0575      0.0108      0.0807      0.0000      0.0808
  4     10.4213     10.4269     10.3422     10.5706     10.5736     10.4809     10.4900     10.5604     10.6538
  5      0.0000      0.0655      0.0929      0.0000      0.0000      0.0422      0.0430      0.0887      0.0478
  6      0.0000      0.0549      0.3548      0.1184      0.0000      0.0000      0.0353      0.0135      0.0174
  7      0.0000      0.0678      0.0000      0.0632      0.1259      0.1462      0.0786      0.1207      0.0000
  8      0.0000      0.0456      0.0000      0.0290      0.0714      0.0000      0.2500      0.0206      0.0000
  9      0.0000      0.1013      0.3407      0.2506      0.1590      0.4335      0.0000      0.1690      0.0453
 10      0.0000      0.2397      0.3384      0.2832      0.3029      0.2476      0.2576      0.5325      0.3470
 11      0.0000      0.1564      0.2702      0.0022      0.0914      0.0497      0.1227      0.0000      0.0000
 12     66.1014     63.7446     63.0814     64.1488     63.7301     63.6091     62.9242     63.4418     63.6720
 13     13.4574     14.4761     14.4337     14.0637     14.5094     14.2603     14.4146     14.2225     14.4049
 14      0.0000      0.0504      0.0487      0.0411      0.0000      0.0414      0.0187      0.0000      0.0239
 15      0.0000      0.0449      0.0000      0.0000      0.0033      0.0000      0.0601      0.0488      0.0326
 16      0.0000      0.0110      0.0000      0.0000      0.0000      0.0019      0.0315      0.0000      0.0000
 17      0.0000      0.0129      0.0123      0.0000      0.0000      0.0000      0.0000      0.0156      0.0000
 18      1.3277      1.3333      1.5149      1.4631      1.3451      1.4111      1.2928      1.3185      1.3370
 19      0.0000      0.0435      0.0048      0.0326      0.0122      0.0000      0.0000      0.0132      0.0000
 20      0.0000      0.0167      0.0000      0.0314      0.0000      0.0311      0.0000      0.0000      0.0000
 21      0.0000      0.0523      0.0532      0.0000      0.0455      0.0418      0.0000      0.1527      0.0000
 22      0.0000      0.0366      0.0000      0.0000      0.0000      0.0000      0.1358      0.0000      0.0000
 23      0.0000      0.0426      0.0000      0.0000      0.0000      0.0085      0.0501      0.0154      0.0734
 24      0.0000      0.0319      0.0000      0.0000      0.0000      0.0000      0.0497      0.0043      0.0000
 25      0.0000      0.0625      0.0000      0.1204      0.0000      0.0867      0.0290      0.0000      0.0000
 26      0.0000      0.1255      0.1326      0.0628      0.0000      0.3030      0.3529      0.1753      0.0000
 27      0.0000      0.1213      0.1561      0.0758      0.2384      0.0914      0.3645      0.2740      0.0610
 28      0.0000      0.0385      0.1824      0.0236      0.0000      0.0843      0.0468      0.0000      0.0608
 29      0.0000      0.0831      0.0000      0.2679      0.1243      0.1445      0.0865      0.0000      0.0952
 30      0.0000      0.0611      0.0826      0.0289      0.0969      0.1123      0.0650      0.0226      0.0142
 31      0.0000      0.0232      0.0000      0.0000      0.0033      0.0399      0.0000      0.0220      0.0000
 32      0.0000      0.0153      0.0000      0.0000      0.0000      0.0000      0.0000      0.0599      0.0000
 33      0.0000      0.0288      0.0000      0.0000      0.0000      0.0000      0.0834      0.1013      0.0000
 34      0.0000      0.0170      0.0000      0.0000      0.1089      0.0000      0.0000      0.0000      0.0000
 35      0.0000      0.0236      0.0078      0.0828      0.0000      0.0000      0.0000      0.0245      0.0000
 36      0.0000      0.0288      0.0021      0.0000      0.0000      0.0000      0.1117      0.0000      0.0782
 37      0.0000      0.0422      0.0000      0.0771      0.0640      0.0668      0.0181      0.1161      0.0000
 38      0.0000      0.0339      0.0000      0.0000      0.0937      0.0000      0.0000      0.0342      0.1586
 39      0.0000      0.0498      0.0000      0.0000      0.0000      0.0308      0.0275      0.0000      0.2635
 40      0.0000      0.0915      0.2287      0.0000      0.0923      0.0000      0.0643      0.0110      0.1622
 41      0.0000      0.0776      0.2092      0.0000      0.0000      0.1303      0.0531      0.4594      0.0257
 42      0.0000      0.1603      0.2249      0.2902      0.2097      0.1410      0.2886      0.1633      0.1545
 43      0.5488      0.1693      0.1491      0.2976      0.1811      0.2311      0.2012      0.3570      0.4323
 44      0.0000      0.0214      0.0000      0.0000      0.0301      0.0706      0.0293      0.0000      0.0000
 45      0.0000      0.0369      0.1263      0.0000      0.0587      0.0000      0.0653      0.0295      0.0268

# j      m_j: min, <> & last-chain-values for 1 ...  7 chains
  1  0.0000E+00  1.8358E-04  0.0000E+00  0.0000E+00  0.0000E+00  1.5186E-03  0.0000E+00  0.0000E+00  0.0000E+00
  2  4.7289E-02  4.4344E-02  4.4123E-02  4.4148E-02  4.4328E-02  4.3926E-02  4.4832E-02  4.3942E-02  4.4924E-02
  3  0.0000E+00  1.9263E-04  0.0000E+00  0.0000E+00  3.9281E-04  7.3723E-05  5.5109E-04  0.0000E+00  5.5504E-04
  4  1.3536E-01  1.3371E-01  1.3155E-01  1.3517E-01  1.3449E-01  1.3329E-01  1.3344E-01  1.3635E-01  1.3626E-01
  5  0.0000E+00  1.9413E-03  2.7331E-03  0.0000E+00  0.0000E+00  1.2421E-03  1.2651E-03  2.6491E-03  1.4127E-03
  6  0.0000E+00  2.2636E-03  1.4499E-02  4.8619E-03  0.0000E+00  0.0000E+00  1.4415E-03  5.6068E-04  7.1652E-04
  7  0.0000E+00  3.9649E-03  0.0000E+00  3.6831E-03  7.3002E-03  8.4746E-03  4.5574E-03  7.1015E-03  0.0000E+00
  8  0.0000E+00  5.1359E-03  0.0000E+00  3.2626E-03  7.9837E-03  0.0000E+00  2.7953E-02  2.3359E-03  0.0000E+00
  9  0.0000E+00  2.2739E-02  7.5875E-02  5.6098E-02  3.5394E-02  9.6505E-02  0.0000E+00  3.8188E-02  1.0134E-02
 10  0.0000E+00  7.5116E-02  1.0519E-01  8.8510E-02  9.4147E-02  7.6959E-02  8.0091E-02  1.6804E-01  1.0846E-01
 11  0.0000E+00  8.6079E-02  1.4751E-01  1.1920E-03  4.9886E-02  2.7119E-02  6.7005E-02  0.0000E+00  0.0000E+00
 12  6.8518E+01  6.5233E+01  6.4032E+01  6.5461E+01  6.4687E+01  6.4556E+01  6.3876E+01  6.5368E+01  6.4989E+01
 13  2.7779E+01  2.9501E+01  2.9177E+01  2.8580E+01  2.9329E+01  2.8822E+01  2.9140E+01  2.9183E+01  2.9280E+01
 14  0.0000E+00  2.0942E-01  2.0072E-01  1.7009E-01  0.0000E+00  1.7058E-01  7.7063E-02  0.0000E+00  9.9097E-02
 15  0.0000E+00  2.1592E-01  0.0000E+00  0.0000E+00  1.5768E-02  0.0000E+00  2.8705E-01  2.3654E-01  1.5661E-01
 16  0.0000E+00  1.0191E-04  0.0000E+00  0.0000E+00  0.0000E+00  1.7154E-05  2.8921E-04  0.0000E+00  0.0000E+00
 17  0.0000E+00  6.2083E-05  5.8695E-05  0.0000E+00  0.0000E+00  0.0000E+00  0.0000E+00  7.5555E-05  0.0000E+00
 18  7.1601E-03  7.0987E-03  8.0005E-03  7.7677E-03  7.1031E-03  7.4510E-03  6.8278E-03  7.0680E-03  7.0999E-03
 19  0.0000E+00  6.9318E-04  7.5445E-05  5.1828E-04  1.9242E-04  0.0000E+00  0.0000E+00  2.1230E-04  0.0000E+00
 20  0.0000E+00  5.8991E-04  0.0000E+00  1.1072E-03  0.0000E+00  1.0910E-03  0.0000E+00  0.0000E+00  0.0000E+00
 21  0.0000E+00  2.2235E-03  2.2432E-03  0.0000E+00  1.9175E-03  1.7623E-03  0.0000E+00  6.5375E-03  0.0000E+00
 22  0.0000E+00  2.5851E-03  0.0000E+00  0.0000E+00  0.0000E+00  0.0000E+00  9.5259E-03  0.0000E+00  0.0000E+00
 23  0.0000E+00  5.9250E-03  0.0000E+00  0.0000E+00  0.0000E+00  1.1653E-03  6.8985E-03  2.1532E-03  1.0165E-02
 24  0.0000E+00  1.0126E-02  0.0000E+00  0.0000E+00  0.0000E+00  0.0000E+00  1.5663E-02  1.3910E-03  0.0000E+00
 25  0.0000E+00  3.0601E-02  0.0000E+00  5.8772E-02  0.0000E+00  4.2067E-02  1.4067E-02  0.0000E+00  0.0000E+00
 26  0.0000E+00  1.1588E-01  1.2149E-01  5.7850E-02  0.0000E+00  2.7752E-01  3.2329E-01  1.6297E-01  0.0000E+00
 27  0.0000E+00  2.2729E-01  2.9014E-01  1.4173E-01  4.4316E-01  1.6998E-01  6.7775E-01  5.1712E-01  1.1397E-01
 28  0.0000E+00  1.4595E-01  6.8604E-01  8.9184E-02  0.0000E+00  3.1719E-01  1.7588E-01  0.0000E+00  2.3008E-01
 29  0.0000E+00  6.6699E-01  0.0000E+00  2.1451E+00  9.8995E-01  1.1507E+00  6.8876E-01  0.0000E+00  7.6227E-01
 30  0.0000E+00  5.8545E-01  7.8464E-01  2.7557E-01  9.2083E-01  1.0668E+00  6.1791E-01  2.1770E-01  1.3580E-01
 31  0.0000E+00  1.6063E-04  0.0000E+00  0.0000E+00  2.2921E-05  2.7475E-04  0.0000E+00  1.5367E-04  0.0000E+00
 32  0.0000E+00  5.5810E-05  0.0000E+00  0.0000E+00  0.0000E+00  0.0000E+00  0.0000E+00  2.2045E-04  0.0000E+00
 33  0.0000E+00  1.5610E-04  0.0000E+00  0.0000E+00  0.0000E+00  0.0000E+00  4.4900E-04  5.5327E-04  0.0000E+00
