###################################################################
## OUTPUT of StarlightChains_v04.for    [Cid@UFSC - 01/Apr/2007] ##
###################################################################

## Some input info
NGC2298_a_1.cxt                          [arq_obs]
Base.BC03.N                              [arq_base]
NGC2298_a_1.msk                          [arq_masks]
StCv04.C99.config                        [arq_config]
   45                                    [N_base]
    0                                    [N_YAV_components = # of components with extra extinction!]
    0                                    [i_FitPowerLaw (1/0 = Yes/No)]
-9.99                                    [alpha_PowerLaw]
CCM                                      [red_law_option]
 1.458241                                [q_norm = A(l_norm)/A(V)]

## (Re)Sampling Parameters
 3359.00                                 [l_ini (A)]
 6428.00                                 [l_fin (A)]
    1.00                                 [dl    (A)]     (OBS: dl_cushion =    50.00 A)

## Normalization info
 4020.00                                 [l_norm (A) - for base]
 4010.00                                 [llow_norm (A) - window for f_obs]
 4060.00                                 [lupp_norm (A) - window for f_obs]
3.712074E-15                             [fobs_norm (in input units)]

## S/N
 4730.00                                 [llow_SN (A) - window for S/N]
 4780.00                                 [lupp_SN (A) - window for S/N]
  81.814                                 [S/N in S/N window]
  72.947                                 [S/N in norm. window]
 157.218                                 [S/N_err in S/N window]
 140.180                                 [S/N_err in norm. window]
  1.0000                                 [fscale_chi2]

## etc...
  2147483644                             [idum_orig]
  3065                                   [NOl_eff]
  1188                                   [Nl_eff]
  1877    NSIGMA                         [Ntot_cliped & clip_method]
  1315160                                [Nglobal_steps]
   7                                     [N_chains]
   7                                     [NEX0s_base = N_base in EX0s-fits]
 0   0   1      150   2.0   3.200E+02    [Clip-Bug, RC-Crash & Burn-In warning-flags, n_censored_weights, wei_nsig_threshold & wei_limit]
    23     22.368     22.368      0.000  [idt_all, wdt_TotTime, wdt_UsrTime & wdt_SysTime (sec)]

## Synthesis Results - Best model ##

 2.68181E+00                             [chi2/Nl_eff]
     1.18674                             [adev (%)]

   103.54326                             [sum-of-x (%)]
 1.61278E-14                             [Flux_tot (units of input spectrum!)]
 7.00882E-11                             [Mini_tot (???)]
 3.89507E-11                             [Mcor_tot (???)]

   2.61                                  [v0_min  (km/s)]
 127.29                                  [vd_min  (km/s)]
 1.0678                                  [AV_min  (mag)]
 0.0000                                  [YAV_min (mag)]

# j     x_j(%)      Mini_j(%)     Mcor_j(%)     age_j(yr)     Z_j      (L/M)_j    YAV?  Mstars   component_j        a/Fe...       SSP_chi2r SSP_adev(%)   SSP_AV   SSP_x(%)
  1      0.0000     0.0000E+00    0.0000E+00    1.000000E+06  0.00400  1.114E-02    0   1.0000   age020_m42            0.0000     4.2327E+02    11.2859   3.7392    80.6303
  2     23.7324     1.2949E-01    2.3298E-01    3.160000E+06  0.00400  4.073E-02    0   0.9999   age045_m42            0.0000     7.3190E+01     4.9030   2.7945    94.1667
  3      0.0000     0.0000E+00    0.0000E+00    5.010000E+06  0.00400  2.534E-02    0   0.9488   age055_m42            0.0000     2.0744E+02     8.1194   3.1906    88.0836
  4      0.0000     0.0000E+00    0.0000E+00    1.000000E+07  0.00400  1.271E-02    0   0.8862   age070_m42            0.0000     1.8232E+02     8.1014   2.4058    91.5440
  5      0.0000     0.0000E+00    0.0000E+00    2.512000E+07  0.00400  5.070E-03    0   0.8174   age090_m42            0.0000     1.5353E+02     7.3828   2.2742    93.1156
  6      0.0000     0.0000E+00    0.0000E+00    4.000000E+07  0.00400  3.505E-03    0   0.7851   age104_m42            0.0000     8.1128E+01     5.2542   1.9586    95.9908
  7     25.4556     2.4943E+00    3.2347E+00    1.015200E+08  0.00400  2.268E-03    0   0.7207   age116_m42            0.0000     1.2069E+02     4.5173   1.9801   104.7249
  8      0.0000     0.0000E+00    0.0000E+00    2.861200E+08  0.00400  1.079E-03    0   0.6613   age125_m42            0.0000     1.4646E+02     5.5874   1.4858   106.8672
  9      0.1329     5.8180E-02    6.4876E-02    6.405400E+08  0.00400  5.077E-04    0   0.6197   age132_m42            0.0000     1.6309E+02     5.9427   1.1208   111.0174
 10     18.0755     1.1363E+01    1.2317E+01    9.047900E+08  0.00400  3.535E-04    0   0.6024   age135_m42            0.0000     9.1231E+01     4.8157   0.8774   110.2486
 11      0.0000     0.0000E+00    0.0000E+00    1.434000E+09  0.00400  1.910E-04    0   0.5716   age139_m42            0.0000     6.2595E+01     4.8503   0.3441   108.7123
 12     34.3448     7.7740E+01    7.6420E+01    2.500000E+09  0.00400  9.818E-05    0   0.5463   age150_m42            0.0000     9.0676E+01     4.8543   0.0623   104.0294
 13      1.7423     8.2066E+00    7.7202E+00    5.000000E+09  0.00400  4.718E-05    0   0.5228   age161_m42            0.0000     1.4068E+02     5.4662  -0.1055   100.5618
 14      0.0000     0.0000E+00    0.0000E+00    1.100000E+10  0.00400  2.205E-05    0   0.4980   age185_m42            0.0000     2.6136E+02     7.2739  -0.3673    98.1219
 15      0.0000     0.0000E+00    0.0000E+00    1.300000E+10  0.00400  1.883E-05    0   0.4927   age193_m42            0.0000     2.7932E+02     7.4958  -0.3851    97.9459
 16      0.0000     0.0000E+00    0.0000E+00    1.000000E+06  0.02000  1.989E-02    0   1.0000   age020_m62            0.0000     4.2650E+02    11.2311   3.6996    81.3910
 17      0.0000     0.0000E+00    0.0000E+00    3.160000E+06  0.02000  3.772E-02    0   0.9858   age045_m62            0.0000     3.7914E+02    10.7057   3.5587    83.5227
 18      0.0000     0.0000E+00    0.0000E+00    5.010000E+06  0.02000  3.227E-02    0   0.9342   age055_m62            0.0000     1.3175E+02     6.4928   3.0557    90.7376
 19      0.0000     0.0000E+00    0.0000E+00    1.000000E+07  0.02000  1.011E-02    0   0.8751   age070_m62            0.0000     4.5016E+02    12.6009   2.4154    88.0354
 20      0.0000     0.0000E+00    0.0000E+00    2.512000E+07  0.02000  4.206E-03    0   0.8099   age090_m62            0.0000     3.1517E+02    10.2842   2.3474    89.0576
 21      0.0000     0.0000E+00    0.0000E+00    4.000000E+07  0.02000  3.373E-03    0   0.7799   age104_m62            0.0000     6.4625E+01     4.6726   2.1751    97.4056
 22      0.0000     0.0000E+00    0.0000E+00    1.015200E+08  0.02000  1.878E-03    0   0.7221   age116_m62            0.0000     9.6339E+01     3.7697   2.0029   105.1220
 23      0.0000     0.0000E+00    0.0000E+00    2.861200E+08  0.02000  8.869E-04    0   0.6700   age125_m62            0.0000     2.9716E+02     7.8036   1.4872   112.0378
 24      0.0000     0.0000E+00    0.0000E+00    6.405400E+08  0.02000  3.657E-04    0   0.6322   age132_m62            0.0000     2.1081E+02     7.8600   0.7929   115.6127
 25      0.0000     0.0000E+00    0.0000E+00    9.047900E+08  0.02000  2.312E-04    0   0.6152   age135_m62            0.0000     1.3512E+02     6.8788   0.4159   114.5070
 26      0.0000     0.0000E+00    0.0000E+00    1.434000E+09  0.02000  1.168E-04    0   0.5865   age139_m62            0.0000     1.1345E+02     5.7789  -0.0027   108.4005
 27      0.0000     0.0000E+00    0.0000E+00    2.500000E+09  0.02000  5.505E-05    0   0.5610   age150_m62            0.0000     2.1810E+02     7.2536  -0.3778   105.1914
 28      0.0000     0.0000E+00    0.0000E+00    5.000000E+09  0.02000  2.596E-05    0   0.5353   age161_m62            0.0000     4.0449E+02     9.6295  -0.7082   104.7529
 29      0.0000     0.0000E+00    0.0000E+00    1.100000E+10  0.02000  1.169E-05    0   0.5103   age185_m62            0.0000     6.1924E+02    11.5146  -1.0000   103.9963
 30      0.0000     0.0000E+00    0.0000E+00    1.300000E+10  0.02000  9.691E-06    0   0.5047   age193_m62            0.0000     6.6831E+02    11.6942  -1.0000   102.9853
 31      0.0000     0.0000E+00    0.0000E+00    1.000000E+06  0.05000  2.651E-02    0   0.9998   age020_m72            0.0000     3.9464E+02    10.6376   3.7044    82.2692
 32      0.0000     0.0000E+00    0.0000E+00    3.160000E+06  0.05000  4.817E-02    0   0.9577   age045_m72            0.0000     2.6098E+02     8.7659   3.4258    86.6239
 33      0.0000     0.0000E+00    0.0000E+00    5.010000E+06  0.05000  3.101E-02    0   0.9147   age055_m72            0.0000     2.3627E+02     8.5791   3.0682    89.1867
 34      0.0000     0.0000E+00    0.0000E+00    1.000000E+07  0.05000  8.954E-03    0   0.8524   age070_m72            0.0000     2.4983E+02     8.3967   3.3075    87.8620
 35      0.0000     0.0000E+00    0.0000E+00    2.512000E+07  0.05000  4.207E-03    0   0.7902   age090_m72            0.0000     1.0426E+02     5.4077   2.8758    93.2344
 36      0.0000     0.0000E+00    0.0000E+00    4.000000E+07  0.05000  3.198E-03    0   0.7618   age104_m72            0.0000     4.9142E+01     2.8621   2.3733   100.9070
 37      0.0599     7.7540E-03    9.8952E-03    1.015200E+08  0.05000  1.716E-03    0   0.7092   age116_m72            0.0000     1.3131E+02     4.5694   2.0938   105.2625
 38      0.0000     0.0000E+00    0.0000E+00    2.861200E+08  0.05000  7.047E-04    0   0.6618   age125_m72            0.0000     2.9473E+02     8.3155   1.2771   112.4584
 39      0.0000     0.0000E+00    0.0000E+00    6.405400E+08  0.05000  2.633E-04    0   0.6253   age132_m72            0.0000     1.8333E+02     7.8488   0.4115   114.8262
 40      0.0000     0.0000E+00    0.0000E+00    9.047900E+08  0.05000  1.484E-04    0   0.6088   age135_m72            0.0000     1.6557E+02     7.1718  -0.0741   109.3990
 41      0.0000     0.0000E+00    0.0000E+00    1.434000E+09  0.05000  7.827E-05    0   0.5847   age139_m72            0.0000     2.8430E+02     8.5773  -0.4652   105.4951
 42      0.0000     0.0000E+00    0.0000E+00    2.500000E+09  0.05000  3.759E-05    0   0.5583   age150_m72            0.0000     4.3461E+02    10.0739  -0.7883   104.4076
 43      0.0000     0.0000E+00    0.0000E+00    5.000000E+09  0.05000  1.548E-05    0   0.5320   age161_m72            0.0000     6.6357E+02    11.4656  -1.0000    98.7283
 44      0.0000     0.0000E+00    0.0000E+00    1.100000E+10  0.05000  6.532E-06    0   0.5070   age185_m72            0.0000     1.1403E+03    15.6230  -1.0000    88.3926
 45      0.0000     0.0000E+00    0.0000E+00    1.300000E+10  0.05000  5.316E-06    0   0.5018   age193_m72            0.0000     1.3484E+03    17.1659  -1.0000    85.2572


## Synthesis Results - Average & Chains ##

# j      x_j: min, <> & last-chain-values for 1 ...  7 chains
  1      0.0000      0.0060      0.0000      0.0000      0.0000      0.0000      0.0000      0.0000      0.0000
  2     23.7324     22.7625     22.9390     23.1087     23.1358     23.1384     23.2946     23.1023     23.3091
  3      0.0000      0.0178      0.0000      0.0000      0.0479      0.0000      0.0000      0.0000      0.0000
  4      0.0000      0.1771      0.3247      0.3110      0.2089      0.1773      0.1074      0.2897      0.0738
  5      0.0000      0.0450      0.0168      0.0069      0.0000      0.0000      0.0000      0.0000      0.0170
  6      0.0000      0.0301      0.0000      0.0000      0.0000      0.0077      0.0000      0.0000      0.0000
  7     25.4556     23.9268     24.0577     24.0024     24.1681     24.5391     24.1417     23.7302     24.2442
  8      0.0000      0.1787      0.4335      0.4796      0.3268      0.0000      0.2125      0.3782      0.1345
  9      0.1329      0.3207      0.0600      0.6177      0.6652      0.2873      0.0000      0.5183      0.2369
 10     18.0755     19.2944     19.3266     18.8289     18.7994     19.2871     19.3924     19.5667     19.2859
 11      0.0000      0.0619      0.0491      0.0000      0.0030      0.0000      0.0583      0.0168      0.0202
 12     34.3448     33.7094     33.7857     33.7370     33.6294     34.2447     33.6963     33.4175     33.6633
 13      1.7423      1.3595      1.3097      1.1602      1.4233      1.1850      1.5053      1.1624      1.1606
 14      0.0000      0.0121      0.0000      0.0000      0.0000      0.0000      0.0000      0.0000      0.0000
 15      0.0000      0.0113      0.0115      0.0000      0.0000      0.0000      0.0000      0.0000      0.0000
 16      0.0000      0.0058      0.0000      0.0000      0.0000      0.0000      0.0000      0.0000      0.0000
 17      0.0000      0.0060      0.0000      0.0000      0.0000      0.0000      0.0000      0.0000      0.0000
 18      0.0000      0.0571      0.0211      0.0160      0.0000      0.0000      0.0000      0.0000      0.0000
 19      0.0000      0.0198      0.0000      0.0000      0.0013      0.0162      0.0000      0.0000      0.0000
 20      0.0000      0.0135      0.0234      0.0000      0.0000      0.0000      0.0000      0.0000      0.0000
 21      0.0000      0.0414      0.0000      0.0000      0.0000      0.0161      0.0000      0.0000      0.0000
 22      0.0000      0.0985      0.0000      0.1033      0.0738      0.0000      0.0000      0.0000      0.0000
 23      0.0000      0.0437      0.0000      0.0000      0.0000      0.0000      0.0000      0.0000      0.0000
 24      0.0000      0.0181      0.0000      0.0000      0.0000      0.0000      0.0000      0.0000      0.0000
 25      0.0000      0.0331      0.0000      0.0357      0.0000      0.0000      0.0358      0.0000      0.0293
 26      0.0000      0.0322      0.0000      0.0199      0.0000      0.0000      0.0409      0.0000      0.0000
 27      0.0000      0.0235      0.0000      0.0166      0.0000      0.0000      0.0000      0.0000      0.0000
 28      0.0000      0.0110      0.0000      0.0017      0.0544      0.0000      0.0000      0.0000      0.0000
 29      0.0000      0.0342      0.0000      0.0149      0.0441      0.0000      0.0000      0.0127      0.0000
 30      0.0000      0.0059      0.0000      0.0000      0.0000      0.0000      0.0000      0.0000      0.0168
 31      0.0000      0.0041      0.0000      0.0000      0.0000      0.0000      0.0000      0.0000      0.0000
 32      0.0000      0.0108      0.0000      0.0000      0.0000      0.0000      0.0000      0.0564      0.0000
 33      0.0000      0.0275      0.0000      0.0000      0.0000      0.0000      0.0000      0.0300      0.0000
 34      0.0000      0.0051      0.0000      0.0000      0.0000      0.0000      0.0000      0.0000      0.0000
 35      0.0000      0.0147      0.0000      0.0000      0.0000      0.0000      0.0000      0.0000      0.0000
 36      0.0000      0.0409      0.0000      0.0000      0.0000      0.0000      0.0000      0.0000      0.0000
 37      0.0599      0.3286      0.5502      0.3183      0.3191      0.0000      0.4006      0.4728      0.3464
 38      0.0000      0.0468      0.0000      0.0000      0.0000      0.0000      0.0000      0.0000      0.0000
 39      0.0000      0.0427      0.0000      0.0000      0.0000      0.0000      0.0000      0.0589      0.0000
 40      0.0000      0.0398      0.0000      0.0844      0.0000      0.0000      0.0000      0.0000      0.0000
 41      0.0000      0.0370      0.0000      0.0000      0.0000      0.0000      0.0571      0.0000      0.2086
 42      0.0000      0.0988      0.0000      0.0794      0.0702      0.0908      0.1600      0.0885      0.2034
 43      0.0000      0.3040      0.3986      0.2584      0.3124      0.2641      0.2560      0.4035      0.3335
 44      0.0000      0.1732      0.1993      0.2835      0.2091      0.1748      0.1538      0.1664      0.1807
 45      0.0000      0.2058      0.2034      0.2324      0.2118      0.2602      0.2000      0.2615      0.2348

# j      m_j: min, <> & last-chain-values for 1 ...  7 chains
  1  0.0000E+00  1.8247E-04  0.0000E+00  0.0000E+00  0.0000E+00  0.0000E+00  0.0000E+00  0.0000E+00  0.0000E+00
  2  2.3298E-01  1.9065E-01  1.9216E-01  1.9069E-01  1.9226E-01  1.9332E-01  1.9811E-01  1.9233E-01  1.9392E-01
  3  0.0000E+00  2.2731E-04  0.0000E+00  0.0000E+00  6.0734E-04  0.0000E+00  0.0000E+00  0.0000E+00  0.0000E+00
  4  0.0000E+00  4.2119E-03  7.7258E-03  7.2886E-03  4.9300E-03  4.2063E-03  2.5938E-03  6.8496E-03  1.7443E-03
  5  0.0000E+00  2.4770E-03  9.2251E-04  3.7165E-04  0.0000E+00  0.0000E+00  0.0000E+00  0.0000E+00  9.2928E-04
  6  0.0000E+00  2.3009E-03  0.0000E+00  0.0000E+00  0.0000E+00  5.9042E-04  0.0000E+00  0.0000E+00  0.0000E+00
  7  3.2347E+00  2.5940E+00  2.6086E+00  2.5638E+00  2.5996E+00  2.6538E+00  2.6575E+00  2.5572E+00  2.6108E+00
  8  0.0000E+00  3.7357E-02  9.0661E-02  9.8813E-02  6.7788E-02  0.0000E+00  4.5123E-02  7.8602E-02  2.7932E-02
  9  6.4876E-02  1.3356E-01  2.4971E-02  2.5344E-01  2.7485E-01  1.1933E-01  0.0000E+00  2.1456E-01  9.8014E-02
 10  1.2317E+01  1.1217E+01  1.1238E+01  1.0785E+01  1.0844E+01  1.1185E+01  1.1448E+01  1.1307E+01  1.1138E+01
 11  0.0000E+00  6.3243E-02  5.0103E-02  0.0000E+00  3.0839E-03  0.0000E+00  6.0389E-02  1.7056E-02  2.0522E-02
 12  7.6420E+01  6.3992E+01  6.4147E+01  6.3100E+01  6.3341E+01  6.4848E+01  6.4952E+01  6.3057E+01  6.3478E+01
 13  7.7202E+00  5.1394E+00  4.9520E+00  4.3213E+00  5.3388E+00  4.4689E+00  5.7782E+00  4.3680E+00  4.3585E+00
 14  0.0000E+00  9.3151E-02  0.0000E+00  0.0000E+00  0.0000E+00  0.0000E+00  0.0000E+00  0.0000E+00  0.0000E+00
 15  0.0000E+00  1.0107E-01  1.0248E-01  0.0000E+00  0.0000E+00  0.0000E+00  0.0000E+00  0.0000E+00  0.0000E+00
 16  0.0000E+00  9.9589E-05  0.0000E+00  0.0000E+00  0.0000E+00  0.0000E+00  0.0000E+00  0.0000E+00  0.0000E+00
 17  0.0000E+00  5.3243E-05  0.0000E+00  0.0000E+00  0.0000E+00  0.0000E+00  0.0000E+00  0.0000E+00  0.0000E+00
 18  0.0000E+00  5.6442E-04  2.0874E-04  1.5541E-04  0.0000E+00  0.0000E+00  0.0000E+00  0.0000E+00  0.0000E+00
 19  0.0000E+00  5.8614E-04  0.0000E+00  0.0000E+00  3.7310E-05  4.7794E-04  0.0000E+00  0.0000E+00  0.0000E+00
 20  0.0000E+00  8.8429E-04  1.5346E-03  0.0000E+00  0.0000E+00  0.0000E+00  0.0000E+00  0.0000E+00  0.0000E+00
 21  0.0000E+00  3.2631E-03  0.0000E+00  0.0000E+00  0.0000E+00  1.2632E-03  0.0000E+00  0.0000E+00  0.0000E+00
 22  0.0000E+00  1.2920E-02  0.0000E+00  1.3351E-02  9.6059E-03  0.0000E+00  0.0000E+00  0.0000E+00  0.0000E+00
 23  0.0000E+00  1.1253E-02  0.0000E+00  0.0000E+00  0.0000E+00  0.0000E+00  0.0000E+00  0.0000E+00  0.0000E+00
 24  0.0000E+00  1.0704E-02  0.0000E+00  0.0000E+00  0.0000E+00  0.0000E+00  0.0000E+00  0.0000E+00  0.0000E+00
 25  0.0000E+00  3.0029E-02  0.0000E+00  3.1940E-02  0.0000E+00  0.0000E+00  3.2980E-02  0.0000E+00  2.6461E-02
 26  0.0000E+00  5.5226E-02  0.0000E+00  3.3594E-02  0.0000E+00  0.0000E+00  7.1213E-02  0.0000E+00  0.0000E+00
 27  0.0000E+00  8.1627E-02  0.0000E+00  5.6861E-02  0.0000E+00  0.0000E+00  0.0000E+00  0.0000E+00  0.0000E+00
 28  0.0000E+00  7.7474E-02  0.0000E+00  1.1607E-02  3.7974E-01  0.0000E+00  0.0000E+00  0.0000E+00  0.0000E+00
 29  0.0000E+00  5.0975E-01  0.0000E+00  2.1848E-01  6.5114E-01  0.0000E+00  0.0000E+00  1.8811E-01  0.0000E+00
 30  0.0000E+00  1.0562E-01  0.0000E+00  0.0000E+00  0.0000E+00  0.0000E+00  0.0000E+00  0.0000E+00  2.9680E-01
 31  0.0000E+00  5.3159E-05  0.0000E+00  0.0000E+00  0.0000E+00  0.0000E+00  0.0000E+00  0.0000E+00  0.0000E+00
 32  0.0000E+00  7.3552E-05  0.0000E+00  0.0000E+00  0.0000E+00  0.0000E+00  0.0000E+00  3.8039E-04  0.0000E+00
 33  0.0000E+00  2.7676E-04  0.0000E+00  0.0000E+00  0.0000E+00  0.0000E+00  0.0000E+00  2.9964E-04  0.0000E+00
