###################################################################
## OUTPUT of StarlightChains_v04.for    [Cid@UFSC - 01/Apr/2007] ##
###################################################################

## Some input info
NGC2808_b_1.cxt                          [arq_obs]
Base.BC03.N                              [arq_base]
NGC2808_b_1.msk                          [arq_masks]
StCv04.C99.config                        [arq_config]
   45                                    [N_base]
    0                                    [N_YAV_components = # of components with extra extinction!]
    0                                    [i_FitPowerLaw (1/0 = Yes/No)]
-9.99                                    [alpha_PowerLaw]
CCM                                      [red_law_option]
 1.458241                                [q_norm = A(l_norm)/A(V)]

## (Re)Sampling Parameters
 3359.00                                 [l_ini (A)]
 6428.00                                 [l_fin (A)]
    1.00                                 [dl    (A)]     (OBS: dl_cushion =    50.00 A)

## Normalization info
 4020.00                                 [l_norm (A) - for base]
 4010.00                                 [llow_norm (A) - window for f_obs]
 4060.00                                 [lupp_norm (A) - window for f_obs]
3.144042E-14                             [fobs_norm (in input units)]

## S/N
 4730.00                                 [llow_SN (A) - window for S/N]
 4780.00                                 [lupp_SN (A) - window for S/N]
  65.329                                 [S/N in S/N window]
  51.114                                 [S/N in norm. window]
 151.759                                 [S/N_err in S/N window]
 118.738                                 [S/N_err in norm. window]
  1.0000                                 [fscale_chi2]

## etc...
  2147483641                             [idum_orig]
  3069                                   [NOl_eff]
  1146                                   [Nl_eff]
  1923    NSIGMA                         [Ntot_cliped & clip_method]
  1371720                                [Nglobal_steps]
   7                                     [N_chains]
   6                                     [NEX0s_base = N_base in EX0s-fits]
 0   0   1      256   2.0   2.496E+02    [Clip-Bug, RC-Crash & Burn-In warning-flags, n_censored_weights, wei_nsig_threshold & wei_limit]
    23     23.269     23.265      0.004  [idt_all, wdt_TotTime, wdt_UsrTime & wdt_SysTime (sec)]

## Synthesis Results - Best model ##

 2.48113E+00                             [chi2/Nl_eff]
     1.37839                             [adev (%)]

   102.98358                             [sum-of-x (%)]
 8.99017E-14                             [Flux_tot (units of input spectrum!)]
 1.02868E-09                             [Mini_tot (???)]
 5.50825E-10                             [Mcor_tot (???)]

  -1.03                                  [v0_min  (km/s)]
  86.68                                  [vd_min  (km/s)]
 0.7604                                  [AV_min  (mag)]
 0.0000                                  [YAV_min (mag)]

# j     x_j(%)      Mini_j(%)     Mcor_j(%)     age_j(yr)     Z_j      (L/M)_j    YAV?  Mstars   component_j        a/Fe...       SSP_chi2r SSP_adev(%)   SSP_AV   SSP_x(%)
  1      0.0000     0.0000E+00    0.0000E+00    1.000000E+06  0.00400  1.114E-02    0   1.0000   age020_m42            0.0000     3.6028E+02    13.8275   4.0000    83.6288
  2     19.9327     4.1531E-02    7.7552E-02    3.160000E+06  0.00400  4.073E-02    0   0.9999   age045_m42            0.0000     9.3397E+01     6.9184   3.2030    95.2623
  3      0.0000     0.0000E+00    0.0000E+00    5.010000E+06  0.00400  2.534E-02    0   0.9488   age055_m42            0.0000     1.6781E+02     9.8733   3.6172    88.8559
  4      2.6796     1.7892E-02    2.9611E-02    1.000000E+07  0.00400  1.271E-02    0   0.8862   age070_m42            0.0000     1.5731E+02     9.5307   2.8389    92.3541
  5      0.0000     0.0000E+00    0.0000E+00    2.512000E+07  0.00400  5.070E-03    0   0.8174   age090_m42            0.0000     1.3428E+02     8.8619   2.7014    94.0568
  6      0.0000     0.0000E+00    0.0000E+00    4.000000E+07  0.00400  3.505E-03    0   0.7851   age104_m42            0.0000     8.6853E+01     7.0247   2.3688    97.2331
  7      0.0000     0.0000E+00    0.0000E+00    1.015200E+08  0.00400  2.268E-03    0   0.7207   age116_m42            0.0000     3.3850E+02     9.7020   2.3135   107.3704
  8      0.0000     0.0000E+00    0.0000E+00    2.861200E+08  0.00400  1.079E-03    0   0.6613   age125_m42            0.0000     3.6340E+02    10.3663   1.8065   110.0559
  9      0.0000     0.0000E+00    0.0000E+00    6.405400E+08  0.00400  5.077E-04    0   0.6197   age132_m42            0.0000     3.8621E+02    10.7575   1.4397   114.3276
 10      0.0000     0.0000E+00    0.0000E+00    9.047900E+08  0.00400  3.535E-04    0   0.6024   age135_m42            0.0000     2.5099E+02     8.7487   1.2031   113.3640
 11      0.0000     0.0000E+00    0.0000E+00    1.434000E+09  0.00400  1.910E-04    0   0.5716   age139_m42            0.0000     1.1675E+02     6.4044   0.6648   111.9767
 12     51.1354     4.4200E+01    4.5094E+01    2.500000E+09  0.00400  9.818E-05    0   0.5463   age150_m42            0.0000     3.3490E+01     3.8980   0.3878   107.0961
 13     25.9139     4.6612E+01    4.5509E+01    5.000000E+09  0.00400  4.718E-05    0   0.5228   age161_m42            0.0000     2.9428E+01     3.6922   0.2241   103.5586
 14      0.0000     0.0000E+00    0.0000E+00    1.100000E+10  0.00400  2.205E-05    0   0.4980   age185_m42            0.0000     8.2226E+01     5.7257  -0.0549   101.5493
 15      0.0000     0.0000E+00    0.0000E+00    1.300000E+10  0.00400  1.883E-05    0   0.4927   age193_m42            0.0000     9.1716E+01     6.0269  -0.0727   101.4008
 16      0.0000     0.0000E+00    0.0000E+00    1.000000E+06  0.02000  1.989E-02    0   1.0000   age020_m62            0.0000     3.4885E+02    13.5275   4.0000    83.8576
 17      0.0000     0.0000E+00    0.0000E+00    3.160000E+06  0.02000  3.772E-02    0   0.9858   age045_m62            0.0000     2.9330E+02    12.6030   3.9941    84.1080
 18      0.0000     0.0000E+00    0.0000E+00    5.010000E+06  0.02000  3.227E-02    0   0.9342   age055_m62            0.0000     1.2959E+02     8.5200   3.4619    91.7608
 19      0.0000     0.0000E+00    0.0000E+00    1.000000E+07  0.02000  1.011E-02    0   0.8751   age070_m62            0.0000     3.6511E+02    14.2116   2.8626    88.5497
 20      0.0000     0.0000E+00    0.0000E+00    2.512000E+07  0.02000  4.206E-03    0   0.8099   age090_m62            0.0000     2.5745E+02    12.0990   2.7753    89.7923
 21      0.0000     0.0000E+00    0.0000E+00    4.000000E+07  0.02000  3.373E-03    0   0.7799   age104_m62            0.0000     1.1169E+02     7.3030   2.5625    98.9447
 22      0.0000     0.0000E+00    0.0000E+00    1.015200E+08  0.02000  1.878E-03    0   0.7221   age116_m62            0.0000     2.9183E+02     9.1638   2.3437   107.7112
 23      0.0000     0.0000E+00    0.0000E+00    2.861200E+08  0.02000  8.869E-04    0   0.6700   age125_m62            0.0000     5.9262E+02    13.1904   1.7929   115.7154
 24      0.0000     0.0000E+00    0.0000E+00    6.405400E+08  0.02000  3.657E-04    0   0.6322   age132_m62            0.0000     3.9116E+02    11.2612   1.0843   119.6473
 25      0.0000     0.0000E+00    0.0000E+00    9.047900E+08  0.02000  2.312E-04    0   0.6152   age135_m62            0.0000     2.2207E+02     8.6195   0.7190   118.0799
 26      0.0000     0.0000E+00    0.0000E+00    1.434000E+09  0.02000  1.168E-04    0   0.5865   age139_m62            0.0000     6.7965E+01     5.2109   0.3124   111.6606
 27      0.0000     0.0000E+00    0.0000E+00    2.500000E+09  0.02000  5.505E-05    0   0.5610   age150_m62            0.0000     8.0256E+01     5.9077  -0.0708   108.6237
 28      0.0000     0.0000E+00    0.0000E+00    5.000000E+09  0.02000  2.596E-05    0   0.5353   age161_m62            0.0000     1.9034E+02     8.5787  -0.4269   108.8870
 29      0.0000     0.0000E+00    0.0000E+00    1.100000E+10  0.02000  1.169E-05    0   0.5103   age185_m62            0.0000     3.4530E+02    11.2003  -0.8199   110.7541
 30      0.0000     0.0000E+00    0.0000E+00    1.300000E+10  0.02000  9.691E-06    0   0.5047   age193_m62            0.0000     3.7755E+02    11.6503  -0.8696   111.0501
 31      0.0000     0.0000E+00    0.0000E+00    1.000000E+06  0.05000  2.651E-02    0   0.9998   age020_m72            0.0000     3.2384E+02    12.9442   4.0000    84.7710
 32      0.0000     0.0000E+00    0.0000E+00    3.160000E+06  0.05000  4.817E-02    0   0.9577   age045_m72            0.0000     2.0742E+02    10.7310   3.8470    87.3553
 33      0.0000     0.0000E+00    0.0000E+00    5.010000E+06  0.05000  3.101E-02    0   0.9147   age055_m72            0.0000     1.9363E+02    10.4756   3.4856    89.9598
 34      0.0000     0.0000E+00    0.0000E+00    1.000000E+07  0.05000  8.954E-03    0   0.8524   age070_m72            0.0000     1.9676E+02    10.3439   3.7200    88.7056
 35      0.0000     0.0000E+00    0.0000E+00    2.512000E+07  0.05000  4.207E-03    0   0.7902   age090_m72            0.0000     1.0796E+02     7.6381   3.2609    94.6230
 36      0.0000     0.0000E+00    0.0000E+00    4.000000E+07  0.05000  3.198E-03    0   0.7618   age104_m72            0.0000     1.7254E+02     7.1557   2.7146   103.3043
 37      0.0000     0.0000E+00    0.0000E+00    1.015200E+08  0.05000  1.716E-03    0   0.7092   age116_m72            0.0000     3.4605E+02     9.9399   2.4199   108.1118
 38      0.0000     0.0000E+00    0.0000E+00    2.861200E+08  0.05000  7.047E-04    0   0.6618   age125_m72            0.0000     5.6362E+02    13.0489   1.5685   116.4130
 39      0.0000     0.0000E+00    0.0000E+00    6.405400E+08  0.05000  2.633E-04    0   0.6253   age132_m72            0.0000     2.9741E+02     9.9902   0.7015   118.8136
 40      0.0000     0.0000E+00    0.0000E+00    9.047900E+08  0.05000  1.484E-04    0   0.6088   age135_m72            0.0000     1.2581E+02     7.1517   0.2193   113.2835
 41      2.0652     2.2392E+00    2.4451E+00    1.434000E+09  0.05000  7.827E-05    0   0.5847   age139_m72            0.0000     1.2790E+02     7.3926  -0.1852   109.6026
 42      0.0000     0.0000E+00    0.0000E+00    2.500000E+09  0.05000  3.759E-05    0   0.5583   age150_m72            0.0000     2.1014E+02     9.0959  -0.5197   108.8651
 43      1.2568     6.8898E+00    6.8451E+00    5.000000E+09  0.05000  1.548E-05    0   0.5320   age161_m72            0.0000     3.4303E+02    11.1268  -0.9605   108.9507
 44      0.0000     0.0000E+00    0.0000E+00    1.100000E+10  0.05000  6.532E-06    0   0.5070   age185_m72            0.0000     6.2932E+02    14.6317  -1.0000   101.5250
 45      0.0000     0.0000E+00    0.0000E+00    1.300000E+10  0.05000  5.316E-06    0   0.5018   age193_m72            0.0000     7.9108E+02    16.7143  -1.0000    98.8511


## Synthesis Results - Average & Chains ##

# j      x_j: min, <> & last-chain-values for 1 ...  7 chains
  1      0.0000      0.9207      0.6734      0.6574      0.9423      0.7017      0.8253      0.8705      0.8460
  2     19.9327     17.4207     18.3397     18.0560     17.8317     17.7547     17.7769     17.9554     18.0873
  3      0.0000      0.0276      0.0000      0.0000      0.0000      0.0942      0.0000      0.0000      0.0000
  4      2.6796      3.0034      2.9034      2.8155      2.8838      3.0003      3.1673      2.9716      3.0370
  5      0.0000      0.0392      0.0000      0.0275      0.0000      0.0510      0.0000      0.0000      0.0000
  6      0.0000      0.0280      0.0000      0.0000      0.0000      0.0000      0.0000      0.0000      0.0000
  7      0.0000      0.0359      0.0000      0.0044      0.0003      0.0000      0.0000      0.0000      0.0000
  8      0.0000      0.0153      0.0000      0.0000      0.0000      0.0000      0.0000      0.0000      0.0000
  9      0.0000      0.0224      0.0000      0.0000      0.0480      0.0000      0.0000      0.0000      0.0000
 10      0.0000      0.0422      0.0401      0.0000      0.0000      0.0000      0.0000      0.0000      0.0769
 11      0.0000      0.0609      0.0212      0.0000      0.0844      0.0000      0.0525      0.0000      0.0000
 12     51.1354     55.2521     55.3244     55.5016     55.2435     55.5193     55.9797     54.8353     55.3580
 13     25.9139     22.6253     22.7530     22.8990     23.0178     22.7180     22.5542     22.8949     22.8729
 14      0.0000      0.0630      0.0000      0.0241      0.0298      0.0000      0.0000      0.0877      0.0000
 15      0.0000      0.0607      0.0341      0.0912      0.2175      0.3885      0.0000      0.0000      0.0000
 16      0.0000      0.0054      0.0000      0.0000      0.0000      0.0364      0.0000      0.0000      0.0000
 17      0.0000      0.0129      0.0000      0.0000      0.0000      0.0124      0.0000      0.0106      0.0000
 18      0.0000      0.0412      0.0000      0.2677      0.0249      0.0000      0.0000      0.0000      0.0000
 19      0.0000      0.0198      0.0000      0.0000      0.0000      0.0000      0.0042      0.0000      0.0000
 20      0.0000      0.0087      0.0000      0.0000      0.0000      0.0047      0.0000      0.0000      0.0000
 21      0.0000      0.0133      0.0000      0.0000      0.0000      0.0211      0.0000      0.0000      0.0000
 22      0.0000      0.0141      0.0000      0.0000      0.0000      0.0057      0.0000      0.0000      0.0000
 23      0.0000      0.0064      0.0000      0.0000      0.0000      0.0000      0.0000      0.0000      0.0000
 24      0.0000      0.0121      0.0000      0.0000      0.0000      0.0000      0.0000      0.0000      0.0000
 25      0.0000      0.0294      0.0000      0.0000      0.0000      0.0000      0.0000      0.0000      0.0000
 26      0.0000      0.1194      0.0000      0.0000      0.0669      0.0000      0.0000      0.2046      0.0000
 27      0.0000      0.3077      0.6032      0.0000      0.4420      0.4138      0.0000      0.6302      0.1421
 28      0.0000      0.0439      0.0000      0.0004      0.0000      0.0000      0.0000      0.0000      0.0225
 29      0.0000      0.0169      0.0000      0.0332      0.0000      0.0000      0.0000      0.0000      0.0058
 30      0.0000      0.0220      0.0045      0.0655      0.0000      0.0233      0.0000      0.0782      0.0000
 31      0.0000      0.0056      0.0000      0.0000      0.0000      0.0134      0.0000      0.0000      0.0000
 32      0.0000      0.0201      0.0000      0.0000      0.0000      0.0000      0.0000      0.0000      0.0000
 33      0.0000      0.0217      0.0000      0.0000      0.0000      0.0000      0.0000      0.0000      0.0000
 34      0.0000      0.0087      0.0000      0.0000      0.0000      0.0000      0.0000      0.0000      0.0000
 35      0.0000      0.0092      0.0000      0.0000      0.0000      0.0000      0.0000      0.0000      0.0000
 36      0.0000      0.0144      0.0000      0.0000      0.0003      0.0000      0.0000      0.0000      0.0000
 37      0.0000      0.0117      0.0000      0.0000      0.0000      0.0000      0.0000      0.0000      0.0000
 38      0.0000      0.0098      0.0000      0.0000      0.0000      0.0000      0.0000      0.0000      0.0000
 39      0.0000      0.0288      0.0000      0.0000      0.0000      0.0000      0.0000      0.0000      0.0000
 40      0.0000      0.0784      0.0252      0.0000      0.0000      0.0000      0.1903      0.0000      0.0000
 41      2.0652      1.4512      1.1380      1.0020      1.1059      1.4054      1.3762      1.4390      1.4595
 42      0.0000      0.1101      0.2683      0.5096      0.3179      0.0000      0.0000      0.0588      0.0000
 43      1.2568      0.4901      0.5241      0.7380      0.3964      0.3895      0.5385      0.6080      0.4649
 44      0.0000      0.1205      0.0000      0.0352      0.0333      0.0652      0.1735      0.0996      0.2541
 45      0.0000      0.3432      0.4036      0.2805      0.2720      0.3782      0.3629      0.2455      0.3386

# j      m_j: min, <> & last-chain-values for 1 ...  7 chains
  1  0.0000E+00  1.2908E-02  9.4924E-03  9.2103E-03  1.3436E-02  9.8175E-03  1.1583E-02  1.2278E-02  1.1809E-02
  2  7.7552E-02  6.6790E-02  7.0704E-02  6.9184E-02  6.9535E-02  6.7931E-02  6.8234E-02  6.9256E-02  6.9049E-02
  3  0.0000E+00  1.6149E-04  0.0000E+00  0.0000E+00  0.0000E+00  5.4974E-04  0.0000E+00  0.0000E+00  0.0000E+00
  4  2.9611E-02  3.2704E-02  3.1791E-02  3.0639E-02  3.1938E-02  3.2603E-02  3.4528E-02  3.2554E-02  3.2929E-02
  5  0.0000E+00  9.8667E-04  0.0000E+00  6.9146E-04  0.0000E+00  1.2808E-03  0.0000E+00  0.0000E+00  0.0000E+00
  6  0.0000E+00  9.7833E-04  0.0000E+00  0.0000E+00  0.0000E+00  0.0000E+00  0.0000E+00  0.0000E+00  0.0000E+00
  7  0.0000E+00  1.7834E-03  0.0000E+00  2.1873E-04  1.6928E-05  0.0000E+00  0.0000E+00  0.0000E+00  0.0000E+00
  8  0.0000E+00  1.4670E-03  0.0000E+00  0.0000E+00  0.0000E+00  0.0000E+00  0.0000E+00  0.0000E+00  0.0000E+00
  9  0.0000E+00  4.2754E-03  0.0000E+00  0.0000E+00  9.3065E-03  0.0000E+00  0.0000E+00  0.0000E+00  0.0000E+00
 10  0.0000E+00  1.1227E-02  1.0723E-02  0.0000E+00  0.0000E+00  0.0000E+00  0.0000E+00  0.0000E+00  2.0385E-02
 11  0.0000E+00  2.8449E-02  9.9859E-03  0.0000E+00  4.0122E-02  0.0000E+00  2.4583E-02  0.0000E+00  0.0000E+00
 12  4.5094E+01  4.8013E+01  4.8343E+01  4.8201E+01  4.8826E+01  4.8146E+01  4.8701E+01  4.7939E+01  4.7899E+01
 13  4.5509E+01  3.9154E+01  3.9593E+01  3.9603E+01  4.0514E+01  3.9233E+01  3.9076E+01  3.9860E+01  3.9413E+01
 14  0.0000E+00  2.2229E-01  0.0000E+00  8.4876E-02  1.0679E-01  0.0000E+00  0.0000E+00  3.1107E-01  0.0000E+00
 15  0.0000E+00  2.4797E-01  1.4009E-01  3.7237E-01  9.0388E-01  1.5845E+00  0.0000E+00  0.0000E+00  0.0000E+00
 16  0.0000E+00  4.2593E-05  0.0000E+00  0.0000E+00  0.0000E+00  2.8528E-04  0.0000E+00  0.0000E+00  0.0000E+00
 17  0.0000E+00  5.2586E-05  0.0000E+00  0.0000E+00  0.0000E+00  5.0549E-05  0.0000E+00  4.3464E-05  0.0000E+00
 18  0.0000E+00  1.8614E-04  0.0000E+00  1.2094E-03  1.1443E-04  0.0000E+00  0.0000E+00  0.0000E+00  0.0000E+00
 19  0.0000E+00  2.6807E-04  0.0000E+00  0.0000E+00  0.0000E+00  0.0000E+00  5.6853E-05  0.0000E+00  0.0000E+00
 20  0.0000E+00  2.6026E-04  0.0000E+00  0.0000E+00  0.0000E+00  1.4253E-04  0.0000E+00  0.0000E+00  0.0000E+00
 21  0.0000E+00  4.8038E-04  0.0000E+00  0.0000E+00  0.0000E+00  7.6008E-04  0.0000E+00  0.0000E+00  0.0000E+00
 22  0.0000E+00  8.4397E-04  0.0000E+00  0.0000E+00  0.0000E+00  3.4205E-04  0.0000E+00  0.0000E+00  0.0000E+00
 23  0.0000E+00  7.5410E-04  0.0000E+00  0.0000E+00  0.0000E+00  0.0000E+00  0.0000E+00  0.0000E+00  0.0000E+00
 24  0.0000E+00  3.2538E-03  0.0000E+00  0.0000E+00  0.0000E+00  0.0000E+00  0.0000E+00  0.0000E+00  0.0000E+00
 25  0.0000E+00  1.2225E-02  0.0000E+00  0.0000E+00  0.0000E+00  0.0000E+00  0.0000E+00  0.0000E+00  0.0000E+00
 26  0.0000E+00  9.3645E-02  0.0000E+00  0.0000E+00  5.3364E-02  0.0000E+00  0.0000E+00  1.6140E-01  0.0000E+00
 27  0.0000E+00  4.8965E-01  9.6538E-01  0.0000E+00  7.1545E-01  6.5729E-01  0.0000E+00  1.0091E+00  2.2519E-01
 28  0.0000E+00  1.4153E-01  0.0000E+00  1.3836E-03  0.0000E+00  0.0000E+00  0.0000E+00  0.0000E+00  7.2293E-02
 29  0.0000E+00  1.1543E-01  0.0000E+00  2.2638E-01  0.0000E+00  0.0000E+00  0.0000E+00  0.0000E+00  3.9377E-02
 30  0.0000E+00  1.7875E-01  3.7093E-02  5.3216E-01  0.0000E+00  1.8947E-01  0.0000E+00  6.4007E-01  0.0000E+00
 31  0.0000E+00  3.3228E-05  0.0000E+00  0.0000E+00  0.0000E+00  7.8642E-05  0.0000E+00  0.0000E+00  0.0000E+00
 32  0.0000E+00  6.2503E-05  0.0000E+00  0.0000E+00  0.0000E+00  0.0000E+00  0.0000E+00  0.0000E+00  0.0000E+00
 33  0.0000E+00  9.9961E-05  0.0000E+00  0.0000E+00  0.0000E+00  0.0000E+00  0.0000E+00  0.0000E+00  0.0000E+00
