###################################################################
## OUTPUT of StarlightChains_v04.for    [Cid@UFSC - 01/Apr/2007] ##
###################################################################

## Some input info
NGC2298_b_1.cxt                          [arq_obs]
Base.BC03.N                              [arq_base]
NGC2298_b_1.msk                          [arq_masks]
StCv04.C99.config                        [arq_config]
   45                                    [N_base]
    0                                    [N_YAV_components = # of components with extra extinction!]
    0                                    [i_FitPowerLaw (1/0 = Yes/No)]
-9.99                                    [alpha_PowerLaw]
CCM                                      [red_law_option]
 1.458241                                [q_norm = A(l_norm)/A(V)]

## (Re)Sampling Parameters
 3359.00                                 [l_ini (A)]
 6428.00                                 [l_fin (A)]
    1.00                                 [dl    (A)]     (OBS: dl_cushion =    50.00 A)

## Normalization info
 4020.00                                 [l_norm (A) - for base]
 4010.00                                 [llow_norm (A) - window for f_obs]
 4060.00                                 [lupp_norm (A) - window for f_obs]
6.358602E-15                             [fobs_norm (in input units)]

## S/N
 4730.00                                 [llow_SN (A) - window for S/N]
 4780.00                                 [lupp_SN (A) - window for S/N]
 100.550                                 [S/N in S/N window]
  93.926                                 [S/N in norm. window]
 257.092                                 [S/N_err in S/N window]
 240.154                                 [S/N_err in norm. window]
  1.0000                                 [fscale_chi2]

## etc...
  2147483643                             [idum_orig]
  3065                                   [NOl_eff]
   937                                   [Nl_eff]
  2128    NSIGMA                         [Ntot_cliped & clip_method]
  1608880                                [Nglobal_steps]
   7                                     [N_chains]
   7                                     [NEX0s_base = N_base in EX0s-fits]
 0   0   1      257   2.0   5.053E+02    [Clip-Bug, RC-Crash & Burn-In warning-flags, n_censored_weights, wei_nsig_threshold & wei_limit]
    24     24.383     24.379      0.004  [idt_all, wdt_TotTime, wdt_UsrTime & wdt_SysTime (sec)]

## Synthesis Results - Best model ##

 2.55805E+00                             [chi2/Nl_eff]
     0.63260                             [adev (%)]

   101.60336                             [sum-of-x (%)]
 3.07765E-14                             [Flux_tot (units of input spectrum!)]
 1.17744E-10                             [Mini_tot (???)]
 6.52880E-11                             [Mcor_tot (???)]

  -9.36                                  [v0_min  (km/s)]
 118.55                                  [vd_min  (km/s)]
 1.1623                                  [AV_min  (mag)]
 0.0000                                  [YAV_min (mag)]

# j     x_j(%)      Mini_j(%)     Mcor_j(%)     age_j(yr)     Z_j      (L/M)_j    YAV?  Mstars   component_j        a/Fe...       SSP_chi2r SSP_adev(%)   SSP_AV   SSP_x(%)
  1      0.0000     0.0000E+00    0.0000E+00    1.000000E+06  0.00400  1.114E-02    0   1.0000   age020_m42            0.0000     1.0237E+03     9.4553   3.6209    79.8711
  2     17.1597     1.0838E-01    1.9545E-01    3.160000E+06  0.00400  4.073E-02    0   0.9999   age045_m42            0.0000     1.5815E+02     3.8876   2.6926    93.1194
  3      0.0000     0.0000E+00    0.0000E+00    5.010000E+06  0.00400  2.534E-02    0   0.9488   age055_m42            0.0000     4.7536E+02     6.5923   3.0788    87.2216
  4     11.2691     2.2810E-01    3.6455E-01    1.000000E+07  0.00400  1.271E-02    0   0.8862   age070_m42            0.0000     4.0586E+02     6.6536   2.2889    90.8234
  5      0.0000     0.0000E+00    0.0000E+00    2.512000E+07  0.00400  5.070E-03    0   0.8174   age090_m42            0.0000     3.3824E+02     6.0272   2.1619    92.2749
  6      0.0000     0.0000E+00    0.0000E+00    4.000000E+07  0.00400  3.505E-03    0   0.7851   age104_m42            0.0000     1.6733E+02     4.1143   1.8544    94.9879
  7     21.7606     2.4683E+00    3.2082E+00    1.015200E+08  0.00400  2.268E-03    0   0.7207   age116_m42            0.0000     2.7439E+02     4.3037   1.9024   103.0975
  8      0.0000     0.0000E+00    0.0000E+00    2.861200E+08  0.00400  1.079E-03    0   0.6613   age125_m42            0.0000     3.5649E+02     5.2912   1.4155   104.8503
  9      0.0000     0.0000E+00    0.0000E+00    6.405400E+08  0.00400  5.077E-04    0   0.6197   age132_m42            0.0000     4.0947E+02     5.5917   1.0574   108.7016
 10     29.4700     2.1447E+01    2.3300E+01    9.047900E+08  0.00400  3.535E-04    0   0.6024   age135_m42            0.0000     2.4289E+02     4.6449   0.8144   107.9733
 11      0.0000     0.0000E+00    0.0000E+00    1.434000E+09  0.00400  1.910E-04    0   0.5716   age139_m42            0.0000     1.8798E+02     4.7505   0.2848   106.5370
 12     13.0231     3.4124E+01    3.3620E+01    2.500000E+09  0.00400  9.818E-05    0   0.5463   age150_m42            0.0000     2.4952E+02     4.5835  -0.0008   102.1325
 13      7.5972     4.1426E+01    3.9058E+01    5.000000E+09  0.00400  4.718E-05    0   0.5228   age161_m42            0.0000     3.6633E+02     5.0432  -0.1734    98.8883
 14      0.0000     0.0000E+00    0.0000E+00    1.100000E+10  0.00400  2.205E-05    0   0.4980   age185_m42            0.0000     6.5691E+02     6.5922  -0.4341    96.5848
 15      0.0000     0.0000E+00    0.0000E+00    1.300000E+10  0.00400  1.883E-05    0   0.4927   age193_m42            0.0000     7.0150E+02     6.7798  -0.4508    96.3941
 16      0.0000     0.0000E+00    0.0000E+00    1.000000E+06  0.02000  1.989E-02    0   1.0000   age020_m62            0.0000     1.0208E+03     9.4661   3.5825    80.5579
 17      0.0000     0.0000E+00    0.0000E+00    3.160000E+06  0.02000  3.772E-02    0   0.9858   age045_m62            0.0000     8.9750E+02     8.9332   3.4464    82.6727
 18      0.0000     0.0000E+00    0.0000E+00    5.010000E+06  0.02000  3.227E-02    0   0.9342   age055_m62            0.0000     2.8778E+02     5.1367   2.9476    89.8253
 19      0.0000     0.0000E+00    0.0000E+00    1.000000E+07  0.02000  1.011E-02    0   0.8751   age070_m62            0.0000     1.0971E+03    11.1079   2.2838    87.3909
 20      0.0000     0.0000E+00    0.0000E+00    2.512000E+07  0.02000  4.206E-03    0   0.8099   age090_m62            0.0000     7.5175E+02     8.8915   2.2254    88.2324
 21      0.0000     0.0000E+00    0.0000E+00    4.000000E+07  0.02000  3.373E-03    0   0.7799   age104_m62            0.0000     1.1302E+02     3.6003   2.0710    96.2813
 22      0.0000     0.0000E+00    0.0000E+00    1.015200E+08  0.02000  1.878E-03    0   0.7221   age116_m62            0.0000     1.8270E+02     3.1945   1.9202   103.5564
 23      0.0000     0.0000E+00    0.0000E+00    2.861200E+08  0.02000  8.869E-04    0   0.6700   age125_m62            0.0000     7.0500E+02     7.1222   1.4279   109.6960
 24      0.0000     0.0000E+00    0.0000E+00    6.405400E+08  0.02000  3.657E-04    0   0.6322   age132_m62            0.0000     5.5884E+02     7.3577   0.7537   112.6070
 25      0.0000     0.0000E+00    0.0000E+00    9.047900E+08  0.02000  2.312E-04    0   0.6152   age135_m62            0.0000     3.7300E+02     6.5880   0.3712   111.8281
 26      0.0000     0.0000E+00    0.0000E+00    1.434000E+09  0.02000  1.168E-04    0   0.5865   age139_m62            0.0000     3.1583E+02     5.5968  -0.0603   106.3387
 27      0.0000     0.0000E+00    0.0000E+00    2.500000E+09  0.02000  5.505E-05    0   0.5610   age150_m62            0.0000     5.6820E+02     6.7198  -0.4358   103.3932
 28      0.0000     0.0000E+00    0.0000E+00    5.000000E+09  0.02000  2.596E-05    0   0.5353   age161_m62            0.0000     1.0201E+03     8.8433  -0.7616   103.0377
 29      0.0000     0.0000E+00    0.0000E+00    1.100000E+10  0.02000  1.169E-05    0   0.5103   age185_m62            0.0000     1.5678E+03    10.6669  -1.0000   100.8285
 30      0.0000     0.0000E+00    0.0000E+00    1.300000E+10  0.02000  9.691E-06    0   0.5047   age193_m62            0.0000     1.7003E+03    11.0146  -1.0000    99.7324
 31      0.0000     0.0000E+00    0.0000E+00    1.000000E+06  0.05000  2.651E-02    0   0.9998   age020_m72            0.0000     9.4632E+02     9.0002   3.5875    81.3953
 32      0.0000     0.0000E+00    0.0000E+00    3.160000E+06  0.05000  4.817E-02    0   0.9577   age045_m72            0.0000     6.1441E+02     7.3004   3.3148    85.6968
 33      0.0000     0.0000E+00    0.0000E+00    5.010000E+06  0.05000  3.101E-02    0   0.9147   age055_m72            0.0000     5.5440E+02     7.0952   2.9476    88.3136
 34      0.0000     0.0000E+00    0.0000E+00    1.000000E+07  0.05000  8.954E-03    0   0.8524   age070_m72            0.0000     5.9760E+02     7.1337   3.1840    86.9529
 35      0.0000     0.0000E+00    0.0000E+00    2.512000E+07  0.05000  4.207E-03    0   0.7902   age090_m72            0.0000     2.2482E+02     4.4812   2.7643    92.1331
 36      0.0000     0.0000E+00    0.0000E+00    4.000000E+07  0.05000  3.198E-03    0   0.7618   age104_m72            0.0000     7.0973E+01     2.2383   2.2816    99.5200
 37      1.3236     1.9843E-01    2.5379E-01    1.015200E+08  0.05000  1.716E-03    0   0.7092   age116_m72            0.0000     2.6403E+02     3.9713   2.0089   103.6619
 38      0.0000     0.0000E+00    0.0000E+00    2.861200E+08  0.05000  7.047E-04    0   0.6618   age125_m72            0.0000     7.1662E+02     7.5879   1.2232   110.0215
 39      0.0000     0.0000E+00    0.0000E+00    6.405400E+08  0.05000  2.633E-04    0   0.6253   age132_m72            0.0000     4.9933E+02     7.4495   0.3701   112.1094
 40      0.0000     0.0000E+00    0.0000E+00    9.047900E+08  0.05000  1.484E-04    0   0.6088   age135_m72            0.0000     4.5483E+02     6.8785  -0.1218   107.1754
 41      0.0000     0.0000E+00    0.0000E+00    1.434000E+09  0.05000  7.827E-05    0   0.5847   age139_m72            0.0000     7.4020E+02     8.0502  -0.5163   103.6268
 42      0.0000     0.0000E+00    0.0000E+00    2.500000E+09  0.05000  3.759E-05    0   0.5583   age150_m72            0.0000     1.1001E+03     9.2923  -0.8383   102.6283
 43      0.0000     0.0000E+00    0.0000E+00    5.000000E+09  0.05000  1.548E-05    0   0.5320   age161_m72            0.0000     1.7259E+03    11.1651  -1.0000    95.2589
 44      0.0000     0.0000E+00    0.0000E+00    1.100000E+10  0.05000  6.532E-06    0   0.5070   age185_m72            0.0000     3.0663E+03    15.1734  -1.0000    84.5429
 45      0.0000     0.0000E+00    0.0000E+00    1.300000E+10  0.05000  5.316E-06    0   0.5018   age193_m72            0.0000     3.6302E+03    16.6043  -1.0000    81.3480


## Synthesis Results - Average & Chains ##

# j      x_j: min, <> & last-chain-values for 1 ...  7 chains
  1      0.0000      0.0074      0.0000      0.0000      0.0000      0.0000      0.0000      0.0000      0.0209
  2     17.1597     16.2311     16.3910     16.4525     16.3366     16.5238     16.1395     16.4033     16.3463
  3      0.0000      0.0515      0.0000      0.0000      0.0000      0.0000      0.1639      0.1458      0.1413
  4     11.2691     10.8295     10.9468     10.9472     10.7550     10.9390     10.7735     11.1338     10.8870
  5      0.0000      0.1064      0.2632      0.0317      0.0000      0.0625      0.1527      0.0324      0.0000
  6      0.0000      0.0570      0.0000      0.0000      0.0834      0.0900      0.0365      0.0000      0.0000
  7     21.7606     22.0702     22.1842     22.0556     22.1309     22.0595     22.1107     22.4704     22.2627
  8      0.0000      0.1171      0.1378      0.0102      0.0000      0.2169      0.0902      0.0713      0.2010
  9      0.0000      0.4088      0.2799      0.5209      0.6752      0.3213      0.5422      0.2316      0.4366
 10     29.4700     29.3332     29.2784     29.1758     29.3375     29.2414     29.3941     29.4631     29.2394
 11      0.0000      0.0295      0.0000      0.0000      0.0000      0.0000      0.0829      0.0000      0.0000
 12     13.0231     13.1635     12.9569     13.1293     13.0652     13.2528     12.9203     13.0304     12.9414
 13      7.5972      7.4890      7.4770      7.4802      7.2057      7.3887      7.5511      7.4904      7.4261
 14      0.0000      0.0061      0.0000      0.0000      0.0000      0.0000      0.0000      0.0000      0.0000
 15      0.0000      0.0036      0.0000      0.0000      0.0133      0.0000      0.0000      0.0000      0.0000
 16      0.0000      0.0091      0.0000      0.0000      0.0000      0.0000      0.0000      0.0000      0.0000
 17      0.0000      0.0120      0.0531      0.0000      0.0397      0.0110      0.0000      0.0000      0.0021
 18      0.0000      0.0811      0.0324      0.1698      0.5008      0.0077      0.1492      0.0000      0.0000
 19      0.0000      0.0882      0.0000      0.0684      0.0000      0.0625      0.0000      0.0000      0.0172
 20      0.0000      0.0381      0.0000      0.0000      0.0306      0.0260      0.0385      0.0000      0.0000
 21      0.0000      0.0866      0.1740      0.0000      0.0000      0.0544      0.2499      0.0000      0.2766
 22      0.0000      0.1270      0.2630      0.1930      0.0437      0.0000      0.0919      0.0617      0.1763
 23      0.0000      0.0332      0.0000      0.0241      0.0000      0.0270      0.0000      0.0574      0.0328
 24      0.0000      0.0148      0.0000      0.0000      0.0000      0.0000      0.0000      0.0000      0.0000
 25      0.0000      0.0166      0.0000      0.0000      0.0102      0.0000      0.0000      0.0000      0.0000
 26      0.0000      0.0178      0.0000      0.0000      0.1080      0.0000      0.0000      0.0000      0.0000
 27      0.0000      0.0186      0.0000      0.0012      0.0976      0.0000      0.0428      0.0000      0.0009
 28      0.0000      0.0055      0.0000      0.0297      0.0000      0.0000      0.0000      0.0000      0.0000
 29      0.0000      0.0034      0.0000      0.0000      0.0587      0.0000      0.0000      0.0000      0.0000
 30      0.0000      0.0025      0.0000      0.0000      0.0000      0.0000      0.0000      0.0000      0.0202
 31      0.0000      0.0106      0.0000      0.0000      0.0000      0.0000      0.0000      0.0000      0.0000
 32      0.0000      0.0362      0.0000      0.0000      0.0965      0.0204      0.0178      0.0321      0.0267
 33      0.0000      0.1238      0.1436      0.2613      0.0380      0.1590      0.2480      0.1547      0.0948
 34      0.0000      0.0239      0.0000      0.0055      0.0000      0.0000      0.0131      0.0000      0.1810
 35      0.0000      0.0364      0.0255      0.0000      0.0000      0.0844      0.0182      0.0000      0.0000
 36      0.0000      0.0489      0.0276      0.0000      0.1015      0.1998      0.0283      0.0000      0.0031
 37      1.3236      0.5174      0.6032      0.6992      0.5469      0.5606      0.4449      0.4454      0.4768
 38      0.0000      0.0358      0.0942      0.0715      0.0040      0.0148      0.0591      0.0000      0.0000
 39      0.0000      0.0179      0.0000      0.0000      0.0000      0.0000      0.0000      0.0000      0.0341
 40      0.0000      0.0128      0.0000      0.0000      0.0000      0.0000      0.0086      0.0000      0.0000
 41      0.0000      0.0126      0.0000      0.0000      0.0000      0.0000      0.0000      0.0341      0.0729
 42      0.0000      0.0061      0.0055      0.0000      0.0000      0.0000      0.0000      0.0000      0.0000
 43      0.0000      0.1267      0.1025      0.1159      0.1150      0.1363      0.1087      0.1435      0.1308
 44      0.0000      0.0485      0.0610      0.0519      0.0964      0.0000      0.0197      0.0732      0.0588
 45      0.0000      0.1986      0.1993      0.1938      0.2232      0.1967      0.2078      0.2138      0.2039

# j      m_j: min, <> & last-chain-values for 1 ...  7 chains
  1  0.0000E+00  2.7323E-04  0.0000E+00  0.0000E+00  0.0000E+00  0.0000E+00  0.0000E+00  0.0000E+00  7.7225E-04
  2  1.9545E-01  1.6359E-01  1.6685E-01  1.6698E-01  1.6118E-01  1.7059E-01  1.6471E-01  1.6391E-01  1.6488E-01
  3  0.0000E+00  7.9099E-04  0.0000E+00  0.0000E+00  0.0000E+00  0.0000E+00  2.5516E-03  2.2217E-03  2.1742E-03
  4  3.6455E-01  3.1000E-01  3.1648E-01  3.1556E-01  3.0136E-01  3.2075E-01  3.1227E-01  3.1599E-01  3.1188E-01
  5  0.0000E+00  7.0413E-03  1.7598E-02  2.1102E-03  0.0000E+00  4.2360E-03  1.0234E-02  2.1236E-03  0.0000E+00
  6  0.0000E+00  5.2434E-03  0.0000E+00  0.0000E+00  7.5084E-03  8.4813E-03  3.3985E-03  0.0000E+00  0.0000E+00
  7  3.2082E+00  2.8792E+00  2.9230E+00  2.8975E+00  2.8262E+00  2.9479E+00  2.9208E+00  2.9065E+00  2.9066E+00
  8  0.0000E+00  2.9476E-02  3.5011E-02  2.5723E-03  0.0000E+00  5.5917E-02  2.2981E-02  1.7789E-02  5.0607E-02
  9  0.0000E+00  2.0485E-01  1.4165E-01  2.6285E-01  3.3121E-01  1.6494E-01  2.7512E-01  1.1508E-01  2.1896E-01
 10  2.3300E+01  2.0522E+01  2.0688E+01  2.0555E+01  2.0092E+01  2.0956E+01  2.0823E+01  2.0437E+01  2.0472E+01
 11  0.0000E+00  3.6259E-02  0.0000E+00  0.0000E+00  0.0000E+00  0.0000E+00  1.0320E-01  0.0000E+00  0.0000E+00
 12  3.3620E+01  3.0071E+01  2.9894E+01  3.0203E+01  2.9216E+01  3.1012E+01  2.9887E+01  2.9513E+01  2.9586E+01
 13  3.9058E+01  3.4069E+01  3.4354E+01  3.4268E+01  3.2088E+01  3.4431E+01  3.4784E+01  3.3785E+01  3.3810E+01
 14  0.0000E+00  5.6539E-02  0.0000E+00  0.0000E+00  0.0000E+00  0.0000E+00  0.0000E+00  0.0000E+00  0.0000E+00
 15  0.0000E+00  3.9118E-02  0.0000E+00  0.0000E+00  1.3944E-01  0.0000E+00  0.0000E+00  0.0000E+00  0.0000E+00
 16  0.0000E+00  1.8868E-04  0.0000E+00  0.0000E+00  0.0000E+00  0.0000E+00  0.0000E+00  0.0000E+00  0.0000E+00
 17  0.0000E+00  1.2885E-04  5.7584E-04  0.0000E+00  4.1723E-04  1.2054E-04  0.0000E+00  0.0000E+00  2.2280E-05
 18  0.0000E+00  9.6390E-04  3.8880E-04  2.0320E-03  5.8265E-03  9.4273E-05  1.7956E-03  0.0000E+00  0.0000E+00
 19  0.0000E+00  3.1344E-03  0.0000E+00  2.4480E-03  0.0000E+00  2.2747E-03  0.0000E+00  0.0000E+00  6.1104E-04
 20  0.0000E+00  3.0149E-03  0.0000E+00  0.0000E+00  2.3651E-03  2.1061E-03  3.0788E-03  0.0000E+00  0.0000E+00
 21  0.0000E+00  8.2217E-03  1.6681E-02  0.0000E+00  0.0000E+00  5.2938E-03  2.4023E-02  0.0000E+00  2.6278E-02
 22  0.0000E+00  2.0054E-02  4.1934E-02  3.0686E-02  6.7489E-03  0.0000E+00  1.4693E-02  9.6492E-03  2.7853E-02
 23  0.0000E+00  1.0296E-02  0.0000E+00  7.5356E-03  0.0000E+00  8.5713E-03  0.0000E+00  1.7650E-02  1.0184E-02
 24  0.0000E+00  1.0520E-02  0.0000E+00  0.0000E+00  0.0000E+00  0.0000E+00  0.0000E+00  0.0000E+00  0.0000E+00
 25  0.0000E+00  1.8092E-02  0.0000E+00  0.0000E+00  1.0877E-02  0.0000E+00  0.0000E+00  0.0000E+00  0.0000E+00
 26  0.0000E+00  3.6673E-02  0.0000E+00  0.0000E+00  2.1792E-01  0.0000E+00  0.0000E+00  0.0000E+00  0.0000E+00
 27  0.0000E+00  7.7611E-02  0.0000E+00  5.1095E-03  3.9974E-01  0.0000E+00  1.8152E-01  0.0000E+00  3.6410E-03
 28  0.0000E+00  4.6961E-02  0.0000E+00  2.5278E-01  0.0000E+00  0.0000E+00  0.0000E+00  0.0000E+00  0.0000E+00
 29  0.0000E+00  6.0423E-02  0.0000E+00  0.0000E+00  1.0293E+00  0.0000E+00  0.0000E+00  0.0000E+00  0.0000E+00
 30  0.0000E+00  5.3831E-02  0.0000E+00  0.0000E+00  0.0000E+00  0.0000E+00  0.0000E+00  0.0000E+00  4.3216E-01
 31  0.0000E+00  1.6371E-04  0.0000E+00  0.0000E+00  0.0000E+00  0.0000E+00  0.0000E+00  0.0000E+00  0.0000E+00
 32  0.0000E+00  2.9555E-04  0.0000E+00  0.0000E+00  7.7100E-04  1.7092E-04  1.4675E-04  2.5947E-04  2.1771E-04
 33  0.0000E+00  1.4992E-03  1.7569E-03  3.1871E-03  4.5056E-04  1.9718E-03  3.0411E-03  1.8572E-03  1.1491E-03
