###################################################################
## OUTPUT of StarlightChains_v04.for    [Cid@UFSC - 01/Apr/2007] ##
###################################################################

## Some input info
NGC3201_b_1.cxt                          [arq_obs]
Base.BC03.N                              [arq_base]
NGC3201_b_1.msk                          [arq_masks]
StCv04.C99.config                        [arq_config]
   45                                    [N_base]
    0                                    [N_YAV_components = # of components with extra extinction!]
    0                                    [i_FitPowerLaw (1/0 = Yes/No)]
-9.99                                    [alpha_PowerLaw]
CCM                                      [red_law_option]
 1.458241                                [q_norm = A(l_norm)/A(V)]

## (Re)Sampling Parameters
 3359.00                                 [l_ini (A)]
 6428.00                                 [l_fin (A)]
    1.00                                 [dl    (A)]     (OBS: dl_cushion =    50.00 A)

## Normalization info
 4020.00                                 [l_norm (A) - for base]
 4010.00                                 [llow_norm (A) - window for f_obs]
 4060.00                                 [lupp_norm (A) - window for f_obs]
1.147975E-14                             [fobs_norm (in input units)]

## S/N
 4730.00                                 [llow_SN (A) - window for S/N]
 4780.00                                 [lupp_SN (A) - window for S/N]
  72.514                                 [S/N in S/N window]
  57.541                                 [S/N in norm. window]
  54.776                                 [S/N_err in S/N window]
  43.465                                 [S/N_err in norm. window]
  1.0000                                 [fscale_chi2]

## etc...
  2147483639                             [idum_orig]
  3058                                   [NOl_eff]
  1093                                   [Nl_eff]
  1965    NSIGMA                         [Ntot_cliped & clip_method]
   973280                                [Nglobal_steps]
   7                                     [N_chains]
   5                                     [NEX0s_base = N_base in EX0s-fits]
 0   0   1      371   2.0   8.117E+02    [Clip-Bug, RC-Crash & Burn-In warning-flags, n_censored_weights, wei_nsig_threshold & wei_limit]
    20     19.927     19.911      0.016  [idt_all, wdt_TotTime, wdt_UsrTime & wdt_SysTime (sec)]

## Synthesis Results - Best model ##

 2.12547E+00                             [chi2/Nl_eff]
     1.82697                             [adev (%)]

   106.07295                             [sum-of-x (%)]
 4.16513E-14                             [Flux_tot (units of input spectrum!)]
 2.85985E-10                             [Mini_tot (???)]
 1.56905E-10                             [Mcor_tot (???)]

 -11.59                                  [v0_min  (km/s)]
  85.64                                  [vd_min  (km/s)]
 0.9156                                  [AV_min  (mag)]
 0.0000                                  [YAV_min (mag)]

# j     x_j(%)      Mini_j(%)     Mcor_j(%)     age_j(yr)     Z_j      (L/M)_j    YAV?  Mstars   component_j        a/Fe...       SSP_chi2r SSP_adev(%)   SSP_AV   SSP_x(%)
  1      0.0000     0.0000E+00    0.0000E+00    1.000000E+06  0.00400  1.114E-02    0   1.0000   age020_m42            0.0000     4.5621E+02    17.5539   4.0000    75.5335
  2     23.2733     7.8456E-02    1.4298E-01    3.160000E+06  0.00400  4.073E-02    0   0.9999   age045_m42            0.0000     6.3294E+01     4.9986   3.3541    93.0220
  3      0.0000     0.0000E+00    0.0000E+00    5.010000E+06  0.00400  2.534E-02    0   0.9488   age055_m42            0.0000     1.3279E+02     7.5349   3.9689    85.5095
  4      0.0000     0.0000E+00    0.0000E+00    1.000000E+07  0.00400  1.271E-02    0   0.8862   age070_m42            0.0000     1.0256E+02     7.1257   3.1404    88.5949
  5      0.0000     0.0000E+00    0.0000E+00    2.512000E+07  0.00400  5.070E-03    0   0.8174   age090_m42            0.0000     9.2812E+01     6.3983   2.9727    90.7006
  6      0.0000     0.0000E+00    0.0000E+00    4.000000E+07  0.00400  3.505E-03    0   0.7851   age104_m42            0.0000     7.1674E+01     4.8050   2.5433    94.7574
  7     10.4516     6.3273E-01    8.3116E-01    1.015200E+08  0.00400  2.268E-03    0   0.7207   age116_m42            0.0000     5.5556E+02    11.3824   1.7302   107.4419
  8      0.0000     0.0000E+00    0.0000E+00    2.861200E+08  0.00400  1.079E-03    0   0.6613   age125_m42            0.0000     5.2702E+02    11.9274   1.1148   112.2936
  9      0.0000     0.0000E+00    0.0000E+00    6.405400E+08  0.00400  5.077E-04    0   0.6197   age132_m42            0.0000     5.4824E+02    13.0514   0.6720   117.6409
 10      0.0000     0.0000E+00    0.0000E+00    9.047900E+08  0.00400  3.535E-04    0   0.6024   age135_m42            0.0000     3.1066E+02    10.1263   0.5930   116.8827
 11      0.0000     0.0000E+00    0.0000E+00    1.434000E+09  0.00400  1.910E-04    0   0.5716   age139_m42            0.0000     8.2703E+01     6.5909   0.1643   117.2166
 12     70.1938     9.8165E+01    9.7745E+01    2.500000E+09  0.00400  9.818E-05    0   0.5463   age150_m42            0.0000     3.6169E+01     4.9447   0.1035   112.3276
 13      0.0002     6.0825E-04    5.7960E-04    5.000000E+09  0.00400  4.718E-05    0   0.5228   age161_m42            0.0000     1.0763E+02     5.2629   0.0000   108.3653
 14      0.0000     0.0000E+00    0.0000E+00    1.100000E+10  0.00400  2.205E-05    0   0.4980   age185_m42            0.0000     2.8605E+02     8.1456  -0.2211   107.6151
 15      0.0000     0.0000E+00    0.0000E+00    1.300000E+10  0.00400  1.883E-05    0   0.4927   age193_m42            0.0000     3.2307E+02     8.4737  -0.2322   107.6092
 16      0.0000     0.0000E+00    0.0000E+00    1.000000E+06  0.02000  1.989E-02    0   1.0000   age020_m62            0.0000     4.4249E+02    16.7919   4.0000    76.5665
 17      0.0000     0.0000E+00    0.0000E+00    3.160000E+06  0.02000  3.772E-02    0   0.9858   age045_m62            0.0000     3.2518E+02    14.3684   4.0000    78.9625
 18      0.0000     0.0000E+00    0.0000E+00    5.010000E+06  0.02000  3.227E-02    0   0.9342   age055_m62            0.0000     1.0559E+02     6.8425   3.7026    88.3926
 19      0.0000     0.0000E+00    0.0000E+00    1.000000E+07  0.02000  1.011E-02    0   0.8751   age070_m62            0.0000     2.3025E+02    10.3170   3.3555    84.0271
 20      0.0000     0.0000E+00    0.0000E+00    2.512000E+07  0.02000  4.206E-03    0   0.8099   age090_m62            0.0000     1.9545E+02     8.7996   3.2107    85.8295
 21      0.0000     0.0000E+00    0.0000E+00    4.000000E+07  0.02000  3.373E-03    0   0.7799   age104_m62            0.0000     1.1626E+02     5.8469   2.6689    96.1283
 22      0.0000     0.0000E+00    0.0000E+00    1.015200E+08  0.02000  1.878E-03    0   0.7221   age116_m62            0.0000     4.8767E+02    10.5615   1.8951   106.8981
 23      0.0000     0.0000E+00    0.0000E+00    2.861200E+08  0.02000  8.869E-04    0   0.6700   age125_m62            0.0000     9.3189E+02    16.5555   0.7559   119.5599
 24      0.0000     0.0000E+00    0.0000E+00    6.405400E+08  0.02000  3.657E-04    0   0.6322   age132_m62            0.0000     4.0107E+02    12.9160   0.1126   127.9425
 25      0.0000     0.0000E+00    0.0000E+00    9.047900E+08  0.02000  2.312E-04    0   0.6152   age135_m62            0.0000     1.6117E+02     9.3564  -0.0260   126.0993
 26      0.0000     0.0000E+00    0.0000E+00    1.434000E+09  0.02000  1.168E-04    0   0.5865   age139_m62            0.0000     3.8178E+01     5.8274  -0.0906   118.0555
 27      0.0000     0.0000E+00    0.0000E+00    2.500000E+09  0.02000  5.505E-05    0   0.5610   age150_m62            0.0000     1.6022E+02     7.2475  -0.3932   115.8438
 28      0.0000     0.0000E+00    0.0000E+00    5.000000E+09  0.02000  2.596E-05    0   0.5353   age161_m62            0.0000     4.6915E+02    10.2133  -0.8089   118.7669
 29      0.0000     0.0000E+00    0.0000E+00    1.100000E+10  0.02000  1.169E-05    0   0.5103   age185_m62            0.0000     8.9157E+02    16.6489  -1.0000   123.9918
 30      0.0000     0.0000E+00    0.0000E+00    1.300000E+10  0.02000  9.691E-06    0   0.5047   age193_m62            0.0000     9.9071E+02    18.0775  -1.0000   124.8478
 31      0.0000     0.0000E+00    0.0000E+00    1.000000E+06  0.05000  2.651E-02    0   0.9998   age020_m72            0.0000     4.1384E+02    16.2294   4.0000    77.5612
 32      0.0000     0.0000E+00    0.0000E+00    3.160000E+06  0.05000  4.817E-02    0   0.9577   age045_m72            0.0000     1.8903E+02    10.3712   4.0000    83.0022
 33      0.0000     0.0000E+00    0.0000E+00    5.010000E+06  0.05000  3.101E-02    0   0.9147   age055_m72            0.0000     1.4588E+02     8.6559   3.8566    86.0305
 34      0.0000     0.0000E+00    0.0000E+00    1.000000E+07  0.05000  8.954E-03    0   0.8524   age070_m72            0.0000     1.8780E+02     8.8533   4.0000    85.1885
 35      0.0000     0.0000E+00    0.0000E+00    2.512000E+07  0.05000  4.207E-03    0   0.7902   age090_m72            0.0000     1.0994E+02     6.0411   3.4582    91.8942
 36      0.0000     0.0000E+00    0.0000E+00    4.000000E+07  0.05000  3.198E-03    0   0.7618   age104_m72            0.0000     2.7914E+02     7.4551   2.4766   101.8981
 37      0.0000     0.0000E+00    0.0000E+00    1.015200E+08  0.05000  1.716E-03    0   0.7092   age116_m72            0.0000     5.8445E+02    11.7556   1.8855   107.5885
 38      0.0000     0.0000E+00    0.0000E+00    2.861200E+08  0.05000  7.047E-04    0   0.6618   age125_m72            0.0000     8.5385E+02    16.0760   0.4827   121.1222
 39      2.1541     1.1233E+00    1.2802E+00    6.405400E+08  0.05000  2.633E-04    0   0.6253   age132_m72            0.0000     2.5974E+02    10.9838  -0.1916   127.2672
 40      0.0000     0.0000E+00    0.0000E+00    9.047900E+08  0.05000  1.484E-04    0   0.6088   age135_m72            0.0000     6.3934E+01     7.6493  -0.3557   121.5926
 41      0.0000     0.0000E+00    0.0000E+00    1.434000E+09  0.05000  7.827E-05    0   0.5847   age139_m72            0.0000     2.0083E+02     8.5746  -0.6281   118.5142
 42      0.0000     0.0000E+00    0.0000E+00    2.500000E+09  0.05000  3.759E-05    0   0.5583   age150_m72            0.0000     4.9518E+02    10.6662  -0.9297   119.2406
 43      0.0000     0.0000E+00    0.0000E+00    5.000000E+09  0.05000  1.548E-05    0   0.5320   age161_m72            0.0000     8.8623E+02    19.2907  -1.0000   122.2421
 44      0.0000     0.0000E+00    0.0000E+00    1.100000E+10  0.05000  6.532E-06    0   0.5070   age185_m72            0.0000     1.4016E+03    32.3767  -1.0000   125.3935
 45      0.0000     0.0000E+00    0.0000E+00    1.300000E+10  0.05000  5.316E-06    0   0.5018   age193_m72            0.0000     1.6442E+03    36.8957  -1.0000   126.4185


## Synthesis Results - Average & Chains ##

# j      x_j: min, <> & last-chain-values for 1 ...  7 chains
  1      0.0000      0.0060      0.0000      0.0131      0.0000      0.0000      0.0000      0.0000      0.0000
  2     23.2733     23.2355     23.6765     23.7973     23.8091     23.5754     24.0967     24.1108     24.3015
  3      0.0000      0.0497      0.0003      0.0000      0.0000      0.0000      0.0000      0.0000      0.0000
  4      0.0000      0.2969      0.3611      0.1330      0.1765      0.0123      0.0000      0.1978      0.3354
  5      0.0000      0.0979      0.0474      0.0000      0.0530      0.0000      0.0507      0.0000      0.0272
  6      0.0000      0.0618      0.0000      0.0335      0.0000      0.0000      0.0000      0.0000      0.0000
  7     10.4516      7.0281      7.6198      7.3003      7.7136      7.9977      7.1640      7.9862      7.1023
  8      0.0000      0.0250      0.0000      0.0652      0.0836      0.0000      0.0000      0.0000      0.0000
  9      0.0000      0.0649      0.1172      0.0000      0.0000      0.3529      0.0000      0.0195      0.0120
 10      0.0000      0.2085      0.0000      0.2630      0.1899      0.0000      0.3224      0.7563      0.7262
 11      0.0000      0.0877      0.1331      0.0000      0.0000      0.0000      0.0000      0.0000      0.1292
 12     70.1938     65.6039     66.2461     66.0703     66.6183     67.0913     67.0327     66.1412     65.3964
 13      0.0002      0.4187      0.6690      0.5282      0.5670      0.3907      0.0326      0.8354      0.7531
 14      0.0000      0.0640      0.0000      0.0000      0.0000      0.0000      0.0000      0.0447      0.0000
 15      0.0000      0.0595      0.0000      0.0000      0.0000      0.0000      0.0000      0.0000      0.0000
 16      0.0000      0.0060      0.0000      0.0000      0.0000      0.0000      0.0000      0.0000      0.0000
 17      0.0000      0.0076      0.0000      0.0000      0.0000      0.0000      0.0000      0.0000      0.0000
 18      0.0000      0.1920      0.0000      0.3408      0.0000      0.2340      0.0729      0.0000      0.0000
 19      0.0000      0.0220      0.0000      0.0000      0.0000      0.0000      0.0000      0.0117      0.0000
 20      0.0000      0.0088      0.0000      0.0000      0.0000      0.0000      0.0000      0.0000      0.0000
 21      0.0000      0.0235      0.0000      0.0073      0.0000      0.0000      0.0000      0.0000      0.0000
 22      0.0000      0.0565      0.0000      0.0000      0.3236      0.0000      0.1147      0.0000      0.0000
 23      0.0000      0.0127      0.0000      0.0000      0.0000      0.0000      0.0000      0.0000      0.0000
 24      0.0000      0.0099      0.0000      0.0000      0.0000      0.0000      0.0000      0.0000      0.0000
 25      0.0000      0.0542      0.0000      0.0000      0.0000      0.1572      0.0000      0.0000      0.0000
 26      0.0000      0.0766      0.0000      0.0000      0.0000      0.0396      0.0000      0.0000      0.0726
 27      0.0000      0.0890      0.0000      0.0000      0.0000      0.0476      0.0179      0.0677      0.0000
 28      0.0000      0.0117      0.0375      0.0000      0.0000      0.0000      0.0000      0.0000      0.0000
 29      0.0000      0.0053      0.0000      0.0000      0.0000      0.0000      0.0000      0.0000      0.0000
 30      0.0000      0.0046      0.0000      0.0000      0.0000      0.0000      0.0000      0.0000      0.0000
 31      0.0000      0.0047      0.0000      0.0000      0.0000      0.0000      0.0000      0.0000      0.0000
 32      0.0000      0.0205      0.0015      0.0000      0.0000      0.0000      0.0000      0.0000      0.0000
 33      0.0000      0.0494      0.0000      0.0142      0.0000      0.0213      0.0000      0.0000      0.0000
 34      0.0000      0.0185      0.0000      0.0000      0.0000      0.0159      0.0000      0.0000      0.0000
 35      0.0000      0.0135      0.0000      0.0000      0.0659      0.0075      0.0000      0.0000      0.0000
 36      0.0000      0.0803      0.0929      0.0000      0.0000      0.0000      0.5139      0.0000      0.0089
 37      0.0000      0.0678      0.0000      0.0000      0.0323      0.0000      0.0000      0.0000      0.0000
 38      0.0000      0.0137      0.0000      0.0000      0.0000      0.0000      0.0620      0.0000      0.0000
 39      2.1541      8.4890      7.6164      8.0615      6.7437      6.6132      7.0310      6.2297      7.6373
 40      0.0000      0.0261      0.0000      0.0000      0.1069      0.0000      0.0000      0.0000      0.0000
 41      0.0000      0.0269      0.0000      0.0000      0.0000      0.0000      0.0000      0.0000      0.0000
 42      0.0000      0.0136      0.0000      0.0000      0.0000      0.0000      0.0000      0.0000      0.0000
 43      0.0000      0.0044      0.0000      0.0000      0.0000      0.0091      0.0000      0.0000      0.0000
 44      0.0000      0.0027      0.0000      0.0000      0.0000      0.0000      0.0000      0.0000      0.0000
 45      0.0000      0.0022      0.0000      0.0000      0.0000      0.0000      0.0000      0.0000      0.0000

# j      m_j: min, <> & last-chain-values for 1 ...  7 chains
  1  0.0000E+00  1.3409E-04  0.0000E+00  2.9680E-04  0.0000E+00  0.0000E+00  0.0000E+00  0.0000E+00  0.0000E+00
  2  1.4298E-01  1.4269E-01  1.4586E-01  1.4751E-01  1.4723E-01  1.4530E-01  1.5019E-01  1.4863E-01  1.5094E-01
  3  0.0000E+00  4.6588E-04  2.3687E-06  0.0000E+00  0.0000E+00  0.0000E+00  0.0000E+00  0.0000E+00  0.0000E+00
  4  0.0000E+00  5.1783E-03  6.3175E-03  2.3423E-03  3.1003E-03  2.1460E-04  0.0000E+00  3.4626E-03  5.9162E-03
  5  0.0000E+00  3.9501E-03  1.9189E-03  0.0000E+00  2.1513E-03  0.0000E+00  2.0745E-03  0.0000E+00  1.1087E-03
  6  0.0000E+00  3.4621E-03  0.0000E+00  1.8924E-03  0.0000E+00  0.0000E+00  0.0000E+00  0.0000E+00  0.0000E+00
  7  8.3116E-01  5.5865E-01  6.0764E-01  5.8573E-01  6.1742E-01  6.3803E-01  5.7796E-01  6.3725E-01  5.7100E-01
  8  0.0000E+00  3.8359E-03  0.0000E+00  1.0089E-02  1.2911E-02  0.0000E+00  0.0000E+00  0.0000E+00  0.0000E+00
  9  0.0000E+00  1.9830E-02  3.5908E-02  0.0000E+00  0.0000E+00  1.0813E-01  0.0000E+00  5.9646E-03  3.6906E-03
 10  0.0000E+00  8.8877E-02  0.0000E+00  1.1314E-01  8.1518E-02  0.0000E+00  1.3947E-01  3.2364E-01  3.1311E-01
 11  0.0000E+00  6.5628E-02  9.9962E-02  0.0000E+00  0.0000E+00  0.0000E+00  0.0000E+00  0.0000E+00  9.7842E-02
 12  9.7745E+01  9.1311E+01  9.2504E+01  9.2824E+01  9.3371E+01  9.3721E+01  9.4695E+01  9.2414E+01  9.2063E+01
 13  5.7960E-04  1.1606E+00  1.8602E+00  1.4778E+00  1.5826E+00  1.0868E+00  9.1808E-02  2.3244E+00  2.1114E+00
 14  0.0000E+00  3.6161E-01  0.0000E+00  0.0000E+00  0.0000E+00  0.0000E+00  0.0000E+00  2.5373E-01  0.0000E+00
 15  0.0000E+00  3.8955E-01  0.0000E+00  0.0000E+00  0.0000E+00  0.0000E+00  0.0000E+00  0.0000E+00  0.0000E+00
 16  0.0000E+00  7.5319E-05  0.0000E+00  0.0000E+00  0.0000E+00  0.0000E+00  0.0000E+00  0.0000E+00  0.0000E+00
 17  0.0000E+00  4.9748E-05  0.0000E+00  0.0000E+00  0.0000E+00  0.0000E+00  0.0000E+00  0.0000E+00  0.0000E+00
 18  0.0000E+00  1.3902E-03  0.0000E+00  2.4910E-03  0.0000E+00  1.7010E-03  5.3567E-04  0.0000E+00  0.0000E+00
 19  0.0000E+00  4.7589E-04  0.0000E+00  0.0000E+00  0.0000E+00  0.0000E+00  0.0000E+00  2.5473E-04  0.0000E+00
 20  0.0000E+00  4.2407E-04  0.0000E+00  0.0000E+00  0.0000E+00  0.0000E+00  0.0000E+00  0.0000E+00  0.0000E+00
 21  0.0000E+00  1.3601E-03  0.0000E+00  4.2460E-04  0.0000E+00  0.0000E+00  0.0000E+00  0.0000E+00  0.0000E+00
 22  0.0000E+00  5.4384E-03  0.0000E+00  0.0000E+00  3.1339E-02  0.0000E+00  1.1196E-02  0.0000E+00  0.0000E+00
 23  0.0000E+00  2.3925E-03  0.0000E+00  0.0000E+00  0.0000E+00  0.0000E+00  0.0000E+00  0.0000E+00  0.0000E+00
 24  0.0000E+00  4.2793E-03  0.0000E+00  0.0000E+00  0.0000E+00  0.0000E+00  0.0000E+00  0.0000E+00  0.0000E+00
 25  0.0000E+00  3.6088E-02  0.0000E+00  0.0000E+00  0.0000E+00  1.0503E-01  0.0000E+00  0.0000E+00  0.0000E+00
 26  0.0000E+00  9.6167E-02  0.0000E+00  0.0000E+00  0.0000E+00  4.9978E-02  0.0000E+00  0.0000E+00  9.2249E-02
 27  0.0000E+00  2.2676E-01  0.0000E+00  0.0000E+00  0.0000E+00  1.2182E-01  4.6416E-02  1.7331E-01  0.0000E+00
 28  0.0000E+00  6.0496E-02  1.9393E-01  0.0000E+00  0.0000E+00  0.0000E+00  0.0000E+00  0.0000E+00  0.0000E+00
 29  0.0000E+00  5.7901E-02  0.0000E+00  0.0000E+00  0.0000E+00  0.0000E+00  0.0000E+00  0.0000E+00  0.0000E+00
 30  0.0000E+00  6.0005E-02  0.0000E+00  0.0000E+00  0.0000E+00  0.0000E+00  0.0000E+00  0.0000E+00  0.0000E+00
 31  0.0000E+00  4.4075E-05  0.0000E+00  0.0000E+00  0.0000E+00  0.0000E+00  0.0000E+00  0.0000E+00  0.0000E+00
 32  0.0000E+00  1.0172E-04  7.4280E-06  0.0000E+00  0.0000E+00  0.0000E+00  0.0000E+00  0.0000E+00  0.0000E+00
 33  0.0000E+00  3.6439E-04  0.0000E+00  1.0571E-04  0.0000E+00  1.5761E-04  0.0000E+00  0.0000E+00  0.0000E+00
