###################################################################
## OUTPUT of StarlightChains_v04.for    [Cid@UFSC - 01/Apr/2007] ##
###################################################################

## Some input info
NGC3201_a_1.cxt                          [arq_obs]
Base.BC03.N                              [arq_base]
NGC3201_a_1.msk                          [arq_masks]
StCv04.C99.config                        [arq_config]
   45                                    [N_base]
    0                                    [N_YAV_components = # of components with extra extinction!]
    0                                    [i_FitPowerLaw (1/0 = Yes/No)]
-9.99                                    [alpha_PowerLaw]
CCM                                      [red_law_option]
 1.458241                                [q_norm = A(l_norm)/A(V)]

## (Re)Sampling Parameters
 3359.00                                 [l_ini (A)]
 6428.00                                 [l_fin (A)]
    1.00                                 [dl    (A)]     (OBS: dl_cushion =    50.00 A)

## Normalization info
 4020.00                                 [l_norm (A) - for base]
 4010.00                                 [llow_norm (A) - window for f_obs]
 4060.00                                 [lupp_norm (A) - window for f_obs]
1.250092E-14                             [fobs_norm (in input units)]

## S/N
 4730.00                                 [llow_SN (A) - window for S/N]
 4780.00                                 [lupp_SN (A) - window for S/N]
  72.417                                 [S/N in S/N window]
  61.465                                 [S/N in norm. window]
  55.763                                 [S/N_err in S/N window]
  47.330                                 [S/N_err in norm. window]
  1.0000                                 [fscale_chi2]

## etc...
  2147483640                             [idum_orig]
  3052                                   [NOl_eff]
  1192                                   [Nl_eff]
  1860    NSIGMA                         [Ntot_cliped & clip_method]
  1491280                                [Nglobal_steps]
   7                                     [N_chains]
  11                                     [NEX0s_base = N_base in EX0s-fits]
 0   0   1      371   2.0   8.843E+02    [Clip-Bug, RC-Crash & Burn-In warning-flags, n_censored_weights, wei_nsig_threshold & wei_limit]
    21     20.647     20.647      0.000  [idt_all, wdt_TotTime, wdt_UsrTime & wdt_SysTime (sec)]

## Synthesis Results - Best model ##

 2.12765E+00                             [chi2/Nl_eff]
     1.74610                             [adev (%)]

   109.01785                             [sum-of-x (%)]
 4.00306E-14                             [Flux_tot (units of input spectrum!)]
 3.00829E-10                             [Mini_tot (???)]
 1.63730E-10                             [Mcor_tot (???)]

 -13.48                                  [v0_min  (km/s)]
 101.98                                  [vd_min  (km/s)]
 0.8023                                  [AV_min  (mag)]
 0.0000                                  [YAV_min (mag)]

# j     x_j(%)      Mini_j(%)     Mcor_j(%)     age_j(yr)     Z_j      (L/M)_j    YAV?  Mstars   component_j        a/Fe...       SSP_chi2r SSP_adev(%)   SSP_AV   SSP_x(%)
  1      0.0000     0.0000E+00    0.0000E+00    1.000000E+06  0.00400  1.114E-02    0   1.0000   age020_m42            0.0000     5.2797E+02    10.2410   4.0000    72.6904
  2     13.6699     4.0966E-02    7.5262E-02    3.160000E+06  0.00400  4.073E-02    0   0.9999   age045_m42            0.0000     5.7069E+01     3.3899   3.1773    89.9390
  3      0.0000     0.0000E+00    0.0000E+00    5.010000E+06  0.00400  2.534E-02    0   0.9488   age055_m42            0.0000     1.8439E+02     5.3527   3.6624    81.7066
  4      0.3815     3.6637E-03    5.9654E-03    1.000000E+07  0.00400  1.271E-02    0   0.8862   age070_m42            0.0000     1.1073E+02     5.4746   2.8795    85.2236
  5      0.0000     0.0000E+00    0.0000E+00    2.512000E+07  0.00400  5.070E-03    0   0.8174   age090_m42            0.0000     1.0232E+02     5.2769   2.7384    87.2313
  6      0.0000     0.0000E+00    0.0000E+00    4.000000E+07  0.00400  3.505E-03    0   0.7851   age104_m42            0.0000     7.0566E+01     4.2794   2.3889    91.4385
  7     10.7769     5.8000E-01    7.6802E-01    1.015200E+08  0.00400  2.268E-03    0   0.7207   age116_m42            0.0000     3.8471E+02     5.6801   2.0924   109.4100
  8      0.0001     8.3157E-06    1.0104E-05    2.861200E+08  0.00400  1.079E-03    0   0.6613   age125_m42            0.0000     3.8715E+02     6.0003   1.5549   113.9101
  9      0.0000     0.0000E+00    0.0000E+00    6.405400E+08  0.00400  5.077E-04    0   0.6197   age132_m42            0.0000     4.1121E+02     6.2784   1.1679   119.3981
 10      8.6406     2.9835E+00    3.3022E+00    9.047900E+08  0.00400  3.535E-04    0   0.6024   age135_m42            0.0000     2.0233E+02     4.8184   0.9815   117.3504
 11      0.0000     0.0000E+00    0.0000E+00    1.434000E+09  0.00400  1.910E-04    0   0.5716   age139_m42            0.0000     2.8093E+01     3.3767   0.4925   116.3862
 12     50.0121     6.2177E+01    6.2409E+01    2.500000E+09  0.00400  9.818E-05    0   0.5463   age150_m42            0.0000     5.2070E+01     2.8595   0.2997   109.4351
 13      0.0000     0.0000E+00    0.0000E+00    5.000000E+09  0.00400  4.718E-05    0   0.5228   age161_m42            0.0000     1.6173E+02     3.4255   0.1808   104.5049
 14      0.0000     0.0000E+00    0.0000E+00    1.100000E+10  0.00400  2.205E-05    0   0.4980   age185_m42            0.0000     3.5482E+02     4.7170  -0.0729   102.7589
 15      3.7155     2.4085E+01    2.1803E+01    1.300000E+10  0.00400  1.883E-05    0   0.4927   age193_m42            0.0000     3.8773E+02     4.8782  -0.0861   102.5174
 16      0.0000     0.0000E+00    0.0000E+00    1.000000E+06  0.02000  1.989E-02    0   1.0000   age020_m62            0.0000     5.2345E+02     9.1532   4.0000    73.5263
 17      0.0000     0.0000E+00    0.0000E+00    3.160000E+06  0.02000  3.772E-02    0   0.9858   age045_m62            0.0000     3.8801E+02     6.0583   4.0000    75.8108
 18      0.0000     0.0000E+00    0.0000E+00    5.010000E+06  0.02000  3.227E-02    0   0.9342   age055_m62            0.0000     9.1767E+01     4.1420   3.4738    85.7228
 19      0.0000     0.0000E+00    0.0000E+00    1.000000E+07  0.02000  1.011E-02    0   0.8751   age070_m62            0.0000     3.1489E+02     9.2877   2.9941    78.9738
 20      0.0000     0.0000E+00    0.0000E+00    2.512000E+07  0.02000  4.206E-03    0   0.8099   age090_m62            0.0000     2.7478E+02     7.6310   2.8973    81.0956
 21      0.0000     0.0000E+00    0.0000E+00    4.000000E+07  0.02000  3.373E-03    0   0.7799   age104_m62            0.0000     6.6543E+01     4.0786   2.5611    93.8123
 22      0.0000     0.0000E+00    0.0000E+00    1.015200E+08  0.02000  1.878E-03    0   0.7221   age116_m62            0.0000     3.0694E+02     5.0410   2.1633   108.3608
 23      0.0000     0.0000E+00    0.0000E+00    2.861200E+08  0.02000  8.869E-04    0   0.6700   age125_m62            0.0000     7.7088E+02     8.2168   1.4634   122.6682
 24      0.0000     0.0000E+00    0.0000E+00    6.405400E+08  0.02000  3.657E-04    0   0.6322   age132_m62            0.0000     3.0582E+02     6.7217   0.7769   129.6073
 25      0.1324     6.9909E-02    7.9021E-02    9.047900E+08  0.02000  2.312E-04    0   0.6152   age135_m62            0.0000     8.3768E+01     5.0427   0.4836   126.3514
 26      0.0000     0.0000E+00    0.0000E+00    1.434000E+09  0.02000  1.168E-04    0   0.5865   age139_m62            0.0000     3.7742E+01     3.3947   0.1931   115.9156
 27      0.0000     0.0000E+00    0.0000E+00    2.500000E+09  0.02000  5.505E-05    0   0.5610   age150_m62            0.0000     2.1044E+02     4.3645  -0.1486   112.4422
 28      0.0000     0.0000E+00    0.0000E+00    5.000000E+09  0.02000  2.596E-05    0   0.5353   age161_m62            0.0000     5.5296E+02     6.0285  -0.5092   114.7699
 29      0.0000     0.0000E+00    0.0000E+00    1.100000E+10  0.02000  1.169E-05    0   0.5103   age185_m62            0.0000     9.4877E+02     7.3907  -0.9048   118.5409
 30      0.0000     0.0000E+00    0.0000E+00    1.300000E+10  0.02000  9.691E-06    0   0.5047   age193_m62            0.0000     1.0307E+03     7.5882  -0.9536   119.0483
 31      0.0000     0.0000E+00    0.0000E+00    1.000000E+06  0.05000  2.651E-02    0   0.9998   age020_m72            0.0000     5.0195E+02     8.9083   4.0000    74.5229
 32      0.0000     0.0000E+00    0.0000E+00    3.160000E+06  0.05000  4.817E-02    0   0.9577   age045_m72            0.0000     2.3757E+02     5.7959   3.9164    79.8331
 33      0.0000     0.0000E+00    0.0000E+00    5.010000E+06  0.05000  3.101E-02    0   0.9147   age055_m72            0.0000     1.9257E+02     5.7302   3.5551    82.1703
 34      0.0000     0.0000E+00    0.0000E+00    1.000000E+07  0.05000  8.954E-03    0   0.8524   age070_m72            0.0000     2.7336E+02     6.1809   3.7967    81.1262
 35      0.0000     0.0000E+00    0.0000E+00    2.512000E+07  0.05000  4.207E-03    0   0.7902   age090_m72            0.0000     1.1225E+02     4.4543   3.2834    88.8192
 36      0.0000     0.0000E+00    0.0000E+00    4.000000E+07  0.05000  3.198E-03    0   0.7618   age104_m72            0.0000     1.3971E+02     3.8440   2.5995   101.8922
 37      0.0012     8.2409E-05    1.0738E-04    1.015200E+08  0.05000  1.716E-03    0   0.7092   age116_m72            0.0000     3.9792E+02     5.7896   2.2144   109.3694
 38      0.0000     0.0000E+00    0.0000E+00    2.861200E+08  0.05000  7.047E-04    0   0.6618   age125_m72            0.0000     7.0882E+02     8.0937   1.2396   124.3647
 39     21.6867     1.0054E+01    1.1550E+01    6.405400E+08  0.05000  2.633E-04    0   0.6253   age132_m72            0.0000     1.6850E+02     5.8687   0.4265   128.5207
 40      0.0000     0.0000E+00    0.0000E+00    9.047900E+08  0.05000  1.484E-04    0   0.6088   age135_m72            0.0000     3.6924E+01     4.9743   0.0000   120.7167
 41      0.0000     0.0000E+00    0.0000E+00    1.434000E+09  0.05000  7.827E-05    0   0.5847   age139_m72            0.0000     2.4304E+02     5.3696  -0.2964   115.8626
 42      0.0000     0.0000E+00    0.0000E+00    2.500000E+09  0.05000  3.759E-05    0   0.5583   age150_m72            0.0000     5.7848E+02     6.3979  -0.6037   115.1124
 43      0.0009     6.7656E-03    6.6131E-03    5.000000E+09  0.05000  1.548E-05    0   0.5320   age161_m72            0.0000     9.2490E+02     8.4642  -1.0000   116.4528
 44      0.0000     0.0000E+00    0.0000E+00    1.100000E+10  0.05000  6.532E-06    0   0.5070   age185_m72            0.0000     1.3591E+03    24.0425  -1.0000   117.7400
 45      0.0000     0.0000E+00    0.0000E+00    1.300000E+10  0.05000  5.316E-06    0   0.5018   age193_m72            0.0000     1.5906E+03    29.3572  -1.0000   117.9642


## Synthesis Results - Average & Chains ##

# j      x_j: min, <> & last-chain-values for 1 ...  7 chains
  1      0.0000      0.0128      0.0000      0.0000      0.0000      0.0000      0.0235      0.0000      0.0000
  2     13.6699     12.3710     13.6808     12.2075     13.1287     12.2519     12.4913     12.9668     12.9211
  3      0.0000      0.0245      0.0000      0.0745      0.0000      0.0000      0.1148      0.0000      0.0428
  4      0.3815      0.4203      0.2577      1.0871      0.5895      1.1644      0.4227      0.4195      0.6001
  5      0.0000      0.1683      0.0000      0.2280      0.0000      0.2025      0.3941      0.3735      0.4517
  6      0.0000      0.0787      0.1595      0.0000      0.0000      0.2083      0.0712      0.0000      0.0000
  7     10.7769      7.9115      8.1200      9.2278      8.6316      8.6174      9.3939      8.0702      8.4150
  8      0.0001      0.1719      0.1410      0.0575      0.5492      0.0334      0.0000      0.1602      0.0022
  9      0.0000      0.3058      1.1673      0.4781      0.0000      0.3541      0.3435      0.4999      0.2792
 10      8.6406      0.9662      1.2918      0.8936      1.3993      1.4273      1.2761      1.0774      2.1166
 11      0.0000      0.2550      0.0000      0.0000      0.0219      0.5505      0.0000      0.0900      0.2773
 12     50.0121     49.1078     49.4810     49.5661     48.5909     48.5533     49.6885     49.1714     47.7402
 13      0.0000      0.2386      0.0000      0.9614      0.2872      0.0000      0.0052      0.0000      0.5781
 14      0.0000      0.1653      0.4650      0.4482      0.2336      0.6370      0.4327      0.1935      0.0000
 15      3.7155      0.2176      0.3882      0.0000      0.7136      0.0000      0.3020      0.4128      0.2678
 16      0.0000      0.0076      0.0000      0.0000      0.0000      0.0000      0.0000      0.0000      0.0000
 17      0.0000      0.0104      0.0000      0.0000      0.0000      0.0000      0.0000      0.0000      0.0000
 18      0.0000      0.1541      0.0000      0.0000      0.1923      0.3809      0.3079      0.0933      0.1750
 19      0.0000      0.0562      0.0000      0.0000      0.2777      0.0000      0.0000      0.2212      0.0000
 20      0.0000      0.0179      0.0000      0.0000      0.0000      0.0000      0.0000      0.0000      0.0000
 21      0.0000      0.0669      0.0000      0.0000      0.0385      0.0000      0.0000      0.0000      0.0000
 22      0.0000      0.5725      0.8477      0.2829      0.2194      0.5422      0.5301      0.4924      0.5072
 23      0.0000      0.0655      0.0000      0.0000      0.0000      0.0000      0.0000      0.0000      0.1266
 24      0.0000      0.0395      0.0000      0.0000      0.0000      0.0153      0.0000      0.0000      0.0000
 25      0.1324      9.0343      6.1706      7.0573      7.9784      7.9364      7.7914      8.6433      9.0680
 26      0.0000      0.1187      0.0000      0.0000      0.0000      0.1660      0.2320      0.0000      0.0238
 27      0.0000      0.0977      0.2343      0.0000      0.1048      0.4955      0.0000      0.0107      0.2694
 28      0.0000      0.0299      0.0000      0.0000      0.0027      0.0064      0.0365      0.0200      0.0000
 29      0.0000      0.0397      0.0000      0.0000      0.0793      0.0000      0.0000      0.0000      0.0000
 30      0.0000      0.0371      0.0000      0.0000      0.0000      0.0000      0.0000      0.0000      0.0000
 31      0.0000      0.0177      0.0000      0.0000      0.0000      0.0000      0.0000      0.0000      0.0000
 32      0.0000      0.0114      0.0000      0.0597      0.0000      0.0000      0.0000      0.0000      0.0000
 33      0.0000      0.0333      0.0000      0.0000      0.0000      0.0515      0.0000      0.0401      0.0000
 34      0.0000      0.0117      0.0000      0.0000      0.0000      0.0000      0.0000      0.0000      0.0000
 35      0.0000      0.0421      0.0000      0.0000      0.0000      0.0000      0.0000      0.0000      0.0000
 36      0.0000      0.3479      0.0704      0.1962      0.0000      0.0549      0.2204      0.3842      0.5016
 37      0.0012      0.6269      0.5939      0.7718      0.9327      0.2064      0.4889      0.5747      0.5807
 38      0.0000      0.0792      0.0000      0.2518      0.0000      0.0000      0.0000      0.0000      0.0000
 39     21.6867     25.1088     25.5106     24.9004     25.0997     25.2824     24.3043     25.0620     23.6405
 40      0.0000      0.0790      0.1983      0.0000      0.0013      0.0685      0.0000      0.1328      0.0000
 41      0.0000      0.0408      0.0636      0.0000      0.0000      0.0000      0.1034      0.0000      0.0000
 42      0.0000      0.0277      0.0000      0.0000      0.0000      0.0000      0.0510      0.0000      0.0000
 43      0.0009      0.3978      0.3868      0.3587      0.4095      0.1797      0.0000      0.3708      0.4430
 44      0.0000      0.5582      0.5326      0.6056      0.3163      0.4904      0.7024      0.4549      0.7925
 45      0.0000      0.4809      0.4866      0.4836      0.3814      0.3844      0.4586      0.4195      0.4133

# j      m_j: min, <> & last-chain-values for 1 ...  7 chains
  1  0.0000E+00  2.3750E-04  0.0000E+00  0.0000E+00  0.0000E+00  0.0000E+00  4.3828E-04  0.0000E+00  0.0000E+00
  2  7.5262E-02  6.2635E-02  6.9320E-02  6.1706E-02  6.9468E-02  6.5299E-02  6.3835E-02  6.8262E-02  6.5203E-02
  3  0.0000E+00  1.8890E-04  0.0000E+00  5.7435E-04  0.0000E+00  0.0000E+00  8.9493E-04  0.0000E+00  3.2935E-04
  4  5.9654E-03  6.0431E-03  3.7084E-03  1.5606E-02  8.8587E-03  1.7625E-02  6.1355E-03  6.2727E-03  8.6009E-03
  5  0.0000E+00  5.5950E-03  0.0000E+00  7.5688E-03  0.0000E+00  7.0888E-03  1.3227E-02  1.2911E-02  1.4969E-02
  6  0.0000E+00  3.6352E-03  7.3727E-03  0.0000E+00  0.0000E+00  1.0129E-02  3.3213E-03  0.0000E+00  0.0000E+00
  7  7.6802E-01  5.1848E-01  5.3256E-01  6.0376E-01  5.9119E-01  5.9449E-01  6.2139E-01  5.4992E-01  5.4966E-01
  8  1.0104E-05  2.1726E-02  1.7834E-02  7.2618E-03  7.2549E-02  4.4442E-03  0.0000E+00  2.1049E-02  2.7704E-04
  9  0.0000E+00  7.6969E-02  2.9408E-01  1.2014E-01  0.0000E+00  9.3827E-02  8.7291E-02  1.3086E-01  7.0050E-02
 10  3.3022E+00  3.3958E-01  4.5435E-01  3.1353E-01  5.1397E-01  5.2806E-01  4.5269E-01  3.9371E-01  7.4142E-01
 11  0.0000E+00  1.5739E-01  0.0000E+00  0.0000E+00  1.4148E-02  3.5768E-01  0.0000E+00  5.7780E-02  1.7059E-01
 12  6.2409E+01  5.6354E+01  5.6826E+01  5.6787E+01  5.8275E+01  5.8653E+01  5.7554E+01  5.8671E+01  5.4604E+01
 13  0.0000E+00  5.4526E-01  0.0000E+00  2.1936E+00  6.8589E-01  0.0000E+00  1.1935E-02  0.0000E+00  1.3168E+00
 14  0.0000E+00  7.7018E-01  2.1675E+00  2.0845E+00  1.1369E+00  3.1233E+00  2.0344E+00  9.3735E-01  0.0000E+00
 15  2.1803E+01  1.1744E+00  2.0966E+00  0.0000E+00  4.0244E+00  0.0000E+00  1.6451E+00  2.3161E+00  1.4406E+00
 16  0.0000E+00  7.8405E-05  0.0000E+00  0.0000E+00  0.0000E+00  0.0000E+00  0.0000E+00  0.0000E+00  0.0000E+00
 17  0.0000E+00  5.6091E-05  0.0000E+00  0.0000E+00  0.0000E+00  0.0000E+00  0.0000E+00  0.0000E+00  0.0000E+00
 18  0.0000E+00  9.1984E-04  0.0000E+00  0.0000E+00  1.1997E-03  2.3942E-03  1.8555E-03  5.7929E-04  1.0416E-03
 19  0.0000E+00  1.0036E-03  0.0000E+00  0.0000E+00  5.1807E-03  0.0000E+00  0.0000E+00  4.1064E-03  0.0000E+00
 20  0.0000E+00  7.1031E-04  0.0000E+00  0.0000E+00  0.0000E+00  0.0000E+00  0.0000E+00  0.0000E+00  0.0000E+00
 21  0.0000E+00  3.1905E-03  0.0000E+00  0.0000E+00  1.9177E-03  0.0000E+00  0.0000E+00  0.0000E+00  0.0000E+00
 22  0.0000E+00  4.5401E-02  6.7273E-02  2.2393E-02  1.8181E-02  4.5265E-02  4.2427E-02  4.0598E-02  4.0091E-02
 23  0.0000E+00  1.0203E-02  0.0000E+00  0.0000E+00  0.0000E+00  0.0000E+00  0.0000E+00  0.0000E+00  1.9652E-02
 24  0.0000E+00  1.4099E-02  0.0000E+00  0.0000E+00  0.0000E+00  5.7408E-03  0.0000E+00  0.0000E+00  0.0000E+00
 25  7.9021E-02  4.9578E+00  3.3889E+00  3.8665E+00  4.5758E+00  4.5847E+00  4.3157E+00  4.9319E+00  4.9598E+00
 26  0.0000E+00  1.2292E-01  0.0000E+00  0.0000E+00  0.0000E+00  1.8100E-01  2.4246E-01  0.0000E+00  2.4615E-02
 27  0.0000E+00  2.0531E-01  4.9271E-01  0.0000E+00  2.3017E-01  1.0964E+00  0.0000E+00  2.3351E-02  5.6434E-01
 28  0.0000E+00  1.2735E-01  0.0000E+00  0.0000E+00  1.2073E-02  2.8619E-02  1.5681E-01  8.8286E-02  0.0000E+00
 29  0.0000E+00  3.5751E-01  0.0000E+00  0.0000E+00  7.4635E-01  0.0000E+00  0.0000E+00  0.0000E+00  0.0000E+00
 30  0.0000E+00  3.9816E-01  0.0000E+00  0.0000E+00  0.0000E+00  0.0000E+00  0.0000E+00  0.0000E+00  0.0000E+00
 31  0.0000E+00  1.3729E-04  0.0000E+00  0.0000E+00  0.0000E+00  0.0000E+00  0.0000E+00  0.0000E+00  0.0000E+00
 32  0.0000E+00  4.6630E-05  0.0000E+00  2.4423E-04  0.0000E+00  0.0000E+00  0.0000E+00  0.0000E+00  0.0000E+00
 33  0.0000E+00  2.0244E-04  0.0000E+00  0.0000E+00  0.0000E+00  3.3000E-04  0.0000E+00  2.5375E-04  0.0000E+00
