###################################################################
## OUTPUT of StarlightChains_v04.for    [Cid@UFSC - 01/Apr/2007] ##
###################################################################

## Some input info
NGC5286_b_1.cxt                          [arq_obs]
Base.BC03.N                              [arq_base]
NGC5286_b_1.msk                          [arq_masks]
StCv04.C99.config                        [arq_config]
   45                                    [N_base]
    0                                    [N_YAV_components = # of components with extra extinction!]
    0                                    [i_FitPowerLaw (1/0 = Yes/No)]
-9.99                                    [alpha_PowerLaw]
CCM                                      [red_law_option]
 1.458241                                [q_norm = A(l_norm)/A(V)]

## (Re)Sampling Parameters
 3359.00                                 [l_ini (A)]
 6428.00                                 [l_fin (A)]
    1.00                                 [dl    (A)]     (OBS: dl_cushion =    50.00 A)

## Normalization info
 4020.00                                 [l_norm (A) - for base]
 4010.00                                 [llow_norm (A) - window for f_obs]
 4060.00                                 [lupp_norm (A) - window for f_obs]
1.497078E-14                             [fobs_norm (in input units)]

## S/N
 4730.00                                 [llow_SN (A) - window for S/N]
 4780.00                                 [lupp_SN (A) - window for S/N]
 111.377                                 [S/N in S/N window]
  94.497                                 [S/N in norm. window]
  66.783                                 [S/N_err in S/N window]
  56.662                                 [S/N_err in norm. window]
  1.0000                                 [fscale_chi2]

## etc...
  2147483637                             [idum_orig]
  3067                                   [NOl_eff]
  2053                                   [Nl_eff]
  1014    NSIGMA                         [Ntot_cliped & clip_method]
  1370600                                [Nglobal_steps]
   7                                     [N_chains]
   8                                     [NEX0s_base = N_base in EX0s-fits]
 0   0   1      308   2.0   8.976E+02    [Clip-Bug, RC-Crash & Burn-In warning-flags, n_censored_weights, wei_nsig_threshold & wei_limit]
    21     21.643     21.643      0.000  [idt_all, wdt_TotTime, wdt_UsrTime & wdt_SysTime (sec)]

## Synthesis Results - Best model ##

 2.33930E+00                             [chi2/Nl_eff]
     1.86211                             [adev (%)]

   102.64981                             [sum-of-x (%)]
 5.91020E-14                             [Flux_tot (units of input spectrum!)]
 4.62942E-10                             [Mini_tot (???)]
 2.49071E-10                             [Mcor_tot (???)]

 -15.98                                  [v0_min  (km/s)]
 116.49                                  [vd_min  (km/s)]
 1.0029                                  [AV_min  (mag)]
 0.0000                                  [YAV_min (mag)]

# j     x_j(%)      Mini_j(%)     Mcor_j(%)     age_j(yr)     Z_j      (L/M)_j    YAV?  Mstars   component_j        a/Fe...       SSP_chi2r SSP_adev(%)   SSP_AV   SSP_x(%)
  1      0.0000     0.0000E+00    0.0000E+00    1.000000E+06  0.00400  1.114E-02    0   1.0000   age020_m42            0.0000     2.2565E+02    14.9211   4.0000    68.8921
  2      2.7386     8.3623E-03    1.5541E-02    3.160000E+06  0.00400  4.073E-02    0   0.9999   age045_m42            0.0000     2.9354E+01     4.2197   3.1467    88.8563
  3      0.0000     0.0000E+00    0.0000E+00    5.010000E+06  0.00400  2.534E-02    0   0.9488   age055_m42            0.0000     7.0434E+01     7.5778   3.6825    78.1646
  4     14.2156     1.3910E-01    2.2913E-01    1.000000E+07  0.00400  1.271E-02    0   0.8862   age070_m42            0.0000     5.6469E+01     7.6752   2.8750    82.6464
  5      0.0000     0.0000E+00    0.0000E+00    2.512000E+07  0.00400  5.070E-03    0   0.8174   age090_m42            0.0000     5.2024E+01     7.1980   2.7333    84.6604
  6      0.0000     0.0000E+00    0.0000E+00    4.000000E+07  0.00400  3.505E-03    0   0.7851   age104_m42            0.0000     3.6070E+01     5.2871   2.3592    89.8702
  7     25.2405     1.3841E+00    1.8541E+00    1.015200E+08  0.00400  2.268E-03    0   0.7207   age116_m42            0.0000     1.1478E+02     8.7062   1.8302   121.5324
  8      0.0000     0.0000E+00    0.0000E+00    2.861200E+08  0.00400  1.079E-03    0   0.6613   age125_m42            0.0000     1.1743E+02     9.6927   1.2898   126.2965
  9      0.0000     0.0000E+00    0.0000E+00    6.405400E+08  0.00400  5.077E-04    0   0.6197   age132_m42            0.0000     1.3564E+02    10.3814   0.8870   132.9949
 10      9.1556     3.2212E+00    3.6066E+00    9.047900E+08  0.00400  3.535E-04    0   0.6024   age135_m42            0.0000     7.2055E+01     7.9654   0.7783   125.8782
 11      0.0000     0.0000E+00    0.0000E+00    1.434000E+09  0.00400  1.910E-04    0   0.5716   age139_m42            0.0000     3.2245E+01     5.8689   0.3927   117.8462
 12     30.1117     3.8144E+01    3.8732E+01    2.500000E+09  0.00400  9.818E-05    0   0.5463   age150_m42            0.0000     2.2229E+01     4.0082   0.2883   105.3605
 13     20.0347     5.2813E+01    5.1319E+01    5.000000E+09  0.00400  4.718E-05    0   0.5228   age161_m42            0.0000     3.4515E+01     4.0226   0.2051    98.5124
 14      0.0000     0.0000E+00    0.0000E+00    1.100000E+10  0.00400  2.205E-05    0   0.4980   age185_m42            0.0000     6.7673E+01     5.3154  -0.0236    95.1055
 15      0.0000     0.0000E+00    0.0000E+00    1.300000E+10  0.00400  1.883E-05    0   0.4927   age193_m42            0.0000     7.4134E+01     5.4653  -0.0327    94.6490
 16      0.0000     0.0000E+00    0.0000E+00    1.000000E+06  0.02000  1.989E-02    0   1.0000   age020_m62            0.0000     2.1515E+02    14.1404   4.0000    69.3960
 17      0.0000     0.0000E+00    0.0000E+00    3.160000E+06  0.02000  3.772E-02    0   0.9858   age045_m62            0.0000     1.4469E+02    10.8955   4.0000    71.5653
 18      0.6195     2.3877E-03    4.1459E-03    5.010000E+06  0.02000  3.227E-02    0   0.9342   age055_m62            0.0000     4.2788E+01     5.7795   3.4701    83.4493
 19      0.0000     0.0000E+00    0.0000E+00    1.000000E+07  0.02000  1.011E-02    0   0.8751   age070_m62            0.0000     1.4487E+02    12.6157   3.0399    74.4375
 20      0.0000     0.0000E+00    0.0000E+00    2.512000E+07  0.02000  4.206E-03    0   0.8099   age090_m62            0.0000     1.1836E+02    10.5061   2.9284    76.9963
 21      0.0000     0.0000E+00    0.0000E+00    4.000000E+07  0.02000  3.373E-03    0   0.7799   age104_m62            0.0000     3.3180E+01     4.4275   2.5159    93.6912
 22      0.0000     0.0000E+00    0.0000E+00    1.015200E+08  0.02000  1.878E-03    0   0.7221   age116_m62            0.0000     8.1024E+01     6.8482   1.9490   118.2314
 23      0.0000     0.0000E+00    0.0000E+00    2.861200E+08  0.02000  8.869E-04    0   0.6700   age125_m62            0.0000     2.4864E+02    13.9396   1.0766   143.1500
 24      0.0000     0.0000E+00    0.0000E+00    6.405400E+08  0.02000  3.657E-04    0   0.6322   age132_m62            0.0000     1.3974E+02    11.8134   0.5428   139.8998
 25      0.0000     0.0000E+00    0.0000E+00    9.047900E+08  0.02000  2.312E-04    0   0.6152   age135_m62            0.0000     7.5335E+01     8.8699   0.3438   130.0936
 26      0.0000     0.0000E+00    0.0000E+00    1.434000E+09  0.02000  1.168E-04    0   0.5865   age139_m62            0.0000     3.5286E+01     5.2251   0.1733   112.2246
 27      0.0000     0.0000E+00    0.0000E+00    2.500000E+09  0.02000  5.505E-05    0   0.5610   age150_m62            0.0000     6.4555E+01     5.6541  -0.1145   105.4437
 28      0.0000     0.0000E+00    0.0000E+00    5.000000E+09  0.02000  2.596E-05    0   0.5353   age161_m62            0.0000     1.2722E+02     7.2931  -0.4231   104.3702
 29      0.0000     0.0000E+00    0.0000E+00    1.100000E+10  0.02000  1.169E-05    0   0.5103   age185_m62            0.0000     2.0565E+02     8.9746  -0.7919   105.9183
 30      0.0000     0.0000E+00    0.0000E+00    1.300000E+10  0.02000  9.691E-06    0   0.5047   age193_m62            0.0000     2.2220E+02     9.2343  -0.8371   106.0924
 31      0.0000     0.0000E+00    0.0000E+00    1.000000E+06  0.05000  2.651E-02    0   0.9998   age020_m72            0.0000     2.0507E+02    13.6873   4.0000    70.5008
 32      0.0000     0.0000E+00    0.0000E+00    3.160000E+06  0.05000  4.817E-02    0   0.9577   age045_m72            0.0000     8.7910E+01     8.2652   3.9503    75.7377
 33      0.0000     0.0000E+00    0.0000E+00    5.010000E+06  0.05000  3.101E-02    0   0.9147   age055_m72            0.0000     7.9095E+01     8.1390   3.5816    78.5965
 34      0.0000     0.0000E+00    0.0000E+00    1.000000E+07  0.05000  8.954E-03    0   0.8524   age070_m72            0.0000     9.6475E+01     8.3536   3.8397    76.7939
 35      0.0000     0.0000E+00    0.0000E+00    2.512000E+07  0.05000  4.207E-03    0   0.7902   age090_m72            0.0000     4.7656E+01     5.4047   3.2881    86.3841
 36      0.0000     0.0000E+00    0.0000E+00    4.000000E+07  0.05000  3.198E-03    0   0.7618   age104_m72            0.0000     3.5871E+01     4.3455   2.4744   106.7583
 37      0.0000     0.0000E+00    0.0000E+00    1.015200E+08  0.05000  1.716E-03    0   0.7092   age116_m72            0.0000     1.0627E+02     8.1613   1.9691   121.3961
 38      0.0000     0.0000E+00    0.0000E+00    2.861200E+08  0.05000  7.047E-04    0   0.6618   age125_m72            0.0000     2.4780E+02    14.3633   0.8601   144.0013
 39      0.0000     0.0000E+00    0.0000E+00    6.405400E+08  0.05000  2.633E-04    0   0.6253   age132_m72            0.0000     1.1399E+02    10.6687   0.2398   135.2473
 40      0.0000     0.0000E+00    0.0000E+00    9.047900E+08  0.05000  1.484E-04    0   0.6088   age135_m72            0.0000     5.9667E+01     7.2544   0.0000   117.7054
 41      0.0000     0.0000E+00    0.0000E+00    1.434000E+09  0.05000  7.827E-05    0   0.5847   age139_m72            0.0000     9.0105E+01     7.0618  -0.2584   108.2393
 42      0.0000     0.0000E+00    0.0000E+00    2.500000E+09  0.05000  3.759E-05    0   0.5583   age150_m72            0.0000     1.4100E+02     7.7717  -0.5174   104.6850
 43      0.5336     4.2874E+00    4.2395E+00    5.000000E+09  0.05000  1.548E-05    0   0.5320   age161_m72            0.0000     1.9900E+02     9.2241  -0.9338   104.5064
 44      0.0000     0.0000E+00    0.0000E+00    1.100000E+10  0.05000  6.532E-06    0   0.5070   age185_m72            0.0000     3.5160E+02    14.4917  -1.0000   102.4172
 45      0.0000     0.0000E+00    0.0000E+00    1.300000E+10  0.05000  5.316E-06    0   0.5018   age193_m72            0.0000     4.6413E+02    17.5420  -1.0000   101.2779


## Synthesis Results - Average & Chains ##

# j      x_j: min, <> & last-chain-values for 1 ...  7 chains
  1      0.0000      0.0038      0.0077      0.0000      0.0000      0.0088      0.0000      0.0000      0.0000
  2      2.7386      3.9160      3.8330      3.9305      4.1611      3.8688      4.0118      4.0930      3.9486
  3      0.0000      0.1426      0.0000      0.2305      0.0000      0.0000      0.0000      0.1366      0.0732
  4     14.2156     11.7393     12.1684     11.9061     12.0931     12.1582     12.1133     11.9092     12.5210
  5      0.0000      0.2635      0.2340      0.4763      0.2808      0.2941      0.3068      0.0431      0.0897
  6      0.0000      0.0246      0.0311      0.0000      0.0144      0.0000      0.0000      0.0010      0.0005
  7     25.2405     24.2520     24.6531     24.1241     24.3599     24.1565     24.1856     24.3168     24.1565
  8      0.0000      0.0172      0.0000      0.0411      0.0000      0.0000      0.0000      0.0000      0.0000
  9      0.0000      0.0501      0.0000      0.0677      0.0526      0.0000      0.0057      0.0000      0.0532
 10      9.1556     11.1812     10.8635     11.1908     11.1199     11.2831     11.0544     11.1352     11.4096
 11      0.0000      0.0558      0.0000      0.0498      0.0183      0.0000      0.0000      0.0000      0.0000
 12     30.1117     28.9007     29.2408     28.9093     29.0390     29.1376     28.5255     29.0311     29.0832
 13     20.0347     19.0120     18.9914     19.2385     18.8301     19.3399     19.2140     19.2821     18.8389
 14      0.0000      0.0350      0.0000      0.0214      0.0000      0.0000      0.0000      0.0000      0.0000
 15      0.0000      0.0329      0.0000      0.0068      0.0000      0.0000      0.0000      0.0000      0.0665
 16      0.0000      0.0034      0.0000      0.0000      0.0000      0.0000      0.0000      0.0000      0.0000
 17      0.0000      0.0096      0.0000      0.0000      0.0000      0.0000      0.0000      0.0000      0.0000
 18      0.6195      0.7750      1.1061      0.7991      0.8663      0.8353      1.0364      0.8871      0.7767
 19      0.0000      0.1396      0.0000      0.0812      0.1377      0.0452      0.0000      0.0000      0.0000
 20      0.0000      0.0069      0.0000      0.0000      0.0000      0.0226      0.0039      0.0000      0.0000
 21      0.0000      0.0173      0.0000      0.0000      0.0000      0.0000      0.0000      0.0000      0.0000
 22      0.0000      0.0245      0.0000      0.0000      0.0000      0.0000      0.0095      0.0000      0.0000
 23      0.0000      0.0095      0.0000      0.0000      0.0000      0.0000      0.0000      0.0000      0.0000
 24      0.0000      0.0090      0.0000      0.0000      0.0081      0.0000      0.0000      0.0000      0.0000
 25      0.0000      0.0180      0.0000      0.0000      0.0000      0.0000      0.0000      0.0000      0.0000
 26      0.0000      0.0619      0.0000      0.0804      0.0000      0.0000      0.1093      0.0000      0.2249
 27      0.0000      0.0595      0.0000      0.0000      0.0000      0.0000      0.0000      0.0000      0.0000
 28      0.0000      0.0309      0.0676      0.0000      0.1397      0.1337      0.0000      0.0000      0.0000
 29      0.0000      0.0237      0.0000      0.0000      0.0000      0.0000      0.0000      0.0000      0.0000
 30      0.0000      0.0455      0.0000      0.0000      0.0000      0.0000      0.0000      0.1510      0.0000
 31      0.0000      0.0035      0.0021      0.0000      0.0000      0.0029      0.0000      0.0000      0.0000
 32      0.0000      0.0198      0.0000      0.0000      0.0000      0.0000      0.0000      0.0100      0.0000
 33      0.0000      0.1544      0.0253      0.0000      0.1128      0.0824      0.0810      0.1850      0.1438
 34      0.0000      0.0066      0.0000      0.0000      0.0000      0.0000      0.0000      0.0000      0.0000
 35      0.0000      0.0092      0.0000      0.0000      0.0000      0.0000      0.0000      0.0000      0.0000
 36      0.0000      0.0354      0.0174      0.0000      0.0000      0.0000      0.0000      0.0000      0.0000
 37      0.0000      0.0390      0.0000      0.0000      0.0000      0.0241      0.1699      0.0307      0.0000
 38      0.0000      0.0121      0.0024      0.0013      0.0000      0.0000      0.0000      0.0000      0.0000
 39      0.0000      0.0215      0.0000      0.0000      0.0000      0.0000      0.0000      0.0142      0.0000
 40      0.0000      0.0670      0.0000      0.0793      0.0313      0.0000      0.0000      0.0000      0.0000
 41      0.0000      0.2010      0.0000      0.5133      0.1433      0.2024      0.5989      0.3512      0.2260
 42      0.0000      0.2572      0.3238      0.0000      0.2361      0.2764      0.0000      0.3885      0.0000
 43      0.5336      0.7611      0.7458      0.7387      0.7231      0.8211      0.9173      0.7477      0.8342
 44      0.0000      0.3265      0.4259      0.1830      0.2931      0.3245      0.2816      0.2195      0.2958
 45      0.0000      0.2881      0.2449      0.3513      0.2911      0.0000      0.3355      0.1089      0.2788

# j      m_j: min, <> & last-chain-values for 1 ...  7 chains
  1  0.0000E+00  6.9477E-05  1.4210E-04  0.0000E+00  0.0000E+00  1.6853E-04  0.0000E+00  0.0000E+00  0.0000E+00
  2  1.5541E-02  1.9597E-02  1.9262E-02  2.0100E-02  2.1248E-02  2.0375E-02  2.0126E-02  2.1279E-02  2.0141E-02
  3  0.0000E+00  1.0885E-03  0.0000E+00  1.7978E-03  0.0000E+00  0.0000E+00  0.0000E+00  1.0835E-03  5.6943E-04
  4  2.2913E-01  1.6685E-01  1.7367E-01  1.7293E-01  1.7539E-01  1.8186E-01  1.7260E-01  1.7585E-01  1.8140E-01
  5  0.0000E+00  8.6584E-03  7.7210E-03  1.5995E-02  9.4149E-03  1.0173E-02  1.0108E-02  1.4713E-03  3.0056E-03
  6  0.0000E+00  1.1211E-03  1.4279E-03  0.0000E+00  6.7120E-04  0.0000E+00  0.0000E+00  4.5105E-05  2.4229E-05
  7  1.8541E+00  1.5709E+00  1.6036E+00  1.5969E+00  1.6101E+00  1.6467E+00  1.5706E+00  1.6364E+00  1.5949E+00
  8  0.0000E+00  2.1538E-03  0.0000E+00  5.2481E-03  0.0000E+00  0.0000E+00  0.0000E+00  0.0000E+00  0.0000E+00
  9  0.0000E+00  1.2473E-02  0.0000E+00  1.7206E-02  1.3356E-02  0.0000E+00  1.4259E-03  0.0000E+00  1.3489E-02
 10  3.6066E+00  3.8841E+00  3.7894E+00  3.9726E+00  3.9415E+00  4.1247E+00  3.8496E+00  4.0185E+00  4.0398E+00
 11  0.0000E+00  3.4059E-02  0.0000E+00  3.1040E-02  1.1378E-02  0.0000E+00  0.0000E+00  0.0000E+00  0.0000E+00
 12  3.8732E+01  3.2781E+01  3.3305E+01  3.3509E+01  3.3609E+01  3.4780E+01  3.2436E+01  3.4209E+01  3.3624E+01
 13  5.1319E+01  4.2944E+01  4.3077E+01  4.4408E+01  4.3401E+01  4.5973E+01  4.3510E+01  4.5249E+01  4.3374E+01
 14  0.0000E+00  1.6135E-01  0.0000E+00  1.0066E-01  0.0000E+00  0.0000E+00  0.0000E+00  0.0000E+00  0.0000E+00
 15  0.0000E+00  1.7544E-01  0.0000E+00  3.7252E-02  0.0000E+00  0.0000E+00  0.0000E+00  0.0000E+00  3.6153E-01
 16  0.0000E+00  3.4602E-05  0.0000E+00  0.0000E+00  0.0000E+00  0.0000E+00  0.0000E+00  0.0000E+00  0.0000E+00
 17  0.0000E+00  5.1396E-05  0.0000E+00  0.0000E+00  0.0000E+00  0.0000E+00  0.0000E+00  0.0000E+00  0.0000E+00
 18  4.1459E-03  4.5737E-03  6.5547E-03  4.8191E-03  5.2167E-03  5.1873E-03  6.1314E-03  5.4385E-03  4.6721E-03
 19  0.0000E+00  2.4640E-03  0.0000E+00  1.4650E-03  2.4788E-03  8.3844E-04  0.0000E+00  0.0000E+00  0.0000E+00
 20  0.0000E+00  2.6979E-04  0.0000E+00  0.0000E+00  0.0000E+00  9.3200E-04  1.5167E-04  0.0000E+00  0.0000E+00
 21  0.0000E+00  8.1599E-04  0.0000E+00  0.0000E+00  0.0000E+00  0.0000E+00  0.0000E+00  0.0000E+00  0.0000E+00
 22  0.0000E+00  1.9182E-03  0.0000E+00  0.0000E+00  0.0000E+00  0.0000E+00  7.4371E-04  0.0000E+00  0.0000E+00
 23  0.0000E+00  1.4574E-03  0.0000E+00  0.0000E+00  0.0000E+00  0.0000E+00  0.0000E+00  0.0000E+00  0.0000E+00
 24  0.0000E+00  3.1705E-03  0.0000E+00  0.0000E+00  2.8962E-03  0.0000E+00  0.0000E+00  0.0000E+00  0.0000E+00
 25  0.0000E+00  9.7376E-03  0.0000E+00  0.0000E+00  0.0000E+00  0.0000E+00  0.0000E+00  0.0000E+00  0.0000E+00
 26  0.0000E+00  6.3371E-02  0.0000E+00  8.4091E-02  0.0000E+00  0.0000E+00  1.1213E-01  0.0000E+00  2.3461E-01
 27  0.0000E+00  1.2363E-01  0.0000E+00  0.0000E+00  0.0000E+00  0.0000E+00  0.0000E+00  0.0000E+00  0.0000E+00
 28  0.0000E+00  1.2990E-01  2.8548E-01  0.0000E+00  5.9906E-01  5.9153E-01  0.0000E+00  0.0000E+00  0.0000E+00
 29  0.0000E+00  2.1075E-01  0.0000E+00  0.0000E+00  0.0000E+00  0.0000E+00  0.0000E+00  0.0000E+00  0.0000E+00
 30  0.0000E+00  4.8307E-01  0.0000E+00  0.0000E+00  0.0000E+00  0.0000E+00  0.0000E+00  1.6658E+00  0.0000E+00
 31  0.0000E+00  2.6729E-05  1.6238E-05  0.0000E+00  0.0000E+00  2.3537E-05  0.0000E+00  0.0000E+00  0.0000E+00
 32  0.0000E+00  8.0144E-05  0.0000E+00  0.0000E+00  0.0000E+00  0.0000E+00  0.0000E+00  4.2248E-05  0.0000E+00
 33  0.0000E+00  9.2857E-04  1.5287E-04  0.0000E+00  6.9187E-04  5.2142E-04  4.8847E-04  1.1558E-03  8.8162E-04
