###################################################################
## OUTPUT of StarlightChains_v04.for    [Cid@UFSC - 01/Apr/2007] ##
###################################################################

## Some input info
NGC5927_a_1.cxt                          [arq_obs]
Base.BC03.N                              [arq_base]
NGC5927_a_1.msk                          [arq_masks]
StCv04.C99.config                        [arq_config]
   45                                    [N_base]
    0                                    [N_YAV_components = # of components with extra extinction!]
    0                                    [i_FitPowerLaw (1/0 = Yes/No)]
-9.99                                    [alpha_PowerLaw]
CCM                                      [red_law_option]
 1.458241                                [q_norm = A(l_norm)/A(V)]

## (Re)Sampling Parameters
 3359.00                                 [l_ini (A)]
 6428.00                                 [l_fin (A)]
    1.00                                 [dl    (A)]     (OBS: dl_cushion =    50.00 A)

## Normalization info
 4020.00                                 [l_norm (A) - for base]
 4010.00                                 [llow_norm (A) - window for f_obs]
 4060.00                                 [lupp_norm (A) - window for f_obs]
6.245917E-15                             [fobs_norm (in input units)]

## S/N
 4730.00                                 [llow_SN (A) - window for S/N]
 4780.00                                 [lupp_SN (A) - window for S/N]
  32.311                                 [S/N in S/N window]
  18.790                                 [S/N in norm. window]
  40.662                                 [S/N_err in S/N window]
  23.646                                 [S/N_err in norm. window]
  1.0000                                 [fscale_chi2]

## etc...
  2147483633                             [idum_orig]
  3068                                   [NOl_eff]
  1615                                   [Nl_eff]
  1453    NSIGMA                         [Ntot_cliped & clip_method]
  1727320                                [Nglobal_steps]
   7                                     [N_chains]
  11                                     [NEX0s_base = N_base in EX0s-fits]
 0   0   1      209   2.0   5.155E+02    [Clip-Bug, RC-Crash & Burn-In warning-flags, n_censored_weights, wei_nsig_threshold & wei_limit]
    23     22.940     22.928      0.012  [idt_all, wdt_TotTime, wdt_UsrTime & wdt_SysTime (sec)]

## Synthesis Results - Best model ##

 1.74570E+00                             [chi2/Nl_eff]
     1.84363                             [adev (%)]

   101.71034                             [sum-of-x (%)]
 3.37116E-14                             [Flux_tot (units of input spectrum!)]
 1.91346E-09                             [Mini_tot (???)]
 9.78638E-10                             [Mcor_tot (???)]

  14.13                                  [v0_min  (km/s)]
  58.49                                  [vd_min  (km/s)]
 1.2426                                  [AV_min  (mag)]
 0.0000                                  [YAV_min (mag)]

# j     x_j(%)      Mini_j(%)     Mcor_j(%)     age_j(yr)     Z_j      (L/M)_j    YAV?  Mstars   component_j        a/Fe...       SSP_chi2r SSP_adev(%)   SSP_AV   SSP_x(%)
  1      3.8537     5.9922E-03    1.1716E-02    1.000000E+06  0.00400  1.114E-02    0   1.0000   age020_m42            0.0000     1.2312E+03    35.6163   4.0000    85.9128
  2     14.0562     5.9779E-03    1.1687E-02    3.160000E+06  0.00400  4.073E-02    0   0.9999   age045_m42            0.0000     3.6005E+02    13.5499   4.0000    95.8226
  3      0.5947     4.0655E-04    7.5420E-04    5.010000E+06  0.00400  2.534E-02    0   0.9488   age055_m42            0.0000     6.2943E+02    23.0944   4.0000    92.2114
  4      6.0473     8.2416E-03    1.4280E-02    1.000000E+07  0.00400  1.271E-02    0   0.8862   age070_m42            0.0000     2.9904E+02     9.3677   4.0000    91.3415
  5      0.0000     0.0000E+00    0.0000E+00    2.512000E+07  0.00400  5.070E-03    0   0.8174   age090_m42            0.0000     2.7143E+02     9.3262   3.9845    91.8336
  6      0.0000     0.0000E+00    0.0000E+00    4.000000E+07  0.00400  3.505E-03    0   0.7851   age104_m42            0.0000     2.4676E+02     7.7370   3.6387    94.4568
  7      0.0000     0.0000E+00    0.0000E+00    1.015200E+08  0.00400  2.268E-03    0   0.7207   age116_m42            0.0000     5.8454E+02     8.9387   3.5263   101.1387
  8      0.0000     0.0000E+00    0.0000E+00    2.861200E+08  0.00400  1.079E-03    0   0.6613   age125_m42            0.0000     5.9927E+02     9.8652   2.9978   103.0294
  9      0.0000     0.0000E+00    0.0000E+00    6.405400E+08  0.00400  5.077E-04    0   0.6197   age132_m42            0.0000     6.0660E+02    10.1649   2.6415   106.7752
 10      0.0000     0.0000E+00    0.0000E+00    9.047900E+08  0.00400  3.535E-04    0   0.6024   age135_m42            0.0000     4.5034E+02     8.9576   2.4058   106.5971
 11      0.0000     0.0000E+00    0.0000E+00    1.434000E+09  0.00400  1.910E-04    0   0.5716   age139_m42            0.0000     2.5192E+02     7.2068   1.8626   106.3243
 12      0.0000     0.0000E+00    0.0000E+00    2.500000E+09  0.00400  9.818E-05    0   0.5463   age150_m42            0.0000     9.7296E+01     4.7757   1.6015   102.8299
 13      0.0000     0.0000E+00    0.0000E+00    5.000000E+09  0.00400  4.718E-05    0   0.5228   age161_m42            0.0000     4.2528E+01     3.4374   1.4471   100.1929
 14      0.4909     3.8567E-01    3.7553E-01    1.100000E+10  0.00400  2.205E-05    0   0.4980   age185_m42            0.0000     2.8399E+01     3.6393   1.1625    98.6250
 15      4.1673     3.8335E+00    3.6930E+00    1.300000E+10  0.00400  1.883E-05    0   0.4927   age193_m42            0.0000     2.8391E+01     3.6720   1.1447    98.5249
 16      0.0000     0.0000E+00    0.0000E+00    1.000000E+06  0.02000  1.989E-02    0   1.0000   age020_m62            0.0000     1.1842E+03    34.7875   4.0000    86.5919
 17      0.0000     0.0000E+00    0.0000E+00    3.160000E+06  0.02000  3.772E-02    0   0.9858   age045_m62            0.0000     1.0339E+03    31.9216   4.0000    88.5978
 18      0.0000     0.0000E+00    0.0000E+00    5.010000E+06  0.02000  3.227E-02    0   0.9342   age055_m62            0.0000     5.2685E+02    19.6344   4.0000    94.2431
 19      0.0000     0.0000E+00    0.0000E+00    1.000000E+07  0.02000  1.011E-02    0   0.8751   age070_m62            0.0000     3.8297E+02    12.2782   4.0000    89.1205
 20      0.0000     0.0000E+00    0.0000E+00    2.512000E+07  0.02000  4.206E-03    0   0.8099   age090_m62            0.0000     3.2286E+02    10.6026   4.0000    89.1209
 21      0.0000     0.0000E+00    0.0000E+00    4.000000E+07  0.02000  3.373E-03    0   0.7799   age104_m62            0.0000     3.1213E+02     7.9061   3.8351    95.2486
 22      0.0000     0.0000E+00    0.0000E+00    1.015200E+08  0.02000  1.878E-03    0   0.7221   age116_m62            0.0000     5.5949E+02     8.5503   3.5661   101.5319
 23      0.0000     0.0000E+00    0.0000E+00    2.861200E+08  0.02000  8.869E-04    0   0.6700   age125_m62            0.0000     8.3958E+02    11.7117   2.9919   107.0967
 24      0.0000     0.0000E+00    0.0000E+00    6.405400E+08  0.02000  3.657E-04    0   0.6322   age132_m62            0.0000     5.9592E+02    11.2339   2.2706   110.9075
 25      0.0000     0.0000E+00    0.0000E+00    9.047900E+08  0.02000  2.312E-04    0   0.6152   age135_m62            0.0000     3.7147E+02     9.5492   1.8965   110.9208
 26      0.0000     0.0000E+00    0.0000E+00    1.434000E+09  0.02000  1.168E-04    0   0.5865   age139_m62            0.0000     1.3240E+02     6.2020   1.5004   106.7336
 27      0.0000     0.0000E+00    0.0000E+00    2.500000E+09  0.02000  5.505E-05    0   0.5610   age150_m62            0.0000     5.0832E+01     5.1432   1.1241   104.8559
 28     20.7723     1.3860E+01    1.4507E+01    5.000000E+09  0.02000  2.596E-05    0   0.5353   age161_m62            0.0000     5.3322E+01     6.3584   0.7489   105.5515
 29     33.9479     5.0303E+01    5.0190E+01    1.100000E+10  0.02000  1.169E-05    0   0.5103   age185_m62            0.0000     9.9884E+01     8.4340   0.3212   107.7098
 30     17.5054     3.1289E+01    3.0877E+01    1.300000E+10  0.02000  9.691E-06    0   0.5047   age193_m62            0.0000     1.1165E+02     8.8096   0.2643   108.0443
 31      0.0000     0.0000E+00    0.0000E+00    1.000000E+06  0.05000  2.651E-02    0   0.9998   age020_m72            0.0000     1.1625E+03    34.5157   4.0000    87.5049
 32      0.0000     0.0000E+00    0.0000E+00    3.160000E+06  0.05000  4.817E-02    0   0.9577   age045_m72            0.0000     8.5530E+02    28.0685   4.0000    91.7810
 33      0.0000     0.0000E+00    0.0000E+00    5.010000E+06  0.05000  3.101E-02    0   0.9147   age055_m72            0.0000     5.8767E+02    20.2123   4.0000    93.2401
 34      0.0000     0.0000E+00    0.0000E+00    1.000000E+07  0.05000  8.954E-03    0   0.8524   age070_m72            0.0000     7.2035E+02    25.1284   4.0000    92.7193
 35      0.0000     0.0000E+00    0.0000E+00    2.512000E+07  0.05000  4.207E-03    0   0.7902   age090_m72            0.0000     4.0352E+02    15.0213   4.0000    95.7675
 36      0.0000     0.0000E+00    0.0000E+00    4.000000E+07  0.05000  3.198E-03    0   0.7618   age104_m72            0.0000     4.4144E+02     7.2577   3.9569    98.2174
 37      0.0000     0.0000E+00    0.0000E+00    1.015200E+08  0.05000  1.716E-03    0   0.7092   age116_m72            0.0000     6.2541E+02     9.1286   3.6437   101.4800
 38      0.0000     0.0000E+00    0.0000E+00    2.861200E+08  0.05000  7.047E-04    0   0.6618   age125_m72            0.0000     7.9723E+02    11.6142   2.7649   107.9354
 39      0.0000     0.0000E+00    0.0000E+00    6.405400E+08  0.05000  2.633E-04    0   0.6253   age132_m72            0.0000     4.5040E+02    10.6129   1.8668   111.1906
 40      0.0000     0.0000E+00    0.0000E+00    9.047900E+08  0.05000  1.484E-04    0   0.6088   age135_m72            0.0000     1.8570E+02     8.0046   1.3867   107.4688
 41      0.0000     0.0000E+00    0.0000E+00    1.434000E+09  0.05000  7.827E-05    0   0.5847   age139_m72            0.0000     7.9303E+01     6.5573   0.9951   105.2983
 42      0.0000     0.0000E+00    0.0000E+00    2.500000E+09  0.05000  3.759E-05    0   0.5583   age150_m72            0.0000     6.6329E+01     6.8704   0.6654   105.1613
 43      0.2744     3.0708E-01    3.1942E-01    5.000000E+09  0.05000  1.548E-05    0   0.5320   age161_m72            0.0000     1.0416E+02     8.6300   0.2062   105.2519
 44      0.0002     5.2857E-04    5.2397E-04    1.100000E+10  0.05000  6.532E-06    0   0.5070   age185_m72            0.0000     1.8272E+02    12.0101  -0.3033   106.3476
 45      0.0000     0.0000E+00    0.0000E+00    1.300000E+10  0.05000  5.316E-06    0   0.5018   age193_m72            0.0000     2.2243E+02    13.3834  -0.4812   107.0154


## Synthesis Results - Average & Chains ##

# j      x_j: min, <> & last-chain-values for 1 ...  7 chains
  1      3.8537      3.4636      3.4232      4.1120      3.4400      3.4639      3.5999      3.5279      3.3454
  2     14.0562     12.5217     12.8224     12.6254     12.7811     12.7350     12.9638     12.8399     12.7573
  3      0.5947      0.7181      0.8654      0.8135      0.7674      0.7453      0.7109      0.4765      0.9145
  4      6.0473      6.3112      6.0329      6.3561      6.2371      6.1681      6.3217      6.5164      6.3364
  5      0.0000      0.0720      0.0000      0.0000      0.2671      0.0911      0.0000      0.0000      0.0000
  6      0.0000      0.0284      0.0000      0.0000      0.0000      0.0000      0.0000      0.0000      0.0000
  7      0.0000      0.0164      0.0000      0.0000      0.0493      0.0000      0.0000      0.0000      0.0000
  8      0.0000      0.0157      0.0000      0.0000      0.0000      0.0000      0.0000      0.0000      0.0000
  9      0.0000      0.0950      0.0000      0.1019      0.1448      0.0000      0.1517      0.1788      0.0000
 10      0.0000      0.1351      0.3377      0.2062      0.1271      0.0205      0.0886      0.0000      0.3521
 11      0.0000      0.1094      0.3279      0.0000      0.0000      0.1680      0.0000      0.0039      0.0361
 12      0.0000      0.1561      0.2324      0.1948      0.0000      0.2029      0.0000      0.0000      0.0000
 13      0.0000      0.5011      0.2724      0.9539      0.2090      0.7702      0.0000      0.6429      0.2637
 14      0.4909      0.6460      0.7453      0.8003      1.0221      0.3737      1.1036      1.3338      0.3518
 15      4.1673      0.7222      0.6764      0.9054      1.4058      1.5606      1.6277      1.3121      1.9161
 16      0.0000      0.1926      0.3001      0.0000      0.1845      0.0000      0.1591      0.2150      0.0609
 17      0.0000      0.0421      0.0000      0.0024      0.0381      0.0614      0.0000      0.0000      0.0000
 18      0.0000      0.2597      0.1486      0.1620      0.3297      0.3513      0.0213      0.0765      0.5346
 19      0.0000      0.1525      0.0000      0.0000      0.0000      0.0969      0.1693      0.0154      0.2133
 20      0.0000      0.0156      0.0000      0.0000      0.0000      0.0000      0.0000      0.0000      0.0000
 21      0.0000      0.0229      0.0000      0.0134      0.0000      0.0000      0.0000      0.0000      0.0000
 22      0.0000      0.0110      0.0000      0.0000      0.0000      0.0000      0.0000      0.0008      0.0000
 23      0.0000      0.0219      0.0268      0.0000      0.0000      0.0000      0.0000      0.0000      0.0000
 24      0.0000      0.0162      0.0000      0.0000      0.0000      0.0000      0.0000      0.0000      0.0000
 25      0.0000      0.0275      0.0000      0.0162      0.0000      0.0000      0.0000      0.0000      0.0000
 26      0.0000      0.0330      0.0300      0.0000      0.0000      0.0173      0.0000      0.0000      0.0000
 27      0.0000      0.1041      0.0000      0.0000      0.1032      0.0000      0.3735      0.1160      0.0000
 28     20.7723     20.9522     21.1835     21.1139     20.5464     20.7271     21.0063     20.9174     20.7412
 29     33.9479     32.2070     31.8141     32.7297     32.6144     33.5899     33.1386     32.8916     33.6134
 30     17.5054     17.4499     18.4524     17.4750     18.0986     17.3254     17.2978     17.4872     17.3959
 31      0.0000      0.0675      0.0022      0.0000      0.0000      0.1253      0.0000      0.0000      0.0860
 32      0.0000      0.3349      0.2923      0.0000      0.2971      0.3560      0.3392      0.3130      0.3435
 33      0.0000      0.2840      0.6247      0.2146      0.2468      0.3222      0.1913      0.4313      0.1054
 34      0.0000      0.0240      0.0187      0.0000      0.0000      0.0000      0.0000      0.0000      0.0000
 35      0.0000      0.0401      0.0000      0.0000      0.0000      0.0000      0.0000      0.0000      0.0000
 36      0.0000      0.0173      0.0408      0.0000      0.0000      0.0000      0.0000      0.0000      0.0000
 37      0.0000      0.0147      0.0000      0.0000      0.0000      0.0000      0.0747      0.0000      0.0000
 38      0.0000      0.0127      0.0000      0.0000      0.0000      0.0000      0.0000      0.0082      0.0642
 39      0.0000      0.0160      0.0000      0.0000      0.0000      0.0000      0.0000      0.0000      0.0000
 40      0.0000      0.0254      0.0000      0.0000      0.1260      0.0000      0.0000      0.0000      0.0000
 41      0.0000      0.0462      0.0000      0.0000      0.0000      0.0000      0.0000      0.0209      0.0000
 42      0.0000      0.1371      0.0000      0.1418      0.1759      0.4117      0.0000      0.0000      0.0000
 43      0.2744      1.5494      1.5668      1.6982      1.5330      1.2798      1.4117      1.5189      1.3707
 44      0.0002      1.0263      0.9941      0.8218      0.0141      0.0000      0.9205      0.3435      0.1492
 45      0.0000      1.2350      0.6386      0.3358      1.0826      0.8662      0.1513      0.6297      0.8815

# j      m_j: min, <> & last-chain-values for 1 ...  7 chains
  1  1.1716E-02  1.0221E-02  1.0177E-02  1.2365E-02  1.0246E-02  1.0404E-02  1.0816E-02  1.0590E-02  9.9909E-03
  2  1.1687E-02  1.0106E-02  1.0425E-02  1.0383E-02  1.0411E-02  1.0461E-02  1.0652E-02  1.0541E-02  1.0419E-02
  3  7.5420E-04  8.8394E-04  1.0731E-03  1.0203E-03  9.5340E-04  9.3371E-04  8.9089E-04  5.9665E-04  1.1392E-03
  4  1.4280E-02  1.4466E-02  1.3931E-02  1.4846E-02  1.4429E-02  1.4391E-02  1.4753E-02  1.5194E-02  1.4698E-02
  5  0.0000E+00  3.8141E-04  0.0000E+00  0.0000E+00  1.4287E-03  4.9147E-04  0.0000E+00  0.0000E+00  0.0000E+00
  6  0.0000E+00  2.0949E-04  0.0000E+00  0.0000E+00  0.0000E+00  0.0000E+00  0.0000E+00  0.0000E+00  0.0000E+00
  7  0.0000E+00  1.7090E-04  0.0000E+00  0.0000E+00  5.2011E-04  0.0000E+00  0.0000E+00  0.0000E+00  0.0000E+00
  8  0.0000E+00  3.1629E-04  0.0000E+00  0.0000E+00  0.0000E+00  0.0000E+00  0.0000E+00  0.0000E+00  0.0000E+00
  9  0.0000E+00  3.8132E-03  0.0000E+00  4.1648E-03  5.8649E-03  0.0000E+00  6.1980E-03  7.2965E-03  0.0000E+00
 10  0.0000E+00  7.5711E-03  1.9059E-02  1.1773E-02  7.1851E-03  1.1700E-03  5.0551E-03  0.0000E+00  1.9962E-02
 11  0.0000E+00  1.0764E-02  3.2503E-02  0.0000E+00  0.0000E+00  1.6819E-02  0.0000E+00  3.9416E-04  3.5905E-03
 12  0.0000E+00  2.8549E-02  4.2820E-02  3.6306E-02  0.0000E+00  3.7769E-02  0.0000E+00  0.0000E+00  0.0000E+00
 13  0.0000E+00  1.8255E-01  9.9965E-02  3.5408E-01  7.6834E-02  2.8558E-01  0.0000E+00  2.3822E-01  9.7225E-02
 14  3.7553E-01  4.7966E-01  5.5742E-01  6.0544E-01  7.6597E-01  2.8239E-01  8.3428E-01  1.0073E+00  2.6433E-01
 15  3.6930E+00  6.2121E-01  5.8612E-01  7.9356E-01  1.2205E+00  1.3664E+00  1.4256E+00  1.1481E+00  1.6679E+00
 16  0.0000E+00  3.1827E-04  4.9976E-04  0.0000E+00  3.0774E-04  0.0000E+00  2.6775E-04  3.6147E-04  1.0193E-04
 17  0.0000E+00  3.6141E-05  0.0000E+00  2.0755E-06  3.3016E-05  5.3662E-05  0.0000E+00  0.0000E+00  0.0000E+00
 18  0.0000E+00  2.4718E-04  1.4248E-04  1.5706E-04  3.1670E-04  3.4026E-04  2.0634E-05  7.4105E-05  5.1491E-04
 19  0.0000E+00  4.3402E-04  0.0000E+00  0.0000E+00  0.0000E+00  2.8071E-04  4.9035E-04  4.4450E-05  6.1424E-04
 20  0.0000E+00  9.8908E-05  0.0000E+00  0.0000E+00  0.0000E+00  0.0000E+00  0.0000E+00  0.0000E+00  0.0000E+00
 21  0.0000E+00  1.7398E-04  0.0000E+00  1.0406E-04  0.0000E+00  0.0000E+00  0.0000E+00  0.0000E+00  0.0000E+00
 22  0.0000E+00  1.3947E-04  0.0000E+00  0.0000E+00  0.0000E+00  0.0000E+00  0.0000E+00  1.0215E-05  0.0000E+00
 23  0.0000E+00  5.4333E-04  6.7051E-04  0.0000E+00  0.0000E+00  0.0000E+00  0.0000E+00  0.0000E+00  0.0000E+00
 24  0.0000E+00  9.2244E-04  0.0000E+00  0.0000E+00  0.0000E+00  0.0000E+00  0.0000E+00  0.0000E+00  0.0000E+00
 25  0.0000E+00  2.4046E-03  0.0000E+00  1.4413E-03  0.0000E+00  0.0000E+00  0.0000E+00  0.0000E+00  0.0000E+00
 26  0.0000E+00  5.4529E-03  4.9935E-03  0.0000E+00  0.0000E+00  2.9081E-03  0.0000E+00  0.0000E+00  0.0000E+00
 27  0.0000E+00  3.4883E-02  0.0000E+00  0.0000E+00  3.4895E-02  0.0000E+00  1.2739E-01  3.9541E-02  0.0000E+00
 28  1.4507E+01  1.4203E+01  1.4466E+01  1.4584E+01  1.4057E+01  1.4301E+01  1.4498E+01  1.4423E+01  1.4229E+01
 29  5.0190E+01  4.6219E+01  4.5993E+01  4.7860E+01  4.7239E+01  4.9064E+01  4.8418E+01  4.8013E+01  4.8816E+01
 30  3.0877E+01  2.9875E+01  3.1825E+01  3.0486E+01  3.1274E+01  3.0192E+01  3.0152E+01  3.0454E+01  3.0141E+01
 31  0.0000E+00  8.3710E-05  2.7773E-06  0.0000E+00  0.0000E+00  1.5817E-04  0.0000E+00  0.0000E+00  1.0792E-04
 32  0.0000E+00  2.1891E-04  1.9245E-04  0.0000E+00  1.9599E-04  2.3682E-04  2.2571E-04  2.0811E-04  2.2719E-04
 33  0.0000E+00  2.7538E-04  6.1028E-04  2.1209E-04  2.4158E-04  3.1801E-04  1.8882E-04  4.2545E-04  1.0342E-04
