###################################################################
## OUTPUT of StarlightChains_v04.for    [Cid@UFSC - 01/Apr/2007] ##
###################################################################

## Some input info
NGC5927_c_1.cxt                          [arq_obs]
Base.BC03.N                              [arq_base]
NGC5927_c_1.msk                          [arq_masks]
StCv04.C99.config                        [arq_config]
   45                                    [N_base]
    0                                    [N_YAV_components = # of components with extra extinction!]
    0                                    [i_FitPowerLaw (1/0 = Yes/No)]
-9.99                                    [alpha_PowerLaw]
CCM                                      [red_law_option]
 1.458241                                [q_norm = A(l_norm)/A(V)]

## (Re)Sampling Parameters
 3359.00                                 [l_ini (A)]
 6428.00                                 [l_fin (A)]
    1.00                                 [dl    (A)]     (OBS: dl_cushion =    50.00 A)

## Normalization info
 4020.00                                 [l_norm (A) - for base]
 4010.00                                 [llow_norm (A) - window for f_obs]
 4060.00                                 [lupp_norm (A) - window for f_obs]
5.954027E-15                             [fobs_norm (in input units)]

## S/N
 4730.00                                 [llow_SN (A) - window for S/N]
 4780.00                                 [lupp_SN (A) - window for S/N]
  31.182                                 [S/N in S/N window]
  18.272                                 [S/N in norm. window]
 384.682                                 [S/N_err in S/N window]
 225.410                                 [S/N_err in norm. window]
  1.0000                                 [fscale_chi2]

## etc...
  2147483631                             [idum_orig]
  3066                                   [NOl_eff]
  1182                                   [Nl_eff]
  1884    NSIGMA                         [Ntot_cliped & clip_method]
  1968400                                [Nglobal_steps]
   7                                     [N_chains]
  11                                     [NEX0s_base = N_base in EX0s-fits]
 0   0   1      166   2.0   5.068E+02    [Clip-Bug, RC-Crash & Burn-In warning-flags, n_censored_weights, wei_nsig_threshold & wei_limit]
    24     24.563     24.559      0.004  [idt_all, wdt_TotTime, wdt_UsrTime & wdt_SysTime (sec)]

## Synthesis Results - Best model ##

 2.42630E+00                             [chi2/Nl_eff]
     1.94227                             [adev (%)]

   101.02100                             [sum-of-x (%)]
 2.71057E-14                             [Flux_tot (units of input spectrum!)]
 1.71526E-09                             [Mini_tot (???)]
 8.70671E-10                             [Mcor_tot (???)]

   5.95                                  [v0_min  (km/s)]
  60.52                                  [vd_min  (km/s)]
 1.1209                                  [AV_min  (mag)]
 0.0000                                  [YAV_min (mag)]

# j     x_j(%)      Mini_j(%)     Mcor_j(%)     age_j(yr)     Z_j      (L/M)_j    YAV?  Mstars   component_j        a/Fe...       SSP_chi2r SSP_adev(%)   SSP_AV   SSP_x(%)
  1      4.3837     6.1557E-03    1.2127E-02    1.000000E+06  0.00400  1.114E-02    0   1.0000   age020_m42            0.0000     2.6833E+03    33.1136   4.0000    92.5910
  2      8.1821     3.1424E-03    6.1902E-03    3.160000E+06  0.00400  4.073E-02    0   0.9999   age045_m42            0.0000     6.4010E+02    10.3276   4.0000   101.8574
  3      0.0000     0.0000E+00    0.0000E+00    5.010000E+06  0.00400  2.534E-02    0   0.9488   age055_m42            0.0000     1.2887E+03    19.4749   4.0000    99.0699
  4      7.4968     9.2268E-03    1.6109E-02    1.000000E+07  0.00400  1.271E-02    0   0.8862   age070_m42            0.0000     5.2806E+02    11.5456   4.0000    96.1575
  5      0.0000     0.0000E+00    0.0000E+00    2.512000E+07  0.00400  5.070E-03    0   0.8174   age090_m42            0.0000     4.5134E+02    12.7509   4.0000    95.9197
  6      0.0000     0.0000E+00    0.0000E+00    4.000000E+07  0.00400  3.505E-03    0   0.7851   age104_m42            0.0000     3.7911E+02    12.1397   3.7583    96.9336
  7      0.0000     0.0000E+00    0.0000E+00    1.015200E+08  0.00400  2.268E-03    0   0.7207   age116_m42            0.0000     8.9291E+02     8.3095   3.5314   106.4582
  8      0.0000     0.0000E+00    0.0000E+00    2.861200E+08  0.00400  1.079E-03    0   0.6613   age125_m42            0.0000     9.4244E+02     8.1534   3.0193   107.9776
  9      0.0000     0.0000E+00    0.0000E+00    6.405400E+08  0.00400  5.077E-04    0   0.6197   age132_m42            0.0000     9.6657E+02     8.5440   2.6734   111.9471
 10      1.2938     5.7251E-02    6.7943E-02    9.047900E+08  0.00400  3.535E-04    0   0.6024   age135_m42            0.0000     7.1221E+02     7.5240   2.4264   111.2650
 11      0.0000     0.0000E+00    0.0000E+00    1.434000E+09  0.00400  1.910E-04    0   0.5716   age139_m42            0.0000     3.8066E+02     6.1443   1.8248   109.8621
 12      0.0000     0.0000E+00    0.0000E+00    2.500000E+09  0.00400  9.818E-05    0   0.5463   age150_m42            0.0000     1.4339E+02     4.5354   1.5462   104.9759
 13      0.0000     0.0000E+00    0.0000E+00    5.000000E+09  0.00400  4.718E-05    0   0.5228   age161_m42            0.0000     6.1823E+01     3.5473   1.3853   101.4665
 14      7.6113     5.3997E+00    5.2976E+00    1.100000E+10  0.00400  2.205E-05    0   0.4980   age185_m42            0.0000     3.0917E+01     4.4703   1.0600    99.2563
 15      8.7102     7.2359E+00    7.0235E+00    1.300000E+10  0.00400  1.883E-05    0   0.4927   age193_m42            0.0000     2.9515E+01     4.5763   1.0400    99.0721
 16      0.0000     0.0000E+00    0.0000E+00    1.000000E+06  0.02000  1.989E-02    0   1.0000   age020_m62            0.0000     2.6202E+03    32.2048   4.0000    93.2251
 17      0.0000     0.0000E+00    0.0000E+00    3.160000E+06  0.02000  3.772E-02    0   0.9858   age045_m62            0.0000     2.2519E+03    29.0551   4.0000    95.4757
 18      0.0000     0.0000E+00    0.0000E+00    5.010000E+06  0.02000  3.227E-02    0   0.9342   age055_m62            0.0000     1.0075E+03    15.7649   4.0000   101.0496
 19      1.1016     1.7045E-03    2.9385E-03    1.000000E+07  0.02000  1.011E-02    0   0.8751   age070_m62            0.0000     7.7617E+02    13.8614   4.0000    93.8717
 20      0.0000     0.0000E+00    0.0000E+00    2.512000E+07  0.02000  4.206E-03    0   0.8099   age090_m62            0.0000     6.0377E+02    13.3413   4.0000    93.3961
 21      0.0000     0.0000E+00    0.0000E+00    4.000000E+07  0.02000  3.373E-03    0   0.7799   age104_m62            0.0000     4.9156E+02    12.2073   3.9653    98.3904
 22      0.0000     0.0000E+00    0.0000E+00    1.015200E+08  0.02000  1.878E-03    0   0.7221   age116_m62            0.0000     8.6130E+02     8.5958   3.6209   106.5116
 23      0.0000     0.0000E+00    0.0000E+00    2.861200E+08  0.02000  8.869E-04    0   0.6700   age125_m62            0.0000     1.3334E+03     9.3481   3.0207   112.6937
 24      0.0000     0.0000E+00    0.0000E+00    6.405400E+08  0.02000  3.657E-04    0   0.6322   age132_m62            0.0000     9.2047E+02     9.3258   2.2550   115.9117
 25      0.0000     0.0000E+00    0.0000E+00    9.047900E+08  0.02000  2.312E-04    0   0.6152   age135_m62            0.0000     5.6199E+02     8.2634   1.8544   115.1830
 26      0.0000     0.0000E+00    0.0000E+00    1.434000E+09  0.02000  1.168E-04    0   0.5865   age139_m62            0.0000     1.9464E+02     5.6980   1.4493   109.0284
 27      0.0000     0.0000E+00    0.0000E+00    2.500000E+09  0.02000  5.505E-05    0   0.5610   age150_m62            0.0000     7.1206E+01     5.5239   1.0372   106.0489
 28      0.7480     4.5074E-01    4.7534E-01    5.000000E+09  0.02000  2.596E-05    0   0.5353   age161_m62            0.0000     6.4041E+01     7.6895   0.6218   105.9410
 29     35.6952     4.7765E+01    4.8019E+01    1.100000E+10  0.02000  1.169E-05    0   0.5103   age185_m62            0.0000     1.1866E+02    10.8701   0.1558   107.5859
 30     21.5372     3.4765E+01    3.4566E+01    1.300000E+10  0.02000  9.691E-06    0   0.5047   age193_m62            0.0000     1.3306E+02    11.4612   0.0932   107.8384
 31      0.0000     0.0000E+00    0.0000E+00    1.000000E+06  0.05000  2.651E-02    0   0.9998   age020_m72            0.0000     2.5544E+03    31.7700   4.0000    94.3384
 32      0.0000     0.0000E+00    0.0000E+00    3.160000E+06  0.05000  4.817E-02    0   0.9577   age045_m72            0.0000     1.7848E+03    24.6850   4.0000    99.0357
 33      0.0000     0.0000E+00    0.0000E+00    5.010000E+06  0.05000  3.101E-02    0   0.9147   age055_m72            0.0000     1.1998E+03    16.5509   4.0000    99.8497
 34      0.0000     0.0000E+00    0.0000E+00    1.000000E+07  0.05000  8.954E-03    0   0.8524   age070_m72            0.0000     1.5297E+03    21.7751   4.0000    99.4197
 35      0.0000     0.0000E+00    0.0000E+00    2.512000E+07  0.05000  4.207E-03    0   0.7902   age090_m72            0.0000     7.7668E+02    11.5411   4.0000   101.7069
 36      0.0000     0.0000E+00    0.0000E+00    4.000000E+07  0.05000  3.198E-03    0   0.7618   age104_m72            0.0000     6.7148E+02     8.6311   4.0000   102.5926
 37      0.0000     0.0000E+00    0.0000E+00    1.015200E+08  0.05000  1.716E-03    0   0.7092   age116_m72            0.0000     9.7410E+02     8.5917   3.6890   106.7149
 38      0.0000     0.0000E+00    0.0000E+00    2.861200E+08  0.05000  7.047E-04    0   0.6618   age125_m72            0.0000     1.2458E+03     9.6199   2.7502   113.4998
 39      0.0000     0.0000E+00    0.0000E+00    6.405400E+08  0.05000  2.633E-04    0   0.6253   age132_m72            0.0000     6.8233E+02     9.4913   1.8065   115.7434
 40      0.0000     0.0000E+00    0.0000E+00    9.047900E+08  0.05000  1.484E-04    0   0.6088   age135_m72            0.0000     2.7332E+02     7.9273   1.3059   110.2265
 41      0.0000     0.0000E+00    0.0000E+00    1.434000E+09  0.05000  7.827E-05    0   0.5847   age139_m72            0.0000     1.0634E+02     7.6594   0.8697   106.6654
 42      0.0000     0.0000E+00    0.0000E+00    2.500000E+09  0.05000  3.759E-05    0   0.5583   age150_m72            0.0000     7.9607E+01     8.4936   0.5157   105.7575
 43      4.2610     4.3059E+00    4.5129E+00    5.000000E+09  0.05000  1.548E-05    0   0.5320   age161_m72            0.0000     1.2689E+02    11.5455   0.0146   105.2916
 44      0.0000     0.0000E+00    0.0000E+00    1.100000E+10  0.05000  6.532E-06    0   0.5070   age185_m72            0.0000     2.3031E+02    16.0627  -0.5530   106.1871
 45      0.0000     0.0000E+00    0.0000E+00    1.300000E+10  0.05000  5.316E-06    0   0.5018   age193_m72            0.0000     2.8161E+02    17.8015  -0.7500   106.8744


## Synthesis Results - Average & Chains ##

# j      x_j: min, <> & last-chain-values for 1 ...  7 chains
  1      4.3837      4.0640      4.0222      4.1357      4.2014      3.9297      4.0348      4.2193      4.1481
  2      8.1821      8.1954      8.1542      8.3569      8.4278      8.0447      8.2355      8.3648      8.4383
  3      0.0000      0.0685      0.0000      0.1726      0.0000      0.2754      0.0332      0.0003      0.0000
  4      7.4968      7.8676      7.9262      7.8926      7.8197      7.4982      7.9846      7.8675      7.7772
  5      0.0000      0.0465      0.0000      0.0000      0.0000      0.0000      0.0000      0.0000      0.0000
  6      0.0000      0.0174      0.0000      0.0000      0.0000      0.0000      0.0000      0.0090      0.1064
  7      0.0000      0.0136      0.0000      0.0000      0.0000      0.0000      0.0000      0.0000      0.0000
  8      0.0000      0.0250      0.0235      0.1780      0.0088      0.0000      0.0000      0.0000      0.0000
  9      0.0000      0.0888      0.1754      0.0000      0.2807      0.0861      0.3790      0.2462      0.0000
 10      1.2938      0.1451      0.3951      0.2008      0.3420      0.3549      0.3456      0.4437      0.4074
 11      0.0000      0.1517      0.1116      0.1335      0.3214      0.0000      0.3300      0.0733      0.3897
 12      0.0000      0.2258      0.0000      0.2395      0.0000      0.2564      0.0869      0.0214      0.0000
 13      0.0000      0.3715      0.3412      0.3038      0.2787      0.3948      0.0000      0.0000      0.3442
 14      7.6113     13.7236     12.7144     12.4017     13.1908     13.2141     12.0599     13.6233     13.9339
 15      8.7102      1.6885      3.2998      3.7919      2.0116      2.3652      3.1253      2.1313      1.6364
 16      0.0000      0.2568      0.4159      0.1832      0.3108      0.2427      0.2262      0.3594      0.1947
 17      0.0000      0.0566      0.0578      0.0000      0.0379      0.0987      0.0322      0.0000      0.2613
 18      0.0000      0.0365      0.0000      0.0000      0.0000      0.0000      0.0000      0.0000      0.0000
 19      1.1016      0.3555      0.4870      0.3829      0.3520      0.7250      0.5141      0.3318      0.2917
 20      0.0000      0.0116      0.0000      0.0000      0.0000      0.0000      0.0000      0.0000      0.0038
 21      0.0000      0.0203      0.0000      0.0000      0.0000      0.0000      0.0000      0.0000      0.0000
 22      0.0000      0.0150      0.0450      0.0000      0.0000      0.0000      0.0000      0.0000      0.0000
 23      0.0000      0.0200      0.0000      0.0000      0.0000      0.0000      0.0000      0.0000      0.0000
 24      0.0000      0.0296      0.0000      0.0000      0.0000      0.0000      0.0000      0.0000      0.0431
 25      0.0000      0.0462      0.1367      0.0269      0.0000      0.0673      0.0000      0.0000      0.0000
 26      0.0000      0.0621      0.0244      0.0000      0.0000      0.0543      0.0000      0.0471      0.0000
 27      0.0000      0.1203      0.0000      0.2999      0.0000      0.0000      0.0801      0.0260      0.0131
 28      0.7480      0.2518      0.3205      0.0000      0.9927      0.3218      0.1696      0.4699      0.4524
 29     35.6952     35.6610     36.2030     35.7154     35.5147     35.8006     35.6129     35.6002     35.9803
 30     21.5372     21.1362     20.4749     21.1726     21.0119     21.1964     21.6603     21.3327     20.9974
 31      0.0000      0.0511      0.0990      0.0000      0.0703      0.0632      0.0000      0.0000      0.0000
 32      0.0000      0.0350      0.0383      0.1013      0.0000      0.0000      0.0000      0.0284      0.0000
 33      0.0000      0.0240      0.0000      0.0000      0.0000      0.2266      0.1373      0.0151      0.0000
 34      0.0000      0.1023      0.0000      0.0000      0.1012      0.0855      0.2140      0.1046      0.1115
 35      0.0000      0.0353      0.0080      0.0000      0.0000      0.0000      0.0200      0.0330      0.0000
 36      0.0000      0.0127      0.0034      0.0000      0.0000      0.0000      0.0000      0.0000      0.0000
 37      0.0000      0.0167      0.0000      0.0000      0.0000      0.0329      0.0142      0.0000      0.0000
 38      0.0000      0.0160      0.0000      0.0000      0.0000      0.1557      0.0000      0.1450      0.0000
 39      0.0000      0.0439      0.0211      0.0843      0.0000      0.0062      0.0000      0.0000      0.1387
 40      0.0000      0.0994      0.0000      0.0000      0.0570      0.0000      0.0216      0.0000      0.0000
 41      0.0000      0.0754      0.0000      0.0000      0.0000      0.0000      0.0000      0.0000      0.0000
 42      0.0000      0.1753      0.0746      0.3748      0.2259      0.1256      0.2114      0.0000      0.1231
 43      4.2610      5.5683      5.4324      4.8816      5.4740      5.3929      5.5592      5.5340      5.2523
 44      0.0000      0.0143      0.0035      0.0000      0.0000      0.0000      0.0000      0.0000      0.0000
 45      0.0000      0.0075      0.0000      0.0000      0.0000      0.0000      0.0000      0.0116      0.0000

# j      m_j: min, <> & last-chain-values for 1 ...  7 chains
  1  1.2127E-02  1.1320E-02  1.1207E-02  1.1513E-02  1.1736E-02  1.0924E-02  1.1182E-02  1.1716E-02  1.1561E-02
  2  6.1902E-03  6.2428E-03  6.2137E-03  6.3626E-03  6.4384E-03  6.1159E-03  6.2417E-03  6.3524E-03  6.4319E-03
  3  0.0000E+00  7.9640E-05  0.0000E+00  2.0039E-04  0.0000E+00  3.1936E-04  3.8382E-05  3.0047E-07  0.0000E+00
  4  1.6109E-02  1.7021E-02  1.7154E-02  1.7067E-02  1.6967E-02  1.6190E-02  1.7187E-02  1.6969E-02  1.6837E-02
  5  0.0000E+00  2.3280E-04  0.0000E+00  0.0000E+00  0.0000E+00  0.0000E+00  0.0000E+00  0.0000E+00  0.0000E+00
  6  0.0000E+00  1.2096E-04  0.0000E+00  0.0000E+00  0.0000E+00  0.0000E+00  0.0000E+00  6.2037E-05  7.4014E-04
  7  0.0000E+00  1.3425E-04  0.0000E+00  0.0000E+00  0.0000E+00  0.0000E+00  0.0000E+00  0.0000E+00  0.0000E+00
  8  0.0000E+00  4.7538E-04  4.4695E-04  3.3840E-03  1.6750E-04  0.0000E+00  0.0000E+00  0.0000E+00  0.0000E+00
  9  0.0000E+00  3.3632E-03  6.6451E-03  0.0000E+00  1.0662E-02  3.2563E-03  1.4280E-02  9.2968E-03  0.0000E+00
 10  6.7943E-02  7.6722E-03  2.0901E-02  1.0610E-02  1.8136E-02  1.8730E-02  1.8183E-02  2.3389E-02  2.1554E-02
 11  0.0000E+00  1.4082E-02  1.0363E-02  1.2394E-02  2.9933E-02  0.0000E+00  3.0493E-02  6.7895E-03  3.6213E-02
 12  0.0000E+00  3.8989E-02  0.0000E+00  4.1332E-02  0.0000E+00  4.4176E-02  1.4922E-02  3.6890E-03  0.0000E+00
 13  0.0000E+00  1.2775E-01  1.1737E-01  1.0439E-01  9.6114E-02  1.3548E-01  0.0000E+00  0.0000E+00  1.1841E-01
 14  5.2976E+00  9.6174E+00  8.9134E+00  8.6866E+00  9.2707E+00  9.2420E+00  8.4088E+00  9.5179E+00  9.7709E+00
 15  7.0235E+00  1.3709E+00  2.6800E+00  3.0771E+00  1.6379E+00  1.9165E+00  2.5246E+00  1.7251E+00  1.3294E+00
 16  0.0000E+00  4.0058E-04  6.4904E-04  2.8571E-04  4.8620E-04  3.7786E-04  3.5115E-04  5.5892E-04  3.0386E-04
 17  0.0000E+00  4.5934E-05  4.6903E-05  0.0000E+00  3.0818E-05  7.9887E-05  2.5960E-05  0.0000E+00  2.1204E-04
 18  0.0000E+00  3.2826E-05  0.0000E+00  0.0000E+00  0.0000E+00  0.0000E+00  0.0000E+00  0.0000E+00  0.0000E+00
 19  2.9385E-03  9.5470E-04  1.3084E-03  1.0279E-03  9.4813E-04  1.9435E-03  1.3737E-03  8.8851E-04  7.8394E-04
 20  0.0000E+00  6.9304E-05  0.0000E+00  0.0000E+00  0.0000E+00  0.0000E+00  0.0000E+00  0.0000E+00  2.2625E-05
 21  0.0000E+00  1.4547E-04  0.0000E+00  0.0000E+00  0.0000E+00  0.0000E+00  0.0000E+00  0.0000E+00  0.0000E+00
 22  0.0000E+00  1.7869E-04  5.3751E-04  0.0000E+00  0.0000E+00  0.0000E+00  0.0000E+00  0.0000E+00  0.0000E+00
 23  0.0000E+00  4.6859E-04  0.0000E+00  0.0000E+00  0.0000E+00  0.0000E+00  0.0000E+00  0.0000E+00  0.0000E+00
 24  0.0000E+00  1.5866E-03  0.0000E+00  0.0000E+00  0.0000E+00  0.0000E+00  0.0000E+00  0.0000E+00  2.3140E-03
 25  0.0000E+00  3.8110E-03  1.1290E-02  2.2162E-03  0.0000E+00  5.5441E-03  0.0000E+00  0.0000E+00  0.0000E+00
 26  0.0000E+00  9.6695E-03  3.8012E-03  0.0000E+00  0.0000E+00  8.4428E-03  0.0000E+00  7.3208E-03  0.0000E+00
 27  0.0000E+00  3.8027E-02  0.0000E+00  9.4783E-02  0.0000E+00  0.0000E+00  2.5185E-02  8.2096E-03  4.1385E-03
 28  4.7534E-01  1.6108E-01  2.0513E-01  0.0000E+00  6.3699E-01  2.0552E-01  1.0795E-01  2.9971E-01  2.8964E-01
 29  4.8019E+01  4.8303E+01  4.9055E+01  4.8352E+01  4.8244E+01  4.8396E+01  4.7994E+01  4.8073E+01  4.8766E+01
 30  3.4566E+01  3.4155E+01  3.3099E+01  3.4197E+01  3.4053E+01  3.4185E+01  3.4826E+01  3.4367E+01  3.3953E+01
 31  0.0000E+00  5.9794E-05  1.1590E-04  0.0000E+00  8.2464E-05  7.3762E-05  0.0000E+00  0.0000E+00  0.0000E+00
 32  0.0000E+00  2.1602E-05  2.3617E-05  6.2488E-05  0.0000E+00  0.0000E+00  0.0000E+00  1.7472E-05  0.0000E+00
 33  0.0000E+00  2.1946E-05  0.0000E+00  0.0000E+00  0.0000E+00  2.0699E-04  1.2501E-04  1.3744E-05  0.0000E+00
