###################################################################
## OUTPUT of StarlightChains_v04.for    [Cid@UFSC - 01/Apr/2007] ##
###################################################################

## Some input info
NGC5904_a_1.cxt                          [arq_obs]
Base.BC03.N                              [arq_base]
NGC5904_a_1.msk                          [arq_masks]
StCv04.C99.config                        [arq_config]
   45                                    [N_base]
    0                                    [N_YAV_components = # of components with extra extinction!]
    0                                    [i_FitPowerLaw (1/0 = Yes/No)]
-9.99                                    [alpha_PowerLaw]
CCM                                      [red_law_option]
 1.458241                                [q_norm = A(l_norm)/A(V)]

## (Re)Sampling Parameters
 3359.00                                 [l_ini (A)]
 6428.00                                 [l_fin (A)]
    1.00                                 [dl    (A)]     (OBS: dl_cushion =    50.00 A)

## Normalization info
 4020.00                                 [l_norm (A) - for base]
 4010.00                                 [llow_norm (A) - window for f_obs]
 4060.00                                 [lupp_norm (A) - window for f_obs]
5.027376E-14                             [fobs_norm (in input units)]

## S/N
 4730.00                                 [llow_SN (A) - window for S/N]
 4780.00                                 [lupp_SN (A) - window for S/N]
  94.495                                 [S/N in S/N window]
  88.383                                 [S/N in norm. window]
 203.063                                 [S/N_err in S/N window]
 189.929                                 [S/N_err in norm. window]
  1.0000                                 [fscale_chi2]

## etc...
  2147483635                             [idum_orig]
  3069                                   [NOl_eff]
  1021                                   [Nl_eff]
  2048    NSIGMA                         [Ntot_cliped & clip_method]
  1024800                                [Nglobal_steps]
   7                                     [N_chains]
   5                                     [NEX0s_base = N_base in EX0s-fits]
 0   0   1      257   2.0   3.991E+02    [Clip-Bug, RC-Crash & Burn-In warning-flags, n_censored_weights, wei_nsig_threshold & wei_limit]
    19     19.673     19.673      0.000  [idt_all, wdt_TotTime, wdt_UsrTime & wdt_SysTime (sec)]

## Synthesis Results - Best model ##

 2.88004E+00                             [chi2/Nl_eff]
     0.91066                             [adev (%)]

   102.88844                             [sum-of-x (%)]
 7.56890E-14                             [Flux_tot (units of input spectrum!)]
 5.27324E-10                             [Mini_tot (???)]
 2.89654E-10                             [Mcor_tot (???)]

  -6.50                                  [v0_min  (km/s)]
  86.56                                  [vd_min  (km/s)]
 0.2834                                  [AV_min  (mag)]
 0.0000                                  [YAV_min (mag)]

# j     x_j(%)      Mini_j(%)     Mcor_j(%)     age_j(yr)     Z_j      (L/M)_j    YAV?  Mstars   component_j        a/Fe...       SSP_chi2r SSP_adev(%)   SSP_AV   SSP_x(%)
  1      0.0000     0.0000E+00    0.0000E+00    1.000000E+06  0.00400  1.114E-02    0   1.0000   age020_m42            0.0000     9.5053E+02    14.4650   3.6231    77.1266
  2     13.8537     4.7450E-02    8.6376E-02    3.160000E+06  0.00400  4.073E-02    0   0.9999   age045_m42            0.0000     2.0662E+02     7.2348   2.5913    91.9109
  3      0.0000     0.0000E+00    0.0000E+00    5.010000E+06  0.00400  2.534E-02    0   0.9488   age055_m42            0.0000     4.8379E+02    10.8098   3.0325    85.0953
  4      0.0000     0.0000E+00    0.0000E+00    1.000000E+07  0.00400  1.271E-02    0   0.8862   age070_m42            0.0000     4.1286E+02    10.4729   2.2423    88.5201
  5      0.0000     0.0000E+00    0.0000E+00    2.512000E+07  0.00400  5.070E-03    0   0.8174   age090_m42            0.0000     3.5340E+02     9.7468   2.1006    90.2295
  6      0.0000     0.0000E+00    0.0000E+00    4.000000E+07  0.00400  3.505E-03    0   0.7851   age104_m42            0.0000     2.0718E+02     7.4933   1.7576    93.5788
  7     15.8386     9.7423E-01    1.2783E+00    1.015200E+08  0.00400  2.268E-03    0   0.7207   age116_m42            0.0000     4.2749E+02     6.5747   1.6399   105.5710
  8      0.0000     0.0000E+00    0.0000E+00    2.861200E+08  0.00400  1.079E-03    0   0.6613   age125_m42            0.0000     4.7885E+02     7.3566   1.1309   108.1697
  9      0.0000     0.0000E+00    0.0000E+00    6.405400E+08  0.00400  5.077E-04    0   0.6197   age132_m42            0.0000     5.3628E+02     7.7790   0.7647   112.3463
 10      4.9331     1.9468E+00    2.1350E+00    9.047900E+08  0.00400  3.535E-04    0   0.6024   age135_m42            0.0000     3.0202E+02     6.0045   0.5352   111.1248
 11      0.0000     0.0000E+00    0.0000E+00    1.434000E+09  0.00400  1.910E-04    0   0.5716   age139_m42            0.0000     1.0511E+02     4.3746  -0.0069   109.5673
 12     68.2396     9.6962E+01    9.6434E+01    2.500000E+09  0.00400  9.818E-05    0   0.5463   age150_m42            0.0000     5.4188E+01     3.4004  -0.2696   104.2705
 13      0.0235     6.9486E-02    6.6135E-02    5.000000E+09  0.00400  4.718E-05    0   0.5228   age161_m42            0.0000     1.2062E+02     4.1241  -0.4244   100.4699
 14      0.0000     0.0000E+00    0.0000E+00    1.100000E+10  0.00400  2.205E-05    0   0.4980   age185_m42            0.0000     2.8687E+02     6.1636  -0.7044    98.3743
 15      0.0000     0.0000E+00    0.0000E+00    1.300000E+10  0.00400  1.883E-05    0   0.4927   age193_m42            0.0000     3.1457E+02     6.4200  -0.7214    98.1905
 16      0.0000     0.0000E+00    0.0000E+00    1.000000E+06  0.02000  1.989E-02    0   1.0000   age020_m62            0.0000     9.5246E+02    14.3538   3.5839    77.8548
 17      0.0000     0.0000E+00    0.0000E+00    3.160000E+06  0.02000  3.772E-02    0   0.9858   age045_m62            0.0000     8.4819E+02    13.7124   3.4331    80.0581
 18      0.0000     0.0000E+00    0.0000E+00    5.010000E+06  0.02000  3.227E-02    0   0.9342   age055_m62            0.0000     3.2056E+02     8.9700   2.8662    88.2947
 19      0.0000     0.0000E+00    0.0000E+00    1.000000E+07  0.02000  1.011E-02    0   0.8751   age070_m62            0.0000     9.6787E+02    15.4437   2.2889    84.0985
 20      0.0000     0.0000E+00    0.0000E+00    2.512000E+07  0.02000  4.206E-03    0   0.8099   age090_m62            0.0000     7.0640E+02    13.0505   2.1980    85.5508
 21      0.0000     0.0000E+00    0.0000E+00    4.000000E+07  0.02000  3.373E-03    0   0.7799   age104_m62            0.0000     1.9579E+02     7.1700   1.9482    95.4926
 22      0.0000     0.0000E+00    0.0000E+00    1.015200E+08  0.02000  1.878E-03    0   0.7221   age116_m62            0.0000     3.5846E+02     6.2151   1.6805   105.5082
 23      0.0000     0.0000E+00    0.0000E+00    2.861200E+08  0.02000  8.869E-04    0   0.6700   age125_m62            0.0000     9.1405E+02    10.1096   1.0953   114.2108
 24      0.0000     0.0000E+00    0.0000E+00    6.405400E+08  0.02000  3.657E-04    0   0.6322   age132_m62            0.0000     5.4501E+02     8.9403   0.3827   118.0519
 25      0.0000     0.0000E+00    0.0000E+00    9.047900E+08  0.02000  2.312E-04    0   0.6152   age135_m62            0.0000     2.6222E+02     6.8500   0.0231   116.2710
 26      0.0000     0.0000E+00    0.0000E+00    1.434000E+09  0.02000  1.168E-04    0   0.5865   age139_m62            0.0000     8.8469E+01     4.4221  -0.3640   109.1626
 27      0.0000     0.0000E+00    0.0000E+00    2.500000E+09  0.02000  5.505E-05    0   0.5610   age150_m62            0.0000     2.0749E+02     5.9688  -0.7450   105.9143
 28      0.0000     0.0000E+00    0.0000E+00    5.000000E+09  0.02000  2.596E-05    0   0.5353   age161_m62            0.0000     5.1921E+02     8.5699  -1.0000   104.3681
 29      0.0000     0.0000E+00    0.0000E+00    1.100000E+10  0.02000  1.169E-05    0   0.5103   age185_m62            0.0000     1.2626E+03    13.8280  -1.0000    98.2220
 30      0.0000     0.0000E+00    0.0000E+00    1.300000E+10  0.02000  9.691E-06    0   0.5047   age193_m62            0.0000     1.4171E+03    14.7504  -1.0000    97.3809
 31      0.0000     0.0000E+00    0.0000E+00    1.000000E+06  0.05000  2.651E-02    0   0.9998   age020_m72            0.0000     8.8394E+02    13.6877   3.5825    78.7749
 32      0.0000     0.0000E+00    0.0000E+00    3.160000E+06  0.05000  4.817E-02    0   0.9577   age045_m72            0.0000     5.8938E+02    11.4932   3.2728    83.5407
 33      0.0000     0.0000E+00    0.0000E+00    5.010000E+06  0.05000  3.101E-02    0   0.9147   age055_m72            0.0000     5.4580E+02    11.3389   2.9024    86.0667
 34      0.0000     0.0000E+00    0.0000E+00    1.000000E+07  0.05000  8.954E-03    0   0.8524   age070_m72            0.0000     5.7670E+02    11.2461   3.1391    84.7780
 35      0.0000     0.0000E+00    0.0000E+00    2.512000E+07  0.05000  4.207E-03    0   0.7902   age090_m72            0.0000     2.7032E+02     8.0185   2.6607    91.0051
 36      0.0000     0.0000E+00    0.0000E+00    4.000000E+07  0.05000  3.198E-03    0   0.7618   age104_m72            0.0000     1.9209E+02     4.8875   2.0664   100.7025
 37      0.0000     0.0000E+00    0.0000E+00    1.015200E+08  0.05000  1.716E-03    0   0.7092   age116_m72            0.0000     4.5276E+02     6.8903   1.7472   106.1036
 38      0.0000     0.0000E+00    0.0000E+00    2.861200E+08  0.05000  7.047E-04    0   0.6618   age125_m72            0.0000     8.6188E+02    10.2250   0.8601   115.0901
 39      0.0000     0.0000E+00    0.0000E+00    6.405400E+08  0.05000  2.633E-04    0   0.6253   age132_m72            0.0000     3.8699E+02     8.1004  -0.0099   117.3421
 40      0.0000     0.0000E+00    0.0000E+00    9.047900E+08  0.05000  1.484E-04    0   0.6088   age135_m72            0.0000     1.6624E+02     6.2390  -0.4764   111.2323
 41      0.0000     0.0000E+00    0.0000E+00    1.434000E+09  0.05000  7.827E-05    0   0.5847   age139_m72            0.0000     2.9100E+02     7.4697  -0.8730   107.2060
 42      0.0000     0.0000E+00    0.0000E+00    2.500000E+09  0.05000  3.759E-05    0   0.5583   age150_m72            0.0000     6.0411E+02     9.1072  -1.0000   102.5977
 43      0.0000     0.0000E+00    0.0000E+00    5.000000E+09  0.05000  1.548E-05    0   0.5320   age161_m72            0.0000     1.5034E+03    15.6102  -1.0000    93.4636
 44      0.0000     0.0000E+00    0.0000E+00    1.100000E+10  0.05000  6.532E-06    0   0.5070   age185_m72            0.0000     2.9170E+03    22.2826  -1.0000    84.1687
 45      0.0000     0.0000E+00    0.0000E+00    1.300000E+10  0.05000  5.316E-06    0   0.5018   age193_m72            0.0000     3.4742E+03    24.2513  -1.0000    81.2682


## Synthesis Results - Average & Chains ##

# j      x_j: min, <> & last-chain-values for 1 ...  7 chains
  1      0.0000      0.0019      0.0000      0.0000      0.0000      0.0000      0.0000      0.0000      0.0000
  2     13.8537     13.6211     13.7845     13.7833     13.7781     13.8658     13.8245     13.9500     13.8297
  3      0.0000      0.0205      0.0000      0.0000      0.0000      0.0000      0.0000      0.0000      0.0000
  4      0.0000      0.0574      0.1704      0.1317      0.0000      0.0292      0.0341      0.0000      0.0013
  5      0.0000      0.0253      0.0000      0.0000      0.0000      0.0000      0.0160      0.0000      0.0000
  6      0.0000      0.0259      0.0000      0.0119      0.0544      0.0000      0.0000      0.0000      0.0000
  7     15.8386     14.5137     14.6192     14.5723     14.7298     14.6803     14.5669     14.5897     14.6514
  8      0.0000      0.0313      0.0000      0.0000      0.0000      0.0559      0.0000      0.0000      0.0000
  9      0.0000      0.0633      0.0000      0.1442      0.0000      0.0000      0.0000      0.1348      0.0079
 10      4.9331      6.3770      6.3677      6.4674      6.3310      6.0957      6.3640      6.2803      6.4381
 11      0.0000      0.1145      0.1779      0.0000      0.0000      0.0000      0.1582      0.0000      0.1902
 12     68.2396     67.4099     67.6050     67.5638     67.5113     67.8268     67.4831     67.7063     67.1433
 13      0.0235      0.1385      0.0872      0.0342      0.2070      0.2057      0.1957      0.0016      0.2218
 14      0.0000      0.0573      0.0530      0.0000      0.0000      0.0000      0.0000      0.0000      0.0924
 15      0.0000      0.0470      0.0000      0.1279      0.2087      0.0000      0.0000      0.0943      0.1157
 16      0.0000      0.0031      0.0000      0.0000      0.0000      0.0000      0.0000      0.0000      0.0000
 17      0.0000      0.0024      0.0000      0.0000      0.0000      0.0000      0.0000      0.0000      0.0000
 18      0.0000      0.0425      0.0000      0.0000      0.0000      0.0116      0.0953      0.0000      0.1311
 19      0.0000      0.0075      0.0000      0.0000      0.0000      0.0000      0.0000      0.0000      0.0000
 20      0.0000      0.0057      0.0000      0.0000      0.0000      0.0000      0.0000      0.0000      0.0000
 21      0.0000      0.0142      0.0000      0.0000      0.0000      0.0103      0.0000      0.0006      0.0054
 22      0.0000      0.0221      0.0043      0.0000      0.0386      0.0000      0.1400      0.0000      0.0000
 23      0.0000      0.0161      0.0000      0.0000      0.0000      0.0509      0.0000      0.0000      0.0000
 24      0.0000      0.0125      0.0000      0.0000      0.0000      0.0000      0.0000      0.0000      0.0000
 25      0.0000      0.0254      0.0000      0.0000      0.0000      0.0010      0.0000      0.0000      0.0000
 26      0.0000      0.0248      0.0000      0.0000      0.0000      0.0000      0.0000      0.0000      0.0628
 27      0.0000      0.0305      0.0580      0.0000      0.0000      0.0000      0.0000      0.0000      0.0000
 28      0.0000      0.0185      0.0000      0.0000      0.0000      0.0000      0.0000      0.0000      0.0000
 29      0.0000      0.0101      0.0000      0.0538      0.0000      0.0000      0.0000      0.0000      0.0000
 30      0.0000      0.0089      0.0232      0.0000      0.0000      0.0000      0.0000      0.0000      0.0000
 31      0.0000      0.0033      0.0000      0.0000      0.0000      0.0000      0.0000      0.0000      0.0000
 32      0.0000      0.0071      0.0000      0.0000      0.0000      0.0000      0.0000      0.0000      0.0000
 33      0.0000      0.0123      0.0000      0.0000      0.0000      0.0000      0.0000      0.0000      0.0000
 34      0.0000      0.0035      0.0000      0.0000      0.0000      0.0000      0.0000      0.0000      0.0000
 35      0.0000      0.0055      0.0000      0.0000      0.0000      0.0000      0.0000      0.0000      0.0000
 36      0.0000      0.0182      0.0000      0.0000      0.0000      0.0055      0.0000      0.0431      0.0000
 37      0.0000      0.0173      0.0000      0.0000      0.0079      0.0482      0.0000      0.0000      0.0000
 38      0.0000      0.0151      0.0000      0.0000      0.0000      0.0000      0.0000      0.0000      0.0000
 39      0.0000      0.0302      0.0000      0.0000      0.0412      0.0000      0.0373      0.0000      0.0000
 40      0.0000      0.0500      0.0000      0.0000      0.0000      0.0000      0.0000      0.0000      0.0000
 41      0.0000      0.0266      0.0000      0.0131      0.0508      0.0000      0.0000      0.1157      0.0486
 42      0.0000      0.0132      0.0000      0.0819      0.0000      0.0000      0.0197      0.0000      0.0000
 43      0.0000      0.0060      0.0000      0.0000      0.0000      0.0151      0.0000      0.0000      0.0000
 44      0.0000      0.0072      0.0000      0.0000      0.0000      0.0268      0.0000      0.0249      0.0000
 45      0.0000      0.0157      0.0000      0.0000      0.0000      0.0000      0.0000      0.0000      0.0000

# j      m_j: min, <> & last-chain-values for 1 ...  7 chains
  1  0.0000E+00  4.1837E-05  0.0000E+00  0.0000E+00  0.0000E+00  0.0000E+00  0.0000E+00  0.0000E+00  0.0000E+00
  2  8.6376E-02  8.3557E-02  8.5344E-02  8.4698E-02  8.4621E-02  8.5574E-02  8.6053E-02  8.6074E-02  8.5218E-02
  3  0.0000E+00  1.9139E-04  0.0000E+00  0.0000E+00  0.0000E+00  0.0000E+00  0.0000E+00  0.0000E+00  0.0000E+00
  4  0.0000E+00  1.0006E-03  2.9966E-03  2.2983E-03  0.0000E+00  5.1143E-04  6.0361E-04  0.0000E+00  2.2285E-05
  5  0.0000E+00  1.0184E-03  0.0000E+00  0.0000E+00  0.0000E+00  0.0000E+00  6.5530E-04  0.0000E+00  0.0000E+00
  6  0.0000E+00  1.4484E-03  0.0000E+00  6.6775E-04  3.0495E-03  0.0000E+00  0.0000E+00  0.0000E+00  0.0000E+00
  7  1.2783E+00  1.1524E+00  1.1716E+00  1.1591E+00  1.1710E+00  1.1727E+00  1.1737E+00  1.1652E+00  1.1686E+00
  8  0.0000E+00  4.7976E-03  0.0000E+00  0.0000E+00  0.0000E+00  8.6164E-03  0.0000E+00  0.0000E+00  0.0000E+00
  9  0.0000E+00  1.9296E-02  0.0000E+00  4.4053E-02  0.0000E+00  0.0000E+00  0.0000E+00  4.1354E-02  2.4233E-03
 10  2.1350E+00  2.7155E+00  2.7366E+00  2.7587E+00  2.6991E+00  2.6114E+00  2.7498E+00  2.6899E+00  2.7538E+00
 11  0.0000E+00  8.5616E-02  1.3427E-01  0.0000E+00  0.0000E+00  0.0000E+00  1.2002E-01  0.0000E+00  1.4290E-01
 12  9.6434E+01  9.3726E+01  9.4870E+01  9.4102E+01  9.3979E+01  9.4878E+01  9.5208E+01  9.4687E+01  9.3775E+01
 13  6.6135E-02  3.8360E-01  2.4367E-01  9.4810E-02  5.7379E-01  5.7288E-01  5.4978E-01  4.4973E-03  6.1693E-01
 14  0.0000E+00  3.2311E-01  3.0197E-01  0.0000E+00  0.0000E+00  0.0000E+00  0.0000E+00  0.0000E+00  5.2407E-01
 15  0.0000E+00  3.0736E-01  0.0000E+00  8.3756E-01  1.3659E+00  0.0000E+00  0.0000E+00  6.2033E-01  7.5986E-01
 16  0.0000E+00  3.8396E-05  0.0000E+00  0.0000E+00  0.0000E+00  0.0000E+00  0.0000E+00  0.0000E+00  0.0000E+00
 17  0.0000E+00  1.5688E-05  0.0000E+00  0.0000E+00  0.0000E+00  0.0000E+00  0.0000E+00  0.0000E+00  0.0000E+00
 18  0.0000E+00  3.0756E-04  0.0000E+00  0.0000E+00  0.0000E+00  8.4125E-05  6.9974E-04  0.0000E+00  9.5284E-04
 19  0.0000E+00  1.6182E-04  0.0000E+00  0.0000E+00  0.0000E+00  0.0000E+00  0.0000E+00  0.0000E+00  0.0000E+00
 20  0.0000E+00  2.7287E-04  0.0000E+00  0.0000E+00  0.0000E+00  0.0000E+00  0.0000E+00  0.0000E+00  0.0000E+00
 21  0.0000E+00  8.2113E-04  0.0000E+00  0.0000E+00  0.0000E+00  6.0067E-04  0.0000E+00  3.4620E-05  3.1371E-04
 22  0.0000E+00  2.1281E-03  4.2123E-04  0.0000E+00  3.7099E-03  0.0000E+00  1.3647E-02  0.0000E+00  0.0000E+00
 23  0.0000E+00  3.0428E-03  0.0000E+00  0.0000E+00  0.0000E+00  9.6654E-03  0.0000E+00  0.0000E+00  0.0000E+00
 24  0.0000E+00  5.4105E-03  0.0000E+00  0.0000E+00  0.0000E+00  0.0000E+00  0.0000E+00  0.0000E+00  0.0000E+00
 25  0.0000E+00  1.6875E-02  0.0000E+00  0.0000E+00  0.0000E+00  6.6985E-04  0.0000E+00  0.0000E+00  0.0000E+00
 26  0.0000E+00  3.1142E-02  0.0000E+00  0.0000E+00  0.0000E+00  0.0000E+00  0.0000E+00  0.0000E+00  7.9132E-02
 27  0.0000E+00  7.7640E-02  1.4897E-01  0.0000E+00  0.0000E+00  0.0000E+00  0.0000E+00  0.0000E+00  0.0000E+00
 28  0.0000E+00  9.5249E-02  0.0000E+00  0.0000E+00  0.0000E+00  0.0000E+00  0.0000E+00  0.0000E+00  0.0000E+00
 29  0.0000E+00  1.0976E-01  0.0000E+00  5.8774E-01  0.0000E+00  0.0000E+00  0.0000E+00  0.0000E+00  0.0000E+00
 30  0.0000E+00  1.1604E-01  3.0431E-01  0.0000E+00  0.0000E+00  0.0000E+00  0.0000E+00  0.0000E+00  0.0000E+00
 31  0.0000E+00  3.1528E-05  0.0000E+00  0.0000E+00  0.0000E+00  0.0000E+00  0.0000E+00  0.0000E+00  0.0000E+00
 32  0.0000E+00  3.5047E-05  0.0000E+00  0.0000E+00  0.0000E+00  0.0000E+00  0.0000E+00  0.0000E+00  0.0000E+00
 33  0.0000E+00  9.0779E-05  0.0000E+00  0.0000E+00  0.0000E+00  0.0000E+00  0.0000E+00  0.0000E+00  0.0000E+00
