###################################################################
## OUTPUT of StarlightChains_v04.for    [Cid@UFSC - 01/Apr/2007] ##
###################################################################

## Some input info
NGC5986_a_1.cxt                          [arq_obs]
Base.BC03.N                              [arq_base]
NGC5986_a_1.msk                          [arq_masks]
StCv04.C99.config                        [arq_config]
   45                                    [N_base]
    0                                    [N_YAV_components = # of components with extra extinction!]
    0                                    [i_FitPowerLaw (1/0 = Yes/No)]
-9.99                                    [alpha_PowerLaw]
CCM                                      [red_law_option]
 1.458241                                [q_norm = A(l_norm)/A(V)]

## (Re)Sampling Parameters
 3359.00                                 [l_ini (A)]
 6428.00                                 [l_fin (A)]
    1.00                                 [dl    (A)]     (OBS: dl_cushion =    50.00 A)

## Normalization info
 4020.00                                 [l_norm (A) - for base]
 4010.00                                 [llow_norm (A) - window for f_obs]
 4060.00                                 [lupp_norm (A) - window for f_obs]
1.970425E-14                             [fobs_norm (in input units)]

## S/N
 4730.00                                 [llow_SN (A) - window for S/N]
 4780.00                                 [lupp_SN (A) - window for S/N]
 120.453                                 [S/N in S/N window]
 104.720                                 [S/N in norm. window]
  85.601                                 [S/N_err in S/N window]
  74.420                                 [S/N_err in norm. window]
  1.0000                                 [fscale_chi2]

## etc...
  2147483629                             [idum_orig]
  3069                                   [NOl_eff]
  1632                                   [Nl_eff]
  1437    NSIGMA                         [Ntot_cliped & clip_method]
  1646120                                [Nglobal_steps]
   7                                     [N_chains]
  10                                     [NEX0s_base = N_base in EX0s-fits]
 0   0   1       80   2.0   6.651E+02    [Clip-Bug, RC-Crash & Burn-In warning-flags, n_censored_weights, wei_nsig_threshold & wei_limit]
    22     22.871     22.867      0.004  [idt_all, wdt_TotTime, wdt_UsrTime & wdt_SysTime (sec)]

## Synthesis Results - Best model ##

 2.41163E+00                             [chi2/Nl_eff]
     1.73799                             [adev (%)]

   102.69218                             [sum-of-x (%)]
 7.81914E-14                             [Flux_tot (units of input spectrum!)]
 6.82898E-10                             [Mini_tot (???)]
 3.65145E-10                             [Mcor_tot (???)]

 -25.51                                  [v0_min  (km/s)]
  98.14                                  [vd_min  (km/s)]
 1.0065                                  [AV_min  (mag)]
 0.0000                                  [YAV_min (mag)]

# j     x_j(%)      Mini_j(%)     Mcor_j(%)     age_j(yr)     Z_j      (L/M)_j    YAV?  Mstars   component_j        a/Fe...       SSP_chi2r SSP_adev(%)   SSP_AV   SSP_x(%)
  1      0.0000     0.0000E+00    0.0000E+00    1.000000E+06  0.00400  1.114E-02    0   1.0000   age020_m42            0.0000     1.4219E+02     8.2581   4.0000    75.2123
  2      3.2704     8.9526E-03    1.6741E-02    3.160000E+06  0.00400  4.073E-02    0   0.9999   age045_m42            0.0000     2.9454E+01     3.6635   3.1178    88.4897
  3      0.0000     0.0000E+00    0.0000E+00    5.010000E+06  0.00400  2.534E-02    0   0.9488   age055_m42            0.0000     7.1638E+01     6.1333   3.5492    80.9115
  4      9.3053     8.1630E-02    1.3529E-01    1.000000E+07  0.00400  1.271E-02    0   0.8862   age070_m42            0.0000     6.4377E+01     6.7454   2.7370    85.6116
  5      0.0006     1.3189E-05    2.0162E-05    2.512000E+07  0.00400  5.070E-03    0   0.8174   age090_m42            0.0000     5.8846E+01     6.4508   2.6141    86.9932
  6      0.0000     0.0000E+00    0.0000E+00    4.000000E+07  0.00400  3.505E-03    0   0.7851   age104_m42            0.0000     3.9537E+01     5.0482   2.2994    90.2007
  7      5.9271     2.9139E-01    3.9275E-01    1.015200E+08  0.00400  2.268E-03    0   0.7207   age116_m42            0.0000     3.3402E+01     4.3395   2.2231   103.8741
  8      0.0000     0.0000E+00    0.0000E+00    2.861200E+08  0.00400  1.079E-03    0   0.6613   age125_m42            0.0000     3.7456E+01     4.7413   1.7421   105.6091
  9     10.2294     2.2465E+00    2.6036E+00    6.405400E+08  0.00400  5.077E-04    0   0.6197   age132_m42            0.0000     4.2794E+01     4.9793   1.3711   110.1689
 10     45.4667     1.4341E+01    1.6156E+01    9.047900E+08  0.00400  3.535E-04    0   0.6024   age135_m42            0.0000     2.0969E+01     3.8563   1.1447   108.7166
 11      0.0023     1.3671E-03    1.4614E-03    1.434000E+09  0.00400  1.910E-04    0   0.5716   age139_m42            0.0000     8.5043E+00     2.9707   0.6487   106.2045
 12      0.0000     0.0000E+00    0.0000E+00    2.500000E+09  0.00400  9.818E-05    0   0.5463   age150_m42            0.0000     1.4537E+01     3.2752   0.4065    99.9577
 13     26.2994     6.2152E+01    6.0769E+01    5.000000E+09  0.00400  4.718E-05    0   0.5228   age161_m42            0.0000     2.7903E+01     4.0210   0.2548    95.8961
 14      0.0000     0.0000E+00    0.0000E+00    1.100000E+10  0.00400  2.205E-05    0   0.4980   age185_m42            0.0000     5.0020E+01     5.2091   0.0082    93.3980
 15      0.0000     0.0000E+00    0.0000E+00    1.300000E+10  0.00400  1.883E-05    0   0.4927   age193_m42            0.0000     5.3827E+01     5.3872  -0.0065    93.1446
 16      0.0000     0.0000E+00    0.0000E+00    1.000000E+06  0.02000  1.989E-02    0   1.0000   age020_m62            0.0000     1.3957E+02     8.3612   4.0000    75.0163
 17      0.0000     0.0000E+00    0.0000E+00    3.160000E+06  0.02000  3.772E-02    0   0.9858   age045_m62            0.0000     1.2310E+02     8.2685   3.9551    75.0848
 18      0.0019     6.6289E-06    1.1582E-05    5.010000E+06  0.02000  3.227E-02    0   0.9342   age055_m62            0.0000     4.6155E+01     5.0362   3.3851    84.7600
 19      0.0000     0.0000E+00    0.0000E+00    1.000000E+07  0.02000  1.011E-02    0   0.8751   age070_m62            0.0000     1.5737E+02    11.1096   2.7937    80.0656
 20      0.0000     0.0000E+00    0.0000E+00    2.512000E+07  0.02000  4.206E-03    0   0.8099   age090_m62            0.0000     1.1988E+02     9.2603   2.7347    81.0272
 21      0.0000     0.0000E+00    0.0000E+00    4.000000E+07  0.02000  3.373E-03    0   0.7799   age104_m62            0.0000     3.1348E+01     4.6846   2.5026    92.0800
 22      0.0000     0.0000E+00    0.0000E+00    1.015200E+08  0.02000  1.878E-03    0   0.7221   age116_m62            0.0000     2.5190E+01     3.8027   2.2646   103.3716
 23      0.0000     0.0000E+00    0.0000E+00    2.861200E+08  0.02000  8.869E-04    0   0.6700   age125_m62            0.0000     8.1597E+01     6.3559   1.7444   111.3778
 24      0.0000     0.0000E+00    0.0000E+00    6.405400E+08  0.02000  3.657E-04    0   0.6322   age132_m62            0.0000     4.9420E+01     5.6049   1.0866   114.0878
 25      0.0000     0.0000E+00    0.0000E+00    9.047900E+08  0.02000  2.312E-04    0   0.6152   age135_m62            0.0000     2.5755E+01     4.6066   0.7266   112.3294
 26      0.0000     0.0000E+00    0.0000E+00    1.434000E+09  0.02000  1.168E-04    0   0.5865   age139_m62            0.0000     1.6365E+01     3.7465   0.3472   104.4485
 27      0.0000     0.0000E+00    0.0000E+00    2.500000E+09  0.02000  5.505E-05    0   0.5610   age150_m62            0.0000     3.5984E+01     4.9995  -0.0023   100.6426
 28      0.0000     0.0000E+00    0.0000E+00    5.000000E+09  0.02000  2.596E-05    0   0.5353   age161_m62            0.0000     6.2740E+01     6.5025  -0.3186   100.2528
 29      2.1889     2.0878E+01    1.9925E+01    1.100000E+10  0.02000  1.169E-05    0   0.5103   age185_m62            0.0000     9.1413E+01     7.8591  -0.6733   101.5404
 30      0.0000     0.0000E+00    0.0000E+00    1.300000E+10  0.02000  9.691E-06    0   0.5047   age193_m62            0.0000     9.7050E+01     8.0779  -0.7183   101.7569
 31      0.0000     0.0000E+00    0.0000E+00    1.000000E+06  0.05000  2.651E-02    0   0.9998   age020_m72            0.0000     1.3121E+02     7.9444   4.0000    75.9692
 32      0.0000     0.0000E+00    0.0000E+00    3.160000E+06  0.05000  4.817E-02    0   0.9577   age045_m72            0.0000     8.7556E+01     6.7290   3.7953    78.9866
 33      0.0000     0.0000E+00    0.0000E+00    5.010000E+06  0.05000  3.101E-02    0   0.9147   age055_m72            0.0000     8.2224E+01     6.7883   3.4235    81.8331
 34      0.0000     0.0000E+00    0.0000E+00    1.000000E+07  0.05000  8.954E-03    0   0.8524   age070_m72            0.0000     8.8659E+01     7.0127   3.6766    79.9665
 35      0.0000     0.0000E+00    0.0000E+00    2.512000E+07  0.05000  4.207E-03    0   0.7902   age090_m72            0.0000     4.4585E+01     5.0594   3.2203    86.6814
 36      0.0000     0.0000E+00    0.0000E+00    4.000000E+07  0.05000  3.198E-03    0   0.7618   age104_m72            0.0000     1.5496E+01     3.2129   2.6593    97.7605
 37      0.0000     0.0000E+00    0.0000E+00    1.015200E+08  0.05000  1.716E-03    0   0.7092   age116_m72            0.0000     3.4757E+01     4.3682   2.3451   103.8907
 38      0.0000     0.0000E+00    0.0000E+00    2.861200E+08  0.05000  7.047E-04    0   0.6618   age125_m72            0.0000     8.0747E+01     6.4808   1.5366   112.1540
 39      0.0000     0.0000E+00    0.0000E+00    6.405400E+08  0.05000  2.633E-04    0   0.6253   age132_m72            0.0000     3.8835E+01     5.2319   0.7108   113.5170
 40      0.0000     0.0000E+00    0.0000E+00    9.047900E+08  0.05000  1.484E-04    0   0.6088   age135_m72            0.0000     2.4219E+01     4.4955   0.2658   106.4848
 41      0.0000     0.0000E+00    0.0000E+00    1.434000E+09  0.05000  7.827E-05    0   0.5847   age139_m72            0.0000     4.5070E+01     5.7314  -0.0936   101.6403
 42      0.0000     0.0000E+00    0.0000E+00    2.500000E+09  0.05000  3.759E-05    0   0.5583   age150_m72            0.0000     6.8402E+01     6.8772  -0.3975   100.0738
 43      0.0000     0.0000E+00    0.0000E+00    5.000000E+09  0.05000  1.548E-05    0   0.5320   age161_m72            0.0000     9.6039E+01     8.1489  -0.8077    99.8002
 44      0.0000     0.0000E+00    0.0000E+00    1.100000E+10  0.05000  6.532E-06    0   0.5070   age185_m72            0.0000     1.3853E+02     9.8153  -1.0000    94.3130
 45      0.0000     0.0000E+00    0.0000E+00    1.300000E+10  0.05000  5.316E-06    0   0.5018   age193_m72            0.0000     1.7007E+02    10.7809  -1.0000    90.8526


## Synthesis Results - Average & Chains ##

# j      x_j: min, <> & last-chain-values for 1 ...  7 chains
  1      0.0000      0.0189      0.0000      0.0000      0.0000      0.0000      0.0000      0.0000      0.0000
  2      3.2704      0.8143      1.2346      1.4751      1.2680      0.9078      1.2897      1.3042      0.8865
  3      0.0000      0.1170      0.0000      0.0799      0.2615      0.0509      0.0000      0.2131      0.1019
  4      9.3053      7.8754      8.0982      8.1018      8.0289      7.9434      7.8658      8.0928      7.9295
  5      0.0006      1.1024      1.1801      1.0516      1.2235      1.6198      0.9604      1.4282      1.1374
  6      0.0000      0.0727      0.0000      0.0547      0.0000      0.0000      0.0000      0.0000      0.0000
  7      5.9271      6.0797      5.9981      6.1573      6.0629      5.9484      6.3057      6.0517      5.7537
  8      0.0000      0.1706      0.3913      0.0336      0.1732      0.1449      0.2216      0.0168      0.1752
  9     10.2294     10.4435     10.4905     10.4094     10.1346     10.9023     10.6511     10.7713     10.6899
 10     45.4667     43.9175     44.0774     44.0006     44.4676     44.1221     43.6747     44.2326     44.6577
 11      0.0023      0.1776      0.0000      0.6796      0.2475      0.0000      0.0000      0.0000      0.0622
 12      0.0000      0.0872      0.0202      0.2220      0.0156      0.3549      0.0872      0.4439      0.0000
 13     26.2994     28.2850     28.2461     27.7374     28.2686     27.6822     28.4867     27.9983     27.9456
 14      0.0000      0.0253      0.0000      0.0000      0.0114      0.0000      0.0000      0.0000      0.0000
 15      0.0000      0.0178      0.0669      0.0000      0.0270      0.0000      0.0000      0.0000      0.0000
 16      0.0000      0.0167      0.0000      0.0000      0.0000      0.0000      0.0000      0.0000      0.0000
 17      0.0000      0.0179      0.0000      0.0000      0.0000      0.0000      0.0406      0.0000      0.0000
 18      0.0019      0.5368      0.5359      0.6375      0.4588      0.5949      0.5621      0.2941      0.9192
 19      0.0000      0.0908      0.0000      0.0000      0.0000      0.1935      0.0000      0.0000      0.0000
 20      0.0000      0.0195      0.0000      0.0000      0.0106      0.0000      0.0000      0.0010      0.0000
 21      0.0000      0.0314      0.0000      0.0000      0.0000      0.0000      0.0000      0.0000      0.0000
 22      0.0000      0.1738      0.0000      0.0000      0.0000      0.0000      0.2029      0.0000      0.1950
 23      0.0000      0.0533      0.0807      0.0140      0.0000      0.0000      0.0000      0.0000      0.0000
 24      0.0000      0.0213      0.0000      0.0000      0.0000      0.0000      0.0000      0.0114      0.0000
 25      0.0000      0.0232      0.0000      0.0000      0.0000      0.0000      0.0000      0.0000      0.0027
 26      0.0000      0.0408      0.0000      0.0000      0.0080      0.0000      0.0000      0.0000      0.0000
 27      0.0000      0.0442      0.2060      0.0000      0.0011      0.0000      0.0000      0.0000      0.0000
 28      0.0000      0.0322      0.0289      0.0000      0.0000      0.1784      0.0000      0.0000      0.0000
 29      2.1889      0.5421      0.5889      0.6077      0.4794      0.6055      0.5585      0.2847      0.6085
 30      0.0000      0.4155      0.3551      0.2973      0.2891      0.4253      0.3851      0.6003      0.4815
 31      0.0000      0.0134      0.0000      0.0105      0.0000      0.0000      0.0000      0.0000      0.0000
 32      0.0000      0.0412      0.0000      0.0152      0.0000      0.0000      0.0537      0.0000      0.1592
 33      0.0000      0.0408      0.0000      0.0000      0.0000      0.0000      0.2272      0.0000      0.0000
 34      0.0000      0.0208      0.0057      0.0225      0.0000      0.0000      0.0000      0.0000      0.0000
 35      0.0000      0.0228      0.0000      0.0037      0.0000      0.0000      0.0000      0.0000      0.0000
 36      0.0000      0.0382      0.0877      0.0000      0.0000      0.0000      0.0000      0.0000      0.0000
 37      0.0000      0.0760      0.0000      0.0244      0.0118      0.0450      0.1485      0.0000      0.0024
 38      0.0000      0.0365      0.0000      0.0000      0.0000      0.0000      0.0059      0.0000      0.0031
 39      0.0000      0.0290      0.0000      0.0000      0.0000      0.0000      0.0000      0.0000      0.0229
 40      0.0000      0.0600      0.0000      0.0000      0.0000      0.0000      0.0000      0.0000      0.0000
 41      0.0000      0.0271      0.0412      0.0000      0.1174      0.0000      0.0000      0.0076      0.0000
 42      0.0000      0.0477      0.0000      0.0097      0.1623      0.0747      0.0000      0.0000      0.0000
 43      0.0000      0.1743      0.2046      0.2260      0.1709      0.0000      0.2213      0.0000      0.1583
 44      0.0000      0.4565      0.4761      0.4690      0.4322      0.4611      0.3589      0.5202      0.4559
 45      0.0000      0.4650      0.4096      0.3979      0.4006      0.5158      0.4588      0.5040      0.4904

# j      m_j: min, <> & last-chain-values for 1 ...  7 chains
  1  0.0000E+00  3.1508E-04  0.0000E+00  0.0000E+00  0.0000E+00  0.0000E+00  0.0000E+00  0.0000E+00  0.0000E+00
  2  1.6741E-02  3.7064E-03  5.6585E-03  6.8978E-03  5.9565E-03  4.1427E-03  5.9758E-03  5.9761E-03  4.0255E-03
  3  0.0000E+00  8.1212E-04  0.0000E+00  5.6951E-04  1.8738E-03  3.5400E-04  0.0000E+00  1.4897E-03  7.0552E-04
  4  1.3529E-01  1.0181E-01  1.0541E-01  1.0760E-01  1.0712E-01  1.0296E-01  1.0351E-01  1.0533E-01  1.0227E-01
  5  2.0162E-05  3.2952E-02  3.5518E-02  3.2293E-02  3.7745E-02  4.8547E-02  2.9223E-02  4.2980E-02  3.3920E-02
  6  0.0000E+00  3.0174E-03  0.0000E+00  2.3330E-03  0.0000E+00  0.0000E+00  0.0000E+00  0.0000E+00  0.0000E+00
  7  3.9275E-01  3.5818E-01  3.5583E-01  3.7268E-01  3.6866E-01  3.5138E-01  3.7819E-01  3.5895E-01  3.3820E-01
  8  0.0000E+00  1.9383E-02  4.4777E-02  3.9170E-03  2.0317E-02  1.6508E-02  2.5636E-02  1.9173E-03  1.9865E-02
  9  2.6036E+00  2.3634E+00  2.3905E+00  2.4201E+00  2.3671E+00  2.4738E+00  2.4538E+00  2.4541E+00  2.4135E+00
 10  1.6156E+01  1.3876E+01  1.4023E+01  1.4282E+01  1.4500E+01  1.3977E+01  1.4047E+01  1.4070E+01  1.4077E+01
 11  1.4614E-03  9.8568E-02  0.0000E+00  3.8739E-01  1.4176E-01  0.0000E+00  0.0000E+00  0.0000E+00  3.4413E-02
 12  0.0000E+00  8.9907E-02  2.1003E-02  2.3527E-01  1.6637E-02  3.6712E-01  9.1539E-02  4.6100E-01  0.0000E+00
 13  6.0769E+01  5.8110E+01  5.8433E+01  5.8544E+01  5.9941E+01  5.7022E+01  5.9578E+01  5.7910E+01  5.7279E+01
 14  0.0000E+00  1.0600E-01  0.0000E+00  0.0000E+00  4.9229E-02  0.0000E+00  0.0000E+00  0.0000E+00  0.0000E+00
 15  0.0000E+00  8.6120E-02  3.2673E-01  0.0000E+00  1.3504E-01  0.0000E+00  0.0000E+00  0.0000E+00  0.0000E+00
 16  0.0000E+00  1.5587E-04  0.0000E+00  0.0000E+00  0.0000E+00  0.0000E+00  0.0000E+00  0.0000E+00  0.0000E+00
 17  0.0000E+00  8.6607E-05  0.0000E+00  0.0000E+00  0.0000E+00  0.0000E+00  2.0022E-04  0.0000E+00  0.0000E+00
 18  1.1582E-05  2.8813E-03  2.8961E-03  3.5150E-03  2.5414E-03  3.2015E-03  3.0710E-03  1.5894E-03  4.9220E-03
 19  0.0000E+00  1.4568E-03  0.0000E+00  0.0000E+00  0.0000E+00  3.1138E-03  0.0000E+00  0.0000E+00  0.0000E+00
 20  0.0000E+00  6.9685E-04  0.0000E+00  0.0000E+00  3.9041E-04  0.0000E+00  0.0000E+00  3.7604E-05  0.0000E+00
 21  0.0000E+00  1.3472E-03  0.0000E+00  0.0000E+00  0.0000E+00  0.0000E+00  0.0000E+00  0.0000E+00  0.0000E+00
 22  0.0000E+00  1.2389E-02  0.0000E+00  0.0000E+00  0.0000E+00  0.0000E+00  1.4722E-02  0.0000E+00  1.3872E-02
 23  0.0000E+00  7.4584E-03  1.1380E-02  2.0149E-03  0.0000E+00  0.0000E+00  0.0000E+00  0.0000E+00  0.0000E+00
 24  0.0000E+00  6.8242E-03  0.0000E+00  0.0000E+00  0.0000E+00  0.0000E+00  0.0000E+00  3.6652E-03  0.0000E+00
 25  0.0000E+00  1.1437E-02  0.0000E+00  0.0000E+00  0.0000E+00  0.0000E+00  0.0000E+00  0.0000E+00  1.3385E-03
 26  0.0000E+00  3.8009E-02  0.0000E+00  0.0000E+00  7.6622E-03  0.0000E+00  0.0000E+00  0.0000E+00  0.0000E+00
 27  0.0000E+00  8.3532E-02  3.9185E-01  0.0000E+00  2.2344E-03  0.0000E+00  0.0000E+00  0.0000E+00  0.0000E+00
 28  0.0000E+00  1.2315E-01  1.1128E-01  0.0000E+00  0.0000E+00  6.8397E-01  0.0000E+00  0.0000E+00  0.0000E+00
 29  1.9925E+01  4.3875E+00  4.7990E+00  5.0530E+00  4.0041E+00  4.9137E+00  4.6018E+00  2.3199E+00  4.9133E+00
 30  0.0000E+00  4.0119E+00  3.4524E+00  2.9494E+00  2.8815E+00  4.1171E+00  3.7852E+00  5.8354E+00  4.6384E+00
 31  0.0000E+00  9.3587E-05  0.0000E+00  7.5150E-05  0.0000E+00  0.0000E+00  0.0000E+00  0.0000E+00  0.0000E+00
 32  0.0000E+00  1.5200E-04  0.0000E+00  5.7409E-05  0.0000E+00  0.0000E+00  2.0134E-04  0.0000E+00  5.8562E-04
 33  0.0000E+00  2.2299E-04  0.0000E+00  0.0000E+00  0.0000E+00  0.0000E+00  1.2651E-03  0.0000E+00  0.0000E+00
