###################################################################
## OUTPUT of StarlightChains_v04.for    [Cid@UFSC - 01/Apr/2007] ##
###################################################################

## Some input info
NGC5927_b_1.cxt                          [arq_obs]
Base.BC03.N                              [arq_base]
NGC5927_b_1.msk                          [arq_masks]
StCv04.C99.config                        [arq_config]
   45                                    [N_base]
    0                                    [N_YAV_components = # of components with extra extinction!]
    0                                    [i_FitPowerLaw (1/0 = Yes/No)]
-9.99                                    [alpha_PowerLaw]
CCM                                      [red_law_option]
 1.458241                                [q_norm = A(l_norm)/A(V)]

## (Re)Sampling Parameters
 3359.00                                 [l_ini (A)]
 6428.00                                 [l_fin (A)]
    1.00                                 [dl    (A)]     (OBS: dl_cushion =    50.00 A)

## Normalization info
 4020.00                                 [l_norm (A) - for base]
 4010.00                                 [llow_norm (A) - window for f_obs]
 4060.00                                 [lupp_norm (A) - window for f_obs]
5.211403E-15                             [fobs_norm (in input units)]

## S/N
 4730.00                                 [llow_SN (A) - window for S/N]
 4780.00                                 [lupp_SN (A) - window for S/N]
  32.308                                 [S/N in S/N window]
  18.819                                 [S/N in norm. window]
 338.726                                 [S/N_err in S/N window]
 197.303                                 [S/N_err in norm. window]
  1.0000                                 [fscale_chi2]

## etc...
  2147483632                             [idum_orig]
  3067                                   [NOl_eff]
  1524                                   [Nl_eff]
  1543    NSIGMA                         [Ntot_cliped & clip_method]
  2149280                                [Nglobal_steps]
   7                                     [N_chains]
  13                                     [NEX0s_base = N_base in EX0s-fits]
 0   0   1      139   2.0   4.522E+02    [Clip-Bug, RC-Crash & Burn-In warning-flags, n_censored_weights, wei_nsig_threshold & wei_limit]
    26     25.684     25.684      0.000  [idt_all, wdt_TotTime, wdt_UsrTime & wdt_SysTime (sec)]

## Synthesis Results - Best model ##

 2.96462E+00                             [chi2/Nl_eff]
     2.26280                             [adev (%)]

    99.16849                             [sum-of-x (%)]
 2.96343E-14                             [Flux_tot (units of input spectrum!)]
 1.70529E-09                             [Mini_tot (???)]
 8.61818E-10                             [Mcor_tot (???)]

 -10.63                                  [v0_min  (km/s)]
  11.24                                  [vd_min  (km/s)]
 1.3003                                  [AV_min  (mag)]
 0.0000                                  [YAV_min (mag)]

# j     x_j(%)      Mini_j(%)     Mcor_j(%)     age_j(yr)     Z_j      (L/M)_j    YAV?  Mstars   component_j        a/Fe...       SSP_chi2r SSP_adev(%)   SSP_AV   SSP_x(%)
  1      4.0682     6.3994E-03    1.2663E-02    1.000000E+06  0.00400  1.114E-02    0   1.0000   age020_m42            0.0000     2.1990E+03    33.5627   4.0000    99.9962
  2      9.9054     4.2617E-03    8.4318E-03    3.160000E+06  0.00400  4.073E-02    0   0.9999   age045_m42            0.0000     5.2946E+02    11.2051   4.0000   102.4893
  3      4.3978     3.0412E-03    5.7096E-03    5.010000E+06  0.00400  2.534E-02    0   0.9488   age055_m42            0.0000     1.0422E+03    20.4954   4.0000   102.6301
  4      1.9508     2.6896E-03    4.7164E-03    1.000000E+07  0.00400  1.271E-02    0   0.8862   age070_m42            0.0000     4.4428E+02    10.6219   4.0000    95.3985
  5      0.0000     0.0000E+00    0.0000E+00    2.512000E+07  0.00400  5.070E-03    0   0.8174   age090_m42            0.0000     3.9664E+02    11.8577   4.0000    94.4353
  6      0.0000     0.0000E+00    0.0000E+00    4.000000E+07  0.00400  3.505E-03    0   0.7851   age104_m42            0.0000     3.2249E+02     9.4365   3.6594    96.8492
  7      0.0000     0.0000E+00    0.0000E+00    1.015200E+08  0.00400  2.268E-03    0   0.7207   age116_m42            0.0000     5.9256E+02     8.0575   3.5957   103.7402
  8      0.0000     0.0000E+00    0.0000E+00    2.861200E+08  0.00400  1.079E-03    0   0.6613   age125_m42            0.0000     5.9206E+02     8.0733   3.1007   105.3465
  9      0.0000     0.0000E+00    0.0000E+00    6.405400E+08  0.00400  5.077E-04    0   0.6197   age132_m42            0.0000     5.9152E+02     8.3305   2.7288   109.8463
 10      0.0000     0.0000E+00    0.0000E+00    9.047900E+08  0.00400  3.535E-04    0   0.6024   age135_m42            0.0000     4.3866E+02     7.4723   2.4752   109.4510
 11      0.0000     0.0000E+00    0.0000E+00    1.434000E+09  0.00400  1.910E-04    0   0.5716   age139_m42            0.0000     2.2977E+02     6.4936   1.9171   107.8479
 12      0.0000     0.0000E+00    0.0000E+00    2.500000E+09  0.00400  9.818E-05    0   0.5463   age150_m42            0.0000     8.9152E+01     5.4357   1.6111   103.6704
 13      3.6814     1.3674E+00    1.4145E+00    5.000000E+09  0.00400  4.718E-05    0   0.5228   age161_m42            0.0000     3.7327E+01     4.4664   1.4406   100.5880
 14     27.4302     2.1799E+01    2.1481E+01    1.100000E+10  0.00400  2.205E-05    0   0.4980   age185_m42            0.0000     2.5889E+01     5.3434   1.1509    98.3190
 15      4.6336     4.3121E+00    4.2039E+00    1.300000E+10  0.00400  1.883E-05    0   0.4927   age193_m42            0.0000     2.6863E+01     5.3730   1.1351    98.1335
 16      0.0000     0.0000E+00    0.0000E+00    1.000000E+06  0.02000  1.989E-02    0   1.0000   age020_m62            0.0000     2.1322E+03    32.6276   4.0000   100.5464
 17      0.0000     0.0000E+00    0.0000E+00    3.160000E+06  0.02000  3.772E-02    0   0.9858   age045_m62            0.0000     1.8230E+03    29.5247   4.0000   101.9458
 18      0.0000     0.0000E+00    0.0000E+00    5.010000E+06  0.02000  3.227E-02    0   0.9342   age055_m62            0.0000     8.3651E+02    17.4328   4.0000   103.4395
 19      0.0523     9.0670E-05    1.5700E-04    1.000000E+07  0.02000  1.011E-02    0   0.8751   age070_m62            0.0000     5.8353E+02    14.4658   4.0000    94.4472
 20      0.0000     0.0000E+00    0.0000E+00    2.512000E+07  0.02000  4.206E-03    0   0.8099   age090_m62            0.0000     4.7631E+02    13.1968   4.0000    92.9785
 21      0.0000     0.0000E+00    0.0000E+00    4.000000E+07  0.02000  3.373E-03    0   0.7799   age104_m62            0.0000     4.0488E+02     9.2714   3.8794    97.9559
 22      0.0000     0.0000E+00    0.0000E+00    1.015200E+08  0.02000  1.878E-03    0   0.7221   age116_m62            0.0000     5.9021E+02     7.7526   3.6536   104.1974
 23      0.0000     0.0000E+00    0.0000E+00    2.861200E+08  0.02000  8.869E-04    0   0.6700   age125_m62            0.0000     8.0306E+02     9.1806   3.1237   109.5071
 24      0.0000     0.0000E+00    0.0000E+00    6.405400E+08  0.02000  3.657E-04    0   0.6322   age132_m62            0.0000     5.5297E+02     9.5673   2.3807   112.7257
 25      0.0000     0.0000E+00    0.0000E+00    9.047900E+08  0.02000  2.312E-04    0   0.6152   age135_m62            0.0000     3.4663E+02     8.8639   1.9792   112.1944
 26      0.0000     0.0000E+00    0.0000E+00    1.434000E+09  0.02000  1.168E-04    0   0.5865   age139_m62            0.0000     1.2725E+02     6.9563   1.5425   106.9957
 27      0.0000     0.0000E+00    0.0000E+00    2.500000E+09  0.02000  5.505E-05    0   0.5610   age150_m62            0.0000     5.7457E+01     7.1327   1.1374   104.3434
 28      0.0000     0.0000E+00    0.0000E+00    5.000000E+09  0.02000  2.596E-05    0   0.5353   age161_m62            0.0000     7.5624E+01     9.2401   0.7701   103.8614
 29     19.9475     2.9902E+01    3.0193E+01    1.100000E+10  0.02000  1.169E-05    0   0.5103   age185_m62            0.0000     1.4298E+02    11.6210   0.3743   104.7172
 30     18.8752     3.4131E+01    3.4085E+01    1.300000E+10  0.02000  9.691E-06    0   0.5047   age193_m62            0.0000     1.5899E+02    11.9562   0.3262   104.8161
 31      0.0000     0.0000E+00    0.0000E+00    1.000000E+06  0.05000  2.651E-02    0   0.9998   age020_m72            0.0000     2.0810E+03    32.6356   4.0000   101.5143
 32      0.0000     0.0000E+00    0.0000E+00    3.160000E+06  0.05000  4.817E-02    0   0.9577   age045_m72            0.0000     1.4461E+03    26.1829   4.0000   103.9675
 33      0.0000     0.0000E+00    0.0000E+00    5.010000E+06  0.05000  3.101E-02    0   0.9147   age055_m72            0.0000     9.4534E+02    17.4612   4.0000   102.7802
 34      0.0000     0.0000E+00    0.0000E+00    1.000000E+07  0.05000  8.954E-03    0   0.8524   age070_m72            0.0000     1.2203E+03    23.2133   4.0000   103.9187
 35      0.0000     0.0000E+00    0.0000E+00    2.512000E+07  0.05000  4.207E-03    0   0.7902   age090_m72            0.0000     6.2338E+02    13.2567   4.0000   103.0944
 36      0.0000     0.0000E+00    0.0000E+00    4.000000E+07  0.05000  3.198E-03    0   0.7618   age104_m72            0.0000     4.9737E+02     7.0456   3.9904   100.8458
 37      0.0000     0.0000E+00    0.0000E+00    1.015200E+08  0.05000  1.716E-03    0   0.7092   age116_m72            0.0000     6.5014E+02     7.8434   3.7332   104.2208
 38      0.0000     0.0000E+00    0.0000E+00    2.861200E+08  0.05000  7.047E-04    0   0.6618   age125_m72            0.0000     7.4196E+02     9.4947   2.8863   109.8708
 39      0.0000     0.0000E+00    0.0000E+00    6.405400E+08  0.05000  2.633E-04    0   0.6253   age132_m72            0.0000     4.0618E+02     9.4032   1.9837   112.0134
 40      0.0000     0.0000E+00    0.0000E+00    9.047900E+08  0.05000  1.484E-04    0   0.6088   age135_m72            0.0000     1.7290E+02     8.5570   1.4643   107.3918
 41      0.0000     0.0000E+00    0.0000E+00    1.434000E+09  0.05000  7.827E-05    0   0.5847   age139_m72            0.0000     8.9541E+01     8.9998   1.0273   104.2685
 42      0.0000     0.0000E+00    0.0000E+00    2.500000E+09  0.05000  3.759E-05    0   0.5583   age150_m72            0.0000     9.1075E+01     9.9320   0.6820   103.4864
 43      2.2376     2.5330E+00    2.6665E+00    5.000000E+09  0.05000  1.548E-05    0   0.5320   age161_m72            0.0000     1.6088E+02    11.3339   0.2704   102.2128
 44      1.0029     2.6905E+00    2.6991E+00    1.100000E+10  0.05000  6.532E-06    0   0.5070   age185_m72            0.0000     2.9433E+02    14.7063  -0.1626   101.3893
 45      0.9855     3.2485E+00    3.2255E+00    1.300000E+10  0.05000  5.316E-06    0   0.5018   age193_m72            0.0000     3.5666E+02    16.0438  -0.3042   101.3065


## Synthesis Results - Average & Chains ##

# j      x_j: min, <> & last-chain-values for 1 ...  7 chains
  1      4.0682      4.2907      4.3116      4.2257      4.0839      4.2722      4.1665      4.4089      4.3674
  2      9.9054      7.4581      7.5997      7.7224      7.7290      7.4810      8.1726      7.7828      7.6170
  3      4.3978      4.2262      4.2099      4.0844      4.1531      4.4624      4.1115      4.1592      4.2795
  4      1.9508      2.4928      2.5416      2.4866      2.4013      2.4747      2.3073      2.5131      2.6130
  5      0.0000      0.0387      0.0000      0.1406      0.1890      0.0000      0.0544      0.0000      0.0000
  6      0.0000      0.0237      0.0000      0.0897      0.0000      0.0000      0.0000      0.0000      0.0418
  7      0.0000      0.0216      0.0000      0.0000      0.0000      0.0000      0.0118      0.0000      0.0000
  8      0.0000      0.0520      0.0379      0.0340      0.0000      0.1599      0.0000      0.0310      0.0359
  9      0.0000      0.2919      0.4538      0.4111      0.2683      0.2363      0.3025      0.4051      0.8170
 10      0.0000      0.2607      0.4183      0.2920      0.3519      0.1600      0.1942      0.3091      0.2286
 11      0.0000      0.1651      0.2562      0.0000      0.0000      0.0000      0.0000      0.1503      0.2189
 12      0.0000      0.1601      0.5199      0.0000      0.0000      0.0327      0.1317      0.0000      0.0022
 13      3.6814      3.6509      2.3512      3.3287      2.7770      3.1132      3.5773      2.9947      2.0044
 14     27.4302     29.0870     28.9307     29.1270     28.7719     29.5153     29.4561     29.1732     29.7465
 15      4.6336      1.5925      2.5975      2.4744      3.0709      1.8935      1.7916      2.1868      2.3053
 16      0.0000      0.3310      0.2442      0.3093      0.3789      0.3182      0.3030      0.2118      0.3568
 17      0.0000      0.0232      0.0741      0.0000      0.0000      0.0000      0.0068      0.0815      0.0310
 18      0.0000      0.0186      0.0000      0.0000      0.0000      0.1594      0.0000      0.0000      0.0431
 19      0.0523      0.4001      0.3040      0.4697      0.5250      0.3921      0.5087      0.4044      0.1898
 20      0.0000      0.0096      0.0000      0.0000      0.0000      0.0000      0.0000      0.0000      0.0000
 21      0.0000      0.0149      0.0000      0.0000      0.0000      0.0000      0.0000      0.0000      0.0000
 22      0.0000      0.0207      0.0000      0.0000      0.0000      0.0064      0.0000      0.0000      0.0000
 23      0.0000      0.0311      0.0079      0.0000      0.0000      0.0000      0.0655      0.0000      0.0479
 24      0.0000      0.0463      0.2224      0.0000      0.0000      0.0000      0.0000      0.0000      0.1567
 25      0.0000      0.0842      0.0764      0.1761      0.0000      0.1736      0.2170      0.0000      0.0802
 26      0.0000      0.0714      0.0467      0.0000      0.2169      0.0000      0.0928      0.0000      0.0000
 27      0.0000      0.0476      0.0082      0.0000      0.0000      0.0000      0.0155      0.1221      0.0000
 28      0.0000      0.0582      0.0000      0.0000      0.1051      0.0029      0.0000      0.0000      0.0000
 29     19.9475     21.2566     20.7511     21.0270     20.9547     20.9794     20.8977     21.0215     21.0705
 30     18.8752     18.9422     19.3012     19.0199     18.2563     19.0068     18.9595     18.6485     19.3359
 31      0.0000      0.2142      0.3442      0.2094      0.2221      0.1285      0.1965      0.1972      0.1264
 32      0.0000      0.0172      0.0000      0.0020      0.0653      0.0000      0.0000      0.0000      0.0000
 33      0.0000      0.0166      0.0000      0.0000      0.0000      0.0000      0.0462      0.0000      0.0611
 34      0.0000      0.0273      0.0138      0.0000      0.0032      0.0000      0.0000      0.0000      0.0000
 35      0.0000      0.0098      0.0000      0.0000      0.0000      0.0020      0.0001      0.0000      0.0000
 36      0.0000      0.0099      0.0000      0.0000      0.0000      0.0312      0.0000      0.0000      0.0000
 37      0.0000      0.0186      0.0000      0.0368      0.0150      0.0000      0.0000      0.0999      0.0000
 38      0.0000      0.0182      0.0000      0.0718      0.0000      0.0000      0.0000      0.0000      0.0245
 39      0.0000      0.0647      0.0000      0.0000      0.0000      0.0921      0.1138      0.2567      0.0000
 40      0.0000      0.1353      0.0000      0.0000      0.8945      0.7297      0.0000      0.0832      0.0000
 41      0.0000      0.0301      0.0422      0.0000      0.0000      0.0000      0.0000      0.0000      0.0000
 42      0.0000      0.0222      0.0000      0.0000      0.0000      0.0000      0.0000      0.0000      0.0000
 43      2.2376      1.2813      1.1301      1.2999      1.4771      1.2933      1.3028      1.6168      1.1980
 44      1.0029      1.1263      1.0464      1.0900      1.2260      0.9659      1.1516      1.3185      1.2785
 45      0.9855      1.1203      1.4287      1.1156      1.1351      1.1685      1.1054      1.0821      1.0014

# j      m_j: min, <> & last-chain-values for 1 ...  7 chains
  1  1.2663E-02  1.3293E-02  1.3252E-02  1.3057E-02  1.2692E-02  1.3263E-02  1.2924E-02  1.3634E-02  1.3428E-02
  2  8.4318E-03  6.3189E-03  6.3882E-03  6.5259E-03  6.5692E-03  6.3513E-03  6.9331E-03  6.5819E-03  6.4047E-03
  3  5.7096E-03  5.4612E-03  5.3974E-03  5.2644E-03  5.3838E-03  5.7783E-03  5.3198E-03  5.3648E-03  5.4881E-03
  4  4.7164E-03  5.9985E-03  6.0678E-03  5.9681E-03  5.7968E-03  5.9672E-03  5.5592E-03  6.0364E-03  6.2400E-03
  5  0.0000E+00  2.1519E-04  0.0000E+00  7.8035E-04  1.0549E-03  0.0000E+00  3.0333E-04  0.0000E+00  0.0000E+00
  6  0.0000E+00  1.8288E-04  0.0000E+00  6.9182E-04  0.0000E+00  0.0000E+00  0.0000E+00  0.0000E+00  3.2040E-04
  7  0.0000E+00  2.3678E-04  0.0000E+00  0.0000E+00  0.0000E+00  0.0000E+00  1.2934E-04  0.0000E+00  0.0000E+00
  8  0.0000E+00  1.0994E-03  7.9495E-04  7.1833E-04  0.0000E+00  3.3896E-03  0.0000E+00  6.5383E-04  7.5373E-04
  9  0.0000E+00  1.2297E-02  1.8965E-02  1.7274E-02  1.1340E-02  9.9754E-03  1.2757E-02  1.7035E-02  3.4156E-02
 10  0.0000E+00  1.5332E-02  2.4407E-02  1.7126E-02  2.0760E-02  9.4285E-03  1.1438E-02  1.8148E-02  1.3341E-02
 11  0.0000E+00  1.7056E-02  2.6255E-02  0.0000E+00  0.0000E+00  0.0000E+00  0.0000E+00  1.5496E-02  2.2438E-02
 12  0.0000E+00  3.0737E-02  9.9051E-02  0.0000E+00  0.0000E+00  6.2944E-03  2.5317E-02  0.0000E+00  4.2460E-04
 13  1.4145E+00  1.3962E+00  8.9210E-01  1.2697E+00  1.0654E+00  1.1930E+00  1.3698E+00  1.1432E+00  7.6072E-01
 14  2.1481E+01  2.2672E+01  2.2373E+01  2.2645E+01  2.2498E+01  2.3053E+01  2.2989E+01  2.2697E+01  2.3010E+01
 15  4.2039E+00  1.4381E+00  2.3272E+00  2.2287E+00  2.7820E+00  1.7134E+00  1.6199E+00  1.9711E+00  2.0660E+00
 16  0.0000E+00  5.7427E-04  4.2039E-04  5.3532E-04  6.5953E-04  5.5334E-04  5.2640E-04  3.6679E-04  6.1437E-04
 17  0.0000E+00  2.0911E-05  6.6300E-05  0.0000E+00  0.0000E+00  0.0000E+00  6.1197E-06  7.3387E-05  2.7729E-05
 18  0.0000E+00  1.8553E-05  0.0000E+00  0.0000E+00  0.0000E+00  1.5955E-04  0.0000E+00  0.0000E+00  4.2743E-05
 19  1.5700E-04  1.1953E-03  9.0098E-04  1.3995E-03  1.5734E-03  1.1736E-03  1.5217E-03  1.2058E-03  5.6259E-04
 20  0.0000E+00  6.3877E-05  0.0000E+00  0.0000E+00  0.0000E+00  0.0000E+00  0.0000E+00  0.0000E+00  0.0000E+00
 21  0.0000E+00  1.1923E-04  0.0000E+00  0.0000E+00  0.0000E+00  0.0000E+00  0.0000E+00  0.0000E+00  0.0000E+00
 22  0.0000E+00  2.7516E-04  0.0000E+00  0.0000E+00  0.0000E+00  8.4937E-05  0.0000E+00  0.0000E+00  0.0000E+00
 23  0.0000E+00  8.0992E-04  2.0379E-04  0.0000E+00  0.0000E+00  0.0000E+00  1.7100E-03  0.0000E+00  1.2406E-03
 24  0.0000E+00  2.7621E-03  1.3167E-02  0.0000E+00  0.0000E+00  0.0000E+00  0.0000E+00  0.0000E+00  9.2812E-03
 25  0.0000E+00  7.7312E-03  6.9572E-03  1.6129E-02  0.0000E+00  1.5973E-02  1.9951E-02  0.0000E+00  7.3136E-03
 26  0.0000E+00  1.2378E-02  8.0272E-03  0.0000E+00  3.7706E-02  0.0000E+00  1.6096E-02  0.0000E+00  0.0000E+00
 27  0.0000E+00  1.6726E-02  2.8739E-03  0.0000E+00  0.0000E+00  0.0000E+00  5.4650E-03  4.2849E-02  0.0000E+00
 28  0.0000E+00  4.1435E-02  0.0000E+00  0.0000E+00  7.5061E-02  2.0533E-03  0.0000E+00  0.0000E+00  0.0000E+00
 29  3.0193E+01  3.2024E+01  3.1017E+01  3.1596E+01  3.1670E+01  3.1672E+01  3.1523E+01  3.1612E+01  3.1503E+01
 30  3.4085E+01  3.4046E+01  3.4418E+01  3.4097E+01  3.2917E+01  3.4232E+01  3.4121E+01  3.3456E+01  3.4490E+01
 31  0.0000E+00  2.7886E-04  4.4449E-04  2.7187E-04  2.9000E-04  1.6765E-04  2.5607E-04  2.5624E-04  1.6325E-04
 32  0.0000E+00  1.1824E-05  0.0000E+00  1.3415E-06  4.4928E-05  0.0000E+00  0.0000E+00  0.0000E+00  0.0000E+00
 33  0.0000E+00  1.6850E-05  0.0000E+00  0.0000E+00  0.0000E+00  0.0000E+00  4.7132E-05  0.0000E+00  6.1701E-05
