###################################################################
## OUTPUT of StarlightChains_v04.for    [Cid@UFSC - 01/Apr/2007] ##
###################################################################

## Some input info
NGC5286_c_1.cxt                          [arq_obs]
Base.BC03.N                              [arq_base]
NGC5286_c_1.msk                          [arq_masks]
StCv04.C99.config                        [arq_config]
   45                                    [N_base]
    0                                    [N_YAV_components = # of components with extra extinction!]
    0                                    [i_FitPowerLaw (1/0 = Yes/No)]
-9.99                                    [alpha_PowerLaw]
CCM                                      [red_law_option]
 1.458241                                [q_norm = A(l_norm)/A(V)]

## (Re)Sampling Parameters
 3359.00                                 [l_ini (A)]
 6428.00                                 [l_fin (A)]
    1.00                                 [dl    (A)]     (OBS: dl_cushion =    50.00 A)

## Normalization info
 4020.00                                 [l_norm (A) - for base]
 4010.00                                 [llow_norm (A) - window for f_obs]
 4060.00                                 [lupp_norm (A) - window for f_obs]
3.906300E-14                             [fobs_norm (in input units)]

## S/N
 4730.00                                 [llow_SN (A) - window for S/N]
 4780.00                                 [lupp_SN (A) - window for S/N]
 103.062                                 [S/N in S/N window]
  88.537                                 [S/N in norm. window]
 171.763                                 [S/N_err in S/N window]
 147.556                                 [S/N_err in norm. window]
  1.0000                                 [fscale_chi2]

## etc...
  2147483636                             [idum_orig]
  3068                                   [NOl_eff]
  1561                                   [Nl_eff]
  1507    NSIGMA                         [Ntot_cliped & clip_method]
  1740480                                [Nglobal_steps]
   7                                     [N_chains]
   7                                     [NEX0s_base = N_base in EX0s-fits]
 0   0   1      214   2.0   3.215E+02    [Clip-Bug, RC-Crash & Burn-In warning-flags, n_censored_weights, wei_nsig_threshold & wei_limit]
    24     24.643     24.643      0.000  [idt_all, wdt_TotTime, wdt_UsrTime & wdt_SysTime (sec)]

## Synthesis Results - Best model ##

 2.87425E+00                             [chi2/Nl_eff]
     0.96061                             [adev (%)]

   100.10628                             [sum-of-x (%)]
 2.30143E-13                             [Flux_tot (units of input spectrum!)]
 1.14862E-09                             [Mini_tot (???)]
 6.31927E-10                             [Mcor_tot (???)]

 -17.42                                  [v0_min  (km/s)]
 107.44                                  [vd_min  (km/s)]
 1.3197                                  [AV_min  (mag)]
 0.0000                                  [YAV_min (mag)]

# j     x_j(%)      Mini_j(%)     Mcor_j(%)     age_j(yr)     Z_j      (L/M)_j    YAV?  Mstars   component_j        a/Fe...       SSP_chi2r SSP_adev(%)   SSP_AV   SSP_x(%)
  1      0.0000     0.0000E+00    0.0000E+00    1.000000E+06  0.00400  1.114E-02    0   1.0000   age020_m42            0.0000     3.8246E+02     8.5377   4.0000    77.9866
  2     16.1284     7.9257E-02    1.4405E-01    3.160000E+06  0.00400  4.073E-02    0   0.9999   age045_m42            0.0000     5.3319E+01     3.5237   3.0758    91.6297
  3      0.0000     0.0000E+00    0.0000E+00    5.010000E+06  0.00400  2.534E-02    0   0.9488   age055_m42            0.0000     1.6828E+02     5.9564   3.4774    85.1675
  4     12.1547     1.9141E-01    3.0832E-01    1.000000E+07  0.00400  1.271E-02    0   0.8862   age070_m42            0.0000     1.4365E+02     6.0227   2.6926    89.1005
  5      0.0000     0.0000E+00    0.0000E+00    2.512000E+07  0.00400  5.070E-03    0   0.8174   age090_m42            0.0000     1.2030E+02     5.5277   2.5661    90.6035
  6      0.0000     0.0000E+00    0.0000E+00    4.000000E+07  0.00400  3.505E-03    0   0.7851   age104_m42            0.0000     5.7474E+01     3.8091   2.2550    93.5729
  7     15.2814     1.3486E+00    1.7666E+00    1.015200E+08  0.00400  2.268E-03    0   0.7207   age116_m42            0.0000     1.8200E+02     5.1994   2.2646   103.2128
  8      0.0000     0.0000E+00    0.0000E+00    2.861200E+08  0.00400  1.079E-03    0   0.6613   age125_m42            0.0000     2.1690E+02     6.0433   1.7773   105.0432
  9      0.0000     0.0000E+00    0.0000E+00    6.405400E+08  0.00400  5.077E-04    0   0.6197   age132_m42            0.0000     2.4569E+02     6.4022   1.4177   109.0699
 10     20.3571     1.1526E+01    1.2621E+01    9.047900E+08  0.00400  3.535E-04    0   0.6024   age135_m42            0.0000     1.4875E+02     5.2967   1.1797   108.1510
 11      0.0000     0.0000E+00    0.0000E+00    1.434000E+09  0.00400  1.910E-04    0   0.5716   age139_m42            0.0000     8.9000E+01     4.7258   0.6582   106.5955
 12     30.1444     6.1453E+01    6.1022E+01    2.500000E+09  0.00400  9.818E-05    0   0.5463   age150_m42            0.0000     7.8531E+01     4.0527   0.3841   101.6795
 13      5.9876     2.5401E+01    2.4138E+01    5.000000E+09  0.00400  4.718E-05    0   0.5228   age161_m42            0.0000     1.0950E+02     4.2305   0.2183    98.1602
 14      0.0000     0.0000E+00    0.0000E+00    1.100000E+10  0.00400  2.205E-05    0   0.4980   age185_m42            0.0000     2.0740E+02     5.6309  -0.0371    95.7692
 15      0.0000     0.0000E+00    0.0000E+00    1.300000E+10  0.00400  1.883E-05    0   0.4927   age193_m42            0.0000     2.2285E+02     5.8093  -0.0537    95.5760
 16      0.0000     0.0000E+00    0.0000E+00    1.000000E+06  0.02000  1.989E-02    0   1.0000   age020_m62            0.0000     3.8401E+02     8.6904   3.9941    77.9667
 17      0.0000     0.0000E+00    0.0000E+00    3.160000E+06  0.02000  3.772E-02    0   0.9858   age045_m62            0.0000     3.3325E+02     8.2204   3.8588    80.1305
 18      0.0528     3.2739E-04    5.5592E-04    5.010000E+06  0.02000  3.227E-02    0   0.9342   age055_m62            0.0000     9.9350E+01     4.7421   3.3386    88.1535
 19      0.0000     0.0000E+00    0.0000E+00    1.000000E+07  0.02000  1.011E-02    0   0.8751   age070_m62            0.0000     4.2841E+02    10.4587   2.7096    85.0613
 20      0.0000     0.0000E+00    0.0000E+00    2.512000E+07  0.02000  4.206E-03    0   0.8099   age090_m62            0.0000     2.8934E+02     8.3847   2.6461    86.0553
 21      0.0000     0.0000E+00    0.0000E+00    4.000000E+07  0.02000  3.373E-03    0   0.7799   age104_m62            0.0000     4.5701E+01     3.4220   2.4656    95.1000
 22      0.0000     0.0000E+00    0.0000E+00    1.015200E+08  0.02000  1.878E-03    0   0.7221   age116_m62            0.0000     1.3082E+02     4.1398   2.2898   103.5403
 23      0.0000     0.0000E+00    0.0000E+00    2.861200E+08  0.02000  8.869E-04    0   0.6700   age125_m62            0.0000     4.0165E+02     7.9116   1.7850   110.4332
 24      0.0000     0.0000E+00    0.0000E+00    6.405400E+08  0.02000  3.657E-04    0   0.6322   age132_m62            0.0000     2.9702E+02     7.7447   1.1136   113.4658
 25      0.0000     0.0000E+00    0.0000E+00    9.047900E+08  0.02000  2.312E-04    0   0.6152   age135_m62            0.0000     1.8400E+02     6.5887   0.7404   112.3524
 26      0.0000     0.0000E+00    0.0000E+00    1.434000E+09  0.02000  1.168E-04    0   0.5865   age139_m62            0.0000     1.1226E+02     5.0407   0.3238   106.1077
 27      0.0000     0.0000E+00    0.0000E+00    2.500000E+09  0.02000  5.505E-05    0   0.5610   age150_m62            0.0000     1.8784E+02     5.9118  -0.0438   102.8968
 28      0.0000     0.0000E+00    0.0000E+00    5.000000E+09  0.02000  2.596E-05    0   0.5353   age161_m62            0.0000     3.4900E+02     7.8019  -0.3695   102.6771
 29      0.0000     0.0000E+00    0.0000E+00    1.100000E+10  0.02000  1.169E-05    0   0.5103   age185_m62            0.0000     5.4215E+02     9.6487  -0.7319   104.0430
 30      0.0000     0.0000E+00    0.0000E+00    1.300000E+10  0.02000  9.691E-06    0   0.5047   age193_m62            0.0000     5.8060E+02     9.9473  -0.7766   104.2172
 31      0.0000     0.0000E+00    0.0000E+00    1.000000E+06  0.05000  2.651E-02    0   0.9998   age020_m72            0.0000     3.5663E+02     8.2929   4.0000    78.7617
 32      0.0000     0.0000E+00    0.0000E+00    3.160000E+06  0.05000  4.817E-02    0   0.9577   age045_m72            0.0000     2.2359E+02     6.7694   3.7177    83.4585
 33      0.0000     0.0000E+00    0.0000E+00    5.010000E+06  0.05000  3.101E-02    0   0.9147   age055_m72            0.0000     1.9953E+02     6.4882   3.3532    86.1163
 34      0.0000     0.0000E+00    0.0000E+00    1.000000E+07  0.05000  8.954E-03    0   0.8524   age070_m72            0.0000     2.2480E+02     6.7695   3.5935    84.5835
 35      0.0000     0.0000E+00    0.0000E+00    2.512000E+07  0.05000  4.207E-03    0   0.7902   age090_m72            0.0000     8.2976E+01     4.3278   3.1628    90.3685
 36      0.0000     0.0000E+00    0.0000E+00    4.000000E+07  0.05000  3.198E-03    0   0.7618   age104_m72            0.0000     5.6780E+01     2.9872   2.6570    99.0509
 37      0.0000     0.0000E+00    0.0000E+00    1.015200E+08  0.05000  1.716E-03    0   0.7092   age116_m72            0.0000     1.7480E+02     4.8905   2.3725   103.7860
 38      0.0000     0.0000E+00    0.0000E+00    2.861200E+08  0.05000  7.047E-04    0   0.6618   age125_m72            0.0000     4.0155E+02     8.2187   1.5800   110.8586
 39      0.0000     0.0000E+00    0.0000E+00    6.405400E+08  0.05000  2.633E-04    0   0.6253   age132_m72            0.0000     2.5179E+02     7.4268   0.7368   112.7926
 40      0.0000     0.0000E+00    0.0000E+00    9.047900E+08  0.05000  1.484E-04    0   0.6088   age135_m72            0.0000     1.7641E+02     6.4401   0.2590   107.1878
 41      0.0000     0.0000E+00    0.0000E+00    1.434000E+09  0.05000  7.827E-05    0   0.5847   age139_m72            0.0000     2.5706E+02     7.0947  -0.1271   103.3246
 42      0.0000     0.0000E+00    0.0000E+00    2.500000E+09  0.05000  3.759E-05    0   0.5583   age150_m72            0.0000     3.7992E+02     8.1809  -0.4475   102.3315
 43      0.0000     0.0000E+00    0.0000E+00    5.000000E+09  0.05000  1.548E-05    0   0.5320   age161_m72            0.0000     5.5794E+02     9.6456  -0.8646   101.9871
 44      0.0000     0.0000E+00    0.0000E+00    1.100000E+10  0.05000  6.532E-06    0   0.5070   age185_m72            0.0000     8.5403E+02    11.9663  -1.0000    94.8161
 45      0.0000     0.0000E+00    0.0000E+00    1.300000E+10  0.05000  5.316E-06    0   0.5018   age193_m72            0.0000     1.0255E+03    13.2184  -1.0000    91.4526


## Synthesis Results - Average & Chains ##

# j      x_j: min, <> & last-chain-values for 1 ...  7 chains
  1      0.0000      0.0049      0.0000      0.0224      0.0000      0.0000      0.0000      0.0000      0.0000
  2     16.1284     14.4873     14.4987     14.6870     14.5899     14.5518     14.5243     14.4385     14.7140
  3      0.0000      0.0514      0.0774      0.0951      0.0000      0.0000      0.0000      0.0237      0.1619
  4     12.1547     12.0413     12.0265     11.9559     12.2478     11.9726     12.1395     12.1365     12.0080
  5      0.0000      0.0626      0.0240      0.0927      0.0000      0.0685      0.1254      0.0823      0.0637
  6      0.0000      0.0267      0.0000      0.0000      0.0000      0.0000      0.0063      0.0000      0.0000
  7     15.2814     15.9482     15.9423     15.7493     16.0068     15.5134     16.1242     16.0118     16.0140
  8      0.0000      0.0712      0.0000      0.0000      0.2933      0.1182      0.1908      0.0000      0.0000
  9      0.0000      0.3405      0.5469      0.8154      0.5144      0.2864      0.0000      0.7407      0.0788
 10     20.3571     19.1022     19.4611     19.3023     19.2060     19.7360     19.1143     19.2734     19.5343
 11      0.0000      0.0741      0.2529      0.0162      0.0000      0.0000      0.0000      0.0000      0.0929
 12     30.1444     29.7253     29.1942     29.5494     29.4847     29.3431     29.8307     29.7087     29.5117
 13      5.9876      6.2710      6.2923      6.1853      6.1799      6.1472      5.9843      6.1102      6.2751
 14      0.0000      0.0075      0.0034      0.0000      0.0000      0.0000      0.0000      0.0000      0.0000
 15      0.0000      0.0077      0.0038      0.0000      0.0000      0.0000      0.0000      0.0000      0.0000
 16      0.0000      0.0071      0.0000      0.0000      0.0000      0.0000      0.0000      0.0000      0.0000
 17      0.0000      0.0079      0.0000      0.0000      0.0000      0.0000      0.0006      0.0000      0.0000
 18      0.0528      0.7694      0.8904      0.8186      0.8077      0.9400      0.8893      0.7966      0.6883
 19      0.0000      0.0169      0.0000      0.0000      0.0344      0.0000      0.0000      0.0000      0.0000
 20      0.0000      0.0095      0.0000      0.0000      0.0000      0.0000      0.0000      0.0000      0.0000
 21      0.0000      0.0178      0.0000      0.0000      0.0000      0.0000      0.0175      0.0336      0.0000
 22      0.0000      0.0323      0.0000      0.0000      0.0000      0.0000      0.0000      0.0000      0.0000
 23      0.0000      0.0277      0.0000      0.0347      0.0000      0.0000      0.0369      0.0000      0.0000
 24      0.0000      0.0260      0.0000      0.0000      0.0218      0.0000      0.0000      0.0000      0.0000
 25      0.0000      0.0366      0.0000      0.0000      0.0000      0.0063      0.0000      0.0000      0.0158
 26      0.0000      0.0908      0.0351      0.0000      0.0000      0.0060      0.0000      0.0000      0.2275
 27      0.0000      0.0495      0.0000      0.0826      0.0000      0.0000      0.0844      0.0000      0.0000
 28      0.0000      0.0259      0.0000      0.0187      0.1096      0.0705      0.0916      0.0000      0.0062
 29      0.0000      0.0639      0.0859      0.1402      0.0763      0.0246      0.0325      0.0000      0.0000
 30      0.0000      0.0215      0.1056      0.0174      0.0000      0.1184      0.0000      0.0094      0.0000
 31      0.0000      0.0050      0.0015      0.0000      0.0000      0.0000      0.0000      0.0000      0.0000
 32      0.0000      0.0160      0.0000      0.0000      0.0000      0.0255      0.0000      0.0000      0.0000
 33      0.0000      0.0407      0.1379      0.0317      0.0000      0.1067      0.0000      0.2359      0.0000
 34      0.0000      0.0099      0.0000      0.0292      0.0000      0.0511      0.0000      0.0000      0.0000
 35      0.0000      0.0114      0.0000      0.0000      0.0000      0.0000      0.0000      0.0000      0.0000
 36      0.0000      0.0240      0.0000      0.0000      0.0000      0.1056      0.0000      0.0000      0.0396
 37      0.0000      0.0444      0.0000      0.0000      0.0008      0.1120      0.0000      0.0000      0.0000
 38      0.0000      0.0276      0.0000      0.0000      0.0000      0.0291      0.0000      0.0000      0.0000
 39      0.0000      0.0490      0.0000      0.0000      0.0000      0.0000      0.1350      0.0000      0.0000
 40      0.0000      0.1033      0.0328      0.1989      0.0000      0.4337      0.3485      0.0000      0.1929
 41      0.0000      0.0707      0.2270      0.0145      0.1955      0.0000      0.1036      0.0969      0.2132
 42      0.0000      0.1250      0.0994      0.0331      0.1320      0.2240      0.0849      0.1589      0.0421
 43      0.0000      0.1453      0.1917      0.1831      0.2149      0.1547      0.0996      0.1374      0.2033
 44      0.0000      0.0278      0.0109      0.0362      0.0000      0.0000      0.0536      0.0298      0.0000
 45      0.0000      0.0420      0.0369      0.0673      0.0582      0.0242      0.1223      0.1213      0.0794

# j      m_j: min, <> & last-chain-values for 1 ...  7 chains
  1  0.0000E+00  1.4892E-04  0.0000E+00  6.7536E-04  0.0000E+00  0.0000E+00  0.0000E+00  0.0000E+00  0.0000E+00
  2  1.4405E-01  1.2077E-01  1.1989E-01  1.2087E-01  1.2169E-01  1.2186E-01  1.1946E-01  1.2009E-01  1.2348E-01
  3  0.0000E+00  6.5326E-04  9.7651E-04  1.1935E-03  0.0000E+00  0.0000E+00  0.0000E+00  3.0028E-04  2.0717E-03
  4  3.0832E-01  2.8511E-01  2.8245E-01  2.7946E-01  2.9014E-01  2.8476E-01  2.8358E-01  2.8669E-01  2.8620E-01
  5  0.0000E+00  3.4285E-03  1.3035E-03  5.0107E-03  0.0000E+00  3.7664E-03  6.7713E-03  4.4964E-03  3.5092E-03
  6  0.0000E+00  2.0321E-03  0.0000E+00  0.0000E+00  0.0000E+00  0.0000E+00  4.7022E-04  0.0000E+00  0.0000E+00
  7  1.7666E+00  1.7210E+00  1.7064E+00  1.6777E+00  1.7281E+00  1.6816E+00  1.7166E+00  1.7238E+00  1.7395E+00
  8  0.0000E+00  1.4812E-02  0.0000E+00  0.0000E+00  6.1080E-02  2.4704E-02  3.9169E-02  0.0000E+00  0.0000E+00
  9  0.0000E+00  1.4113E-01  2.2487E-01  3.3365E-01  2.1333E-01  1.1924E-01  0.0000E+00  3.0633E-01  3.2884E-02
 10  1.2621E+01  1.1054E+01  1.1171E+01  1.1027E+01  1.1120E+01  1.1472E+01  1.0913E+01  1.1127E+01  1.1379E+01
 11  0.0000E+00  7.5272E-02  2.5495E-01  1.6232E-02  0.0000E+00  0.0000E+00  0.0000E+00  0.0000E+00  9.5046E-02
 12  6.1022E+01  5.6167E+01  5.4716E+01  5.5120E+01  5.5739E+01  5.5695E+01  5.5611E+01  5.6006E+01  5.6132E+01
 13  2.4138E+01  2.3597E+01  2.3485E+01  2.2977E+01  2.3266E+01  2.3235E+01  2.2217E+01  2.2939E+01  2.3769E+01
 14  0.0000E+00  5.7574E-02  2.5788E-02  0.0000E+00  0.0000E+00  0.0000E+00  0.0000E+00  0.0000E+00  0.0000E+00
 15  0.0000E+00  6.8233E-02  3.3881E-02  0.0000E+00  0.0000E+00  0.0000E+00  0.0000E+00  0.0000E+00  0.0000E+00
 16  0.0000E+00  1.2081E-04  0.0000E+00  0.0000E+00  0.0000E+00  0.0000E+00  0.0000E+00  0.0000E+00  0.0000E+00
 17  0.0000E+00  6.9773E-05  0.0000E+00  0.0000E+00  0.0000E+00  0.0000E+00  5.6201E-06  0.0000E+00  0.0000E+00
 18  5.5592E-04  7.5634E-03  8.6828E-03  7.9446E-03  7.9440E-03  9.2828E-03  8.6258E-03  7.8127E-03  6.8111E-03
 19  0.0000E+00  4.9757E-04  0.0000E+00  0.0000E+00  1.0120E-03  0.0000E+00  0.0000E+00  0.0000E+00  0.0000E+00
 20  0.0000E+00  6.2396E-04  0.0000E+00  0.0000E+00  0.0000E+00  0.0000E+00  0.0000E+00  0.0000E+00  0.0000E+00
 21  0.0000E+00  1.3968E-03  0.0000E+00  0.0000E+00  0.0000E+00  0.0000E+00  1.3549E-03  2.6293E-03  0.0000E+00
 22  0.0000E+00  4.2151E-03  0.0000E+00  0.0000E+00  0.0000E+00  0.0000E+00  0.0000E+00  0.0000E+00  0.0000E+00
 23  0.0000E+00  7.1175E-03  0.0000E+00  8.7870E-03  0.0000E+00  0.0000E+00  9.3462E-03  0.0000E+00  0.0000E+00
 24  0.0000E+00  1.5239E-02  0.0000E+00  0.0000E+00  1.2806E-02  0.0000E+00  0.0000E+00  0.0000E+00  0.0000E+00
 25  0.0000E+00  3.3051E-02  0.0000E+00  0.0000E+00  0.0000E+00  5.7121E-03  0.0000E+00  0.0000E+00  1.4328E-02
 26  0.0000E+00  1.5481E-01  5.9337E-02  0.0000E+00  0.0000E+00  1.0311E-02  0.0000E+00  0.0000E+00  3.9052E-01
 27  0.0000E+00  1.7128E-01  0.0000E+00  2.8213E-01  0.0000E+00  0.0000E+00  2.8826E-01  0.0000E+00  0.0000E+00
 28  0.0000E+00  1.8146E-01  0.0000E+00  1.2953E-01  7.6751E-01  4.9572E-01  6.3288E-01  0.0000E+00  4.3351E-02
 29  0.0000E+00  9.4681E-01  1.2634E+00  2.0519E+00  1.1320E+00  3.6639E-01  4.7486E-01  0.0000E+00  0.0000E+00
 30  0.0000E+00  3.7988E-01  1.8521E+00  3.0376E-01  0.0000E+00  2.1027E+00  0.0000E+00  1.6516E-01  0.0000E+00
 31  0.0000E+00  6.3444E-05  1.8603E-05  0.0000E+00  0.0000E+00  0.0000E+00  0.0000E+00  0.0000E+00  0.0000E+00
 32  0.0000E+00  1.0770E-04  0.0000E+00  0.0000E+00  0.0000E+00  1.7283E-04  0.0000E+00  0.0000E+00  0.0000E+00
 33  0.0000E+00  4.0718E-04  1.3699E-03  3.1302E-04  0.0000E+00  1.0733E-03  0.0000E+00  2.3571E-03  0.0000E+00
