###################################################################
## OUTPUT of StarlightChains_v04.for    [Cid@UFSC - 01/Apr/2007] ##
###################################################################

## Some input info
NGC5904_b_1.cxt                          [arq_obs]
Base.BC03.N                              [arq_base]
NGC5904_b_1.msk                          [arq_masks]
StCv04.C99.config                        [arq_config]
   45                                    [N_base]
    0                                    [N_YAV_components = # of components with extra extinction!]
    0                                    [i_FitPowerLaw (1/0 = Yes/No)]
-9.99                                    [alpha_PowerLaw]
CCM                                      [red_law_option]
 1.458241                                [q_norm = A(l_norm)/A(V)]

## (Re)Sampling Parameters
 3359.00                                 [l_ini (A)]
 6428.00                                 [l_fin (A)]
    1.00                                 [dl    (A)]     (OBS: dl_cushion =    50.00 A)

## Normalization info
 4020.00                                 [l_norm (A) - for base]
 4010.00                                 [llow_norm (A) - window for f_obs]
 4060.00                                 [lupp_norm (A) - window for f_obs]
8.938202E-14                             [fobs_norm (in input units)]

## S/N
 4730.00                                 [llow_SN (A) - window for S/N]
 4780.00                                 [lupp_SN (A) - window for S/N]
  94.706                                 [S/N in S/N window]
  90.136                                 [S/N in norm. window]
 354.791                                 [S/N_err in S/N window]
 337.672                                 [S/N_err in norm. window]
  1.0000                                 [fscale_chi2]

## etc...
  2147483634                             [idum_orig]
  3069                                   [NOl_eff]
   925                                   [Nl_eff]
  2144    NSIGMA                         [Ntot_cliped & clip_method]
  1285620                                [Nglobal_steps]
   7                                     [N_chains]
   6                                     [NEX0s_base = N_base in EX0s-fits]
 0   0   1      257   2.0   7.095E+02    [Clip-Bug, RC-Crash & Burn-In warning-flags, n_censored_weights, wei_nsig_threshold & wei_limit]
    22     22.027     22.027      0.000  [idt_all, wdt_TotTime, wdt_UsrTime & wdt_SysTime (sec)]

## Synthesis Results - Best model ##

 2.96316E+00                             [chi2/Nl_eff]
     0.54419                             [adev (%)]

   102.11150                             [sum-of-x (%)]
 1.46591E-13                             [Flux_tot (units of input spectrum!)]
 9.55398E-10                             [Mini_tot (???)]
 5.25215E-10                             [Mcor_tot (???)]

  -7.96                                  [v0_min  (km/s)]
  95.82                                  [vd_min  (km/s)]
 0.3528                                  [AV_min  (mag)]
 0.0000                                  [YAV_min (mag)]

# j     x_j(%)      Mini_j(%)     Mcor_j(%)     age_j(yr)     Z_j      (L/M)_j    YAV?  Mstars   component_j        a/Fe...       SSP_chi2r SSP_adev(%)   SSP_AV   SSP_x(%)
  1      0.0000     0.0000E+00    0.0000E+00    1.000000E+06  0.00400  1.114E-02    0   1.0000   age020_m42            0.0000     2.1124E+03    10.7870   3.5048    75.8478
  2     17.2500     6.3639E-02    1.1575E-01    3.160000E+06  0.00400  4.073E-02    0   0.9999   age045_m42            0.0000     4.3397E+02     5.2090   2.5077    91.1380
  3      0.0000     0.0000E+00    0.0000E+00    5.010000E+06  0.00400  2.534E-02    0   0.9488   age055_m42            0.0000     1.0565E+03     7.9315   2.9357    83.9357
  4      0.0000     0.0000E+00    0.0000E+00    1.000000E+07  0.00400  1.271E-02    0   0.8862   age070_m42            0.0000     8.9487E+02     7.7223   2.1478    87.6380
  5      0.0000     0.0000E+00    0.0000E+00    2.512000E+07  0.00400  5.070E-03    0   0.8174   age090_m42            0.0000     7.6006E+02     7.1650   2.0148    89.2905
  6      0.0000     0.0000E+00    0.0000E+00    4.000000E+07  0.00400  3.505E-03    0   0.7851   age104_m42            0.0000     4.2714E+02     5.3739   1.6918    92.5886
  7     11.2589     7.4593E-01    9.7792E-01    1.015200E+08  0.00400  2.268E-03    0   0.7207   age116_m42            0.0000     7.7722E+02     4.3795   1.6407   104.7937
  8      0.0000     0.0000E+00    0.0000E+00    2.861200E+08  0.00400  1.079E-03    0   0.6613   age125_m42            0.0000     8.8618E+02     5.0338   1.1419   107.2888
  9      0.0000     0.0000E+00    0.0000E+00    6.405400E+08  0.00400  5.077E-04    0   0.6197   age132_m42            0.0000     1.0417E+03     5.4542   0.7828   111.3043
 10      9.8025     4.1667E+00    4.5659E+00    9.047900E+08  0.00400  3.535E-04    0   0.6024   age135_m42            0.0000     5.8748E+02     4.2909   0.5511   110.0542
 11     12.2102     9.6058E+00    9.9879E+00    1.434000E+09  0.00400  1.910E-04    0   0.5716   age139_m42            0.0000     2.3303E+02     3.5332   0.0266   108.3494
 12     47.6844     7.2979E+01    7.2524E+01    2.500000E+09  0.00400  9.818E-05    0   0.5463   age150_m42            0.0000     1.3381E+02     2.6666  -0.2417   103.0711
 13      3.9055     1.2438E+01    1.1829E+01    5.000000E+09  0.00400  4.718E-05    0   0.5228   age161_m42            0.0000     2.5965E+02     2.9986  -0.4043    99.3500
 14      0.0000     0.0000E+00    0.0000E+00    1.100000E+10  0.00400  2.205E-05    0   0.4980   age185_m42            0.0000     5.8285E+02     4.3955  -0.6707    97.2775
 15      0.0000     0.0000E+00    0.0000E+00    1.300000E+10  0.00400  1.883E-05    0   0.4927   age193_m42            0.0000     6.3619E+02     4.5673  -0.6877    97.0845
 16      0.0000     0.0000E+00    0.0000E+00    1.000000E+06  0.02000  1.989E-02    0   1.0000   age020_m62            0.0000     2.1217E+03    10.7424   3.4701    76.4531
 17      0.0000     0.0000E+00    0.0000E+00    3.160000E+06  0.02000  3.772E-02    0   0.9858   age045_m62            0.0000     1.8724E+03    10.1369   3.3304    78.6059
 18      0.0000     0.0000E+00    0.0000E+00    5.010000E+06  0.02000  3.227E-02    0   0.9342   age055_m62            0.0000     6.7941E+02     6.3738   2.7872    87.1800
 19      0.0000     0.0000E+00    0.0000E+00    1.000000E+07  0.02000  1.011E-02    0   0.8751   age070_m62            0.0000     2.1805E+03    11.7924   2.1847    82.9509
 20      0.0000     0.0000E+00    0.0000E+00    2.512000E+07  0.02000  4.206E-03    0   0.8099   age090_m62            0.0000     1.5764E+03     9.8194   2.1153    84.1882
 21      0.0000     0.0000E+00    0.0000E+00    4.000000E+07  0.02000  3.373E-03    0   0.7799   age104_m62            0.0000     3.5947E+02     4.9725   1.8988    94.4058
 22      0.0000     0.0000E+00    0.0000E+00    1.015200E+08  0.02000  1.878E-03    0   0.7221   age116_m62            0.0000     5.8624E+02     3.7992   1.6772   104.5979
 23      0.0000     0.0000E+00    0.0000E+00    2.861200E+08  0.02000  8.869E-04    0   0.6700   age125_m62            0.0000     1.7310E+03     7.0969   1.1368   113.0275
 24      0.0000     0.0000E+00    0.0000E+00    6.405400E+08  0.02000  3.657E-04    0   0.6322   age132_m62            0.0000     1.1516E+03     6.8954   0.4635   116.1055
 25      0.0000     0.0000E+00    0.0000E+00    9.047900E+08  0.02000  2.312E-04    0   0.6152   age135_m62            0.0000     6.1648E+02     5.6274   0.0994   114.4683
 26      0.0000     0.0000E+00    0.0000E+00    1.434000E+09  0.02000  1.168E-04    0   0.5865   age139_m62            0.0000     2.4051E+02     3.7559  -0.3070   107.6460
 27      0.0000     0.0000E+00    0.0000E+00    2.500000E+09  0.02000  5.505E-05    0   0.5610   age150_m62            0.0000     4.7886E+02     4.7169  -0.6822   104.5518
 28      0.0000     0.0000E+00    0.0000E+00    5.000000E+09  0.02000  2.596E-05    0   0.5353   age161_m62            0.0000     1.0633E+03     6.6255  -1.0000   104.2181
 29      0.0000     0.0000E+00    0.0000E+00    1.100000E+10  0.02000  1.169E-05    0   0.5103   age185_m62            0.0000     2.5912E+03    10.3573  -1.0000    95.2810
 30      0.0000     0.0000E+00    0.0000E+00    1.300000E+10  0.02000  9.691E-06    0   0.5047   age193_m62            0.0000     2.9296E+03    11.0798  -1.0000    94.1164
 31      0.0000     0.0000E+00    0.0000E+00    1.000000E+06  0.05000  2.651E-02    0   0.9998   age020_m72            0.0000     1.9731E+03    10.1836   3.4738    77.3164
 32      0.0000     0.0000E+00    0.0000E+00    3.160000E+06  0.05000  4.817E-02    0   0.9577   age045_m72            0.0000     1.2898E+03     8.3326   3.1829    82.0903
 33      0.0000     0.0000E+00    0.0000E+00    5.010000E+06  0.05000  3.101E-02    0   0.9147   age055_m72            0.0000     1.1838E+03     8.2367   2.8160    84.6740
 34      0.0000     0.0000E+00    0.0000E+00    1.000000E+07  0.05000  8.954E-03    0   0.8524   age070_m72            0.0000     1.2755E+03     8.2263   3.0557    83.3239
 35      0.0000     0.0000E+00    0.0000E+00    2.512000E+07  0.05000  4.207E-03    0   0.7902   age090_m72            0.0000     5.5497E+02     5.6188   2.6031    89.6916
 36      0.0000     0.0000E+00    0.0000E+00    4.000000E+07  0.05000  3.198E-03    0   0.7618   age104_m72            0.0000     2.7009E+02     2.9773   2.0568    99.6147
 37      0.0000     0.0000E+00    0.0000E+00    1.015200E+08  0.05000  1.716E-03    0   0.7092   age116_m72            0.0000     7.6224E+02     4.4074   1.7494   105.2228
 38      0.0000     0.0000E+00    0.0000E+00    2.861200E+08  0.05000  7.047E-04    0   0.6618   age125_m72            0.0000     1.6959E+03     7.4686   0.9214   113.7116
 39      0.0000     0.0000E+00    0.0000E+00    6.405400E+08  0.05000  2.633E-04    0   0.6253   age132_m72            0.0000     8.9512E+02     6.5702   0.0784   115.5224
 40      0.0000     0.0000E+00    0.0000E+00    9.047900E+08  0.05000  1.484E-04    0   0.6088   age135_m72            0.0000     4.4225E+02     5.2029  -0.3959   109.6405
 41      0.0000     0.0000E+00    0.0000E+00    1.434000E+09  0.05000  7.827E-05    0   0.5847   age139_m72            0.0000     6.8264E+02     5.9917  -0.7864   105.7701
 42      0.0000     0.0000E+00    0.0000E+00    2.500000E+09  0.05000  3.759E-05    0   0.5583   age150_m72            0.0000     1.2234E+03     7.0093  -1.0000   101.8278
 43      0.0000     0.0000E+00    0.0000E+00    5.000000E+09  0.05000  1.548E-05    0   0.5320   age161_m72            0.0000     3.2582E+03    12.1875  -1.0000    89.5689
 44      0.0000     0.0000E+00    0.0000E+00    1.100000E+10  0.05000  6.532E-06    0   0.5070   age185_m72            0.0000     6.5188E+03    17.2200  -1.0000    78.5223
 45      0.0000     0.0000E+00    0.0000E+00    1.300000E+10  0.05000  5.316E-06    0   0.5018   age193_m72            0.0000     7.7651E+03    18.6261  -1.0000    75.2788


## Synthesis Results - Average & Chains ##

# j      x_j: min, <> & last-chain-values for 1 ...  7 chains
  1      0.0000      0.0017      0.0000      0.0000      0.0000      0.0000      0.0000      0.0000      0.0000
  2     17.2500     17.1712     17.2531     17.2925     17.2902     17.2865     17.2437     17.2560     17.3422
  3      0.0000      0.0106      0.0000      0.0000      0.0000      0.0335      0.0100      0.0000      0.0000
  4      0.0000      0.0162      0.0000      0.0000      0.0375      0.0000      0.0000      0.0000      0.0000
  5      0.0000      0.0088      0.0000      0.0000      0.0000      0.0000      0.0000      0.0041      0.0000
  6      0.0000      0.0147      0.0000      0.0000      0.0562      0.0000      0.0292      0.0000      0.0000
  7     11.2589     10.8137     10.9338     10.7131     10.8255     10.9035     10.8853     10.9505     10.7795
  8      0.0000      0.0292      0.0894      0.0308      0.0257      0.0000      0.0083      0.0206      0.0000
  9      0.0000      0.0372      0.0000      0.0204      0.0000      0.0135      0.0000      0.1425      0.0668
 10      9.8025     10.0412      9.9442     10.1133     10.0395      9.9703      9.9882      9.9904     10.1172
 11     12.2102     12.8913     12.8193     13.0191     12.8782     12.9407     12.6895     12.5890     12.8921
 12     47.6844     45.8694     45.9098     46.1578     45.9221     45.9873     46.1750     46.1995     46.0542
 13      3.9055      4.6588      4.5694      4.6136      4.4605      4.6122      4.4992      4.6500      4.4120
 14      0.0000      0.0094      0.0000      0.0000      0.0000      0.0000      0.0712      0.0008      0.0000
 15      0.0000      0.0151      0.0000      0.0000      0.0000      0.0000      0.0000      0.0000      0.0000
 16      0.0000      0.0017      0.0000      0.0000      0.0025      0.0000      0.0000      0.0000      0.0000
 17      0.0000      0.0027      0.0087      0.0000      0.0000      0.0000      0.0000      0.0000      0.0000
 18      0.0000      0.0145      0.0000      0.0000      0.0140      0.0000      0.0364      0.0000      0.0000
 19      0.0000      0.0033      0.0000      0.0000      0.0000      0.0000      0.0000      0.0000      0.0000
 20      0.0000      0.0038      0.0000      0.0000      0.0000      0.0000      0.0000      0.0000      0.0000
 21      0.0000      0.0086      0.0000      0.0000      0.0000      0.0000      0.0000      0.0000      0.0491
 22      0.0000      0.0124      0.0000      0.0000      0.0000      0.0132      0.0000      0.0050      0.0048
 23      0.0000      0.0108      0.0000      0.0000      0.0000      0.0000      0.0000      0.0000      0.0000
 24      0.0000      0.0182      0.0000      0.0000      0.0000      0.0230      0.0000      0.0000      0.0000
 25      0.0000      0.0387      0.0066      0.0546      0.0000      0.0000      0.0000      0.1020      0.0000
 26      0.0000      0.0451      0.1842      0.0000      0.0000      0.0583      0.0079      0.0000      0.0000
 27      0.0000      0.0193      0.0000      0.0000      0.0150      0.0000      0.0086      0.0000      0.0000
 28      0.0000      0.0186      0.0000      0.0000      0.0000      0.0000      0.0000      0.0000      0.0000
 29      0.0000      0.0057      0.0000      0.0000      0.0000      0.0000      0.0000      0.0000      0.0000
 30      0.0000      0.0063      0.0000      0.0000      0.0000      0.0000      0.0102      0.0000      0.0000
 31      0.0000      0.0021      0.0000      0.0000      0.0000      0.0000      0.0000      0.0000      0.0000
 32      0.0000      0.0054      0.0000      0.0000      0.0000      0.0000      0.0000      0.0000      0.0000
 33      0.0000      0.0114      0.0000      0.0000      0.0000      0.0000      0.0000      0.0000      0.0000
 34      0.0000      0.0024      0.0000      0.0000      0.0000      0.0000      0.0000      0.0000      0.0049
 35      0.0000      0.0038      0.0000      0.0000      0.0000      0.0000      0.0000      0.0000      0.0000
 36      0.0000      0.0058      0.0000      0.0000      0.0000      0.0000      0.0000      0.0000      0.0000
 37      0.0000      0.0174      0.0000      0.0114      0.0000      0.0000      0.0000      0.0000      0.0000
 38      0.0000      0.0200      0.0000      0.0000      0.0640      0.0213      0.0798      0.0000      0.0000
 39      0.0000      0.0747      0.0000      0.0000      0.0000      0.0000      0.0228      0.0000      0.1858
 40      0.0000      0.1323      0.2997      0.1124      0.4330      0.1848      0.3760      0.1699      0.1335
 41      0.0000      0.0481      0.1382      0.0000      0.0833      0.1029      0.0000      0.0631      0.0388
 42      0.0000      0.0147      0.0000      0.0000      0.0000      0.0000      0.0000      0.0000      0.0634
 43      0.0000      0.0053      0.0000      0.0000      0.0000      0.0000      0.0000      0.0178      0.0000
 44      0.0000      0.0053      0.0000      0.0039      0.0000      0.0000      0.0000      0.0000      0.0000
 45      0.0000      0.0028      0.0019      0.0052      0.0000      0.0000      0.0000      0.0000      0.0000

# j      m_j: min, <> & last-chain-values for 1 ...  7 chains
  1  0.0000E+00  4.2252E-05  0.0000E+00  0.0000E+00  0.0000E+00  0.0000E+00  0.0000E+00  0.0000E+00  0.0000E+00
  2  1.1575E-01  1.1369E-01  1.1487E-01  1.1491E-01  1.1562E-01  1.1516E-01  1.1453E-01  1.1466E-01  1.1596E-01
  3  0.0000E+00  1.0696E-04  0.0000E+00  0.0000E+00  0.0000E+00  3.4089E-04  1.0178E-04  0.0000E+00  0.0000E+00
  4  0.0000E+00  3.0460E-04  0.0000E+00  0.0000E+00  7.1243E-04  0.0000E+00  0.0000E+00  0.0000E+00  0.0000E+00
  5  0.0000E+00  3.8092E-04  0.0000E+00  0.0000E+00  0.0000E+00  0.0000E+00  0.0000E+00  1.7925E-04  0.0000E+00
  6  0.0000E+00  8.8585E-04  0.0000E+00  0.0000E+00  3.4283E-03  0.0000E+00  1.7695E-03  0.0000E+00  0.0000E+00
  7  9.7792E-01  9.2672E-01  9.4226E-01  9.2149E-01  9.3707E-01  9.4023E-01  9.3585E-01  9.4185E-01  9.3301E-01
  8  0.0000E+00  4.8224E-03  1.4862E-02  5.1149E-03  4.2859E-03  0.0000E+00  1.3800E-03  3.4218E-03  0.0000E+00
  9  0.0000E+00  1.2231E-02  0.0000E+00  6.7470E-03  0.0000E+00  4.4635E-03  0.0000E+00  4.7073E-02  2.2202E-02
 10  4.5659E+00  4.6147E+00  4.5957E+00  4.6650E+00  4.6603E+00  4.6107E+00  4.6050E+00  4.6080E+00  4.6960E+00
 11  9.9879E+00  1.0404E+01  1.0404E+01  1.0546E+01  1.0498E+01  1.0509E+01  1.0274E+01  1.0197E+01  1.0509E+01
 12  7.2524E+01  6.8832E+01  6.9279E+01  6.9521E+01  6.9605E+01  6.9439E+01  6.9513E+01  6.9580E+01  6.9799E+01
 13  1.1829E+01  1.3922E+01  1.3732E+01  1.3838E+01  1.3464E+01  1.3869E+01  1.3488E+01  1.3947E+01  1.3316E+01
 14  0.0000E+00  5.7513E-02  0.0000E+00  0.0000E+00  0.0000E+00  0.0000E+00  4.3495E-01  4.9834E-03  0.0000E+00
 15  0.0000E+00  1.0667E-01  0.0000E+00  0.0000E+00  0.0000E+00  0.0000E+00  0.0000E+00  0.0000E+00  0.0000E+00
 16  0.0000E+00  2.3471E-05  0.0000E+00  0.0000E+00  3.4399E-05  0.0000E+00  0.0000E+00  0.0000E+00  0.0000E+00
 17  0.0000E+00  1.8926E-05  6.1764E-05  0.0000E+00  0.0000E+00  0.0000E+00  0.0000E+00  0.0000E+00  0.0000E+00
 18  0.0000E+00  1.1354E-04  0.0000E+00  0.0000E+00  1.1054E-04  0.0000E+00  2.8484E-04  0.0000E+00  0.0000E+00
 19  0.0000E+00  7.7915E-05  0.0000E+00  0.0000E+00  0.0000E+00  0.0000E+00  0.0000E+00  0.0000E+00  0.0000E+00
 20  0.0000E+00  1.9573E-04  0.0000E+00  0.0000E+00  0.0000E+00  0.0000E+00  0.0000E+00  0.0000E+00  0.0000E+00
 21  0.0000E+00  5.3795E-04  0.0000E+00  0.0000E+00  0.0000E+00  0.0000E+00  0.0000E+00  0.0000E+00  3.0940E-03
 22  0.0000E+00  1.2819E-03  0.0000E+00  0.0000E+00  0.0000E+00  1.3814E-03  0.0000E+00  5.1689E-04  5.0221E-04
 23  0.0000E+00  2.2084E-03  0.0000E+00  0.0000E+00  0.0000E+00  0.0000E+00  0.0000E+00  0.0000E+00  0.0000E+00
 24  0.0000E+00  8.4937E-03  0.0000E+00  0.0000E+00  0.0000E+00  1.0811E-02  0.0000E+00  0.0000E+00  0.0000E+00
 25  0.0000E+00  2.7804E-02  4.7377E-03  3.9340E-02  0.0000E+00  0.0000E+00  0.0000E+00  7.3496E-02  0.0000E+00
 26  0.0000E+00  6.1060E-02  2.5078E-01  0.0000E+00  0.0000E+00  7.9455E-02  1.0725E-02  0.0000E+00  0.0000E+00
 27  0.0000E+00  5.2927E-02  0.0000E+00  0.0000E+00  4.1689E-02  0.0000E+00  2.3849E-02  0.0000E+00  0.0000E+00
 28  0.0000E+00  1.0367E-01  0.0000E+00  0.0000E+00  0.0000E+00  0.0000E+00  0.0000E+00  0.0000E+00  0.0000E+00
 29  0.0000E+00  6.7467E-02  0.0000E+00  0.0000E+00  0.0000E+00  0.0000E+00  0.0000E+00  0.0000E+00  0.0000E+00
 30  0.0000E+00  8.8987E-02  0.0000E+00  0.0000E+00  0.0000E+00  0.0000E+00  1.4321E-01  0.0000E+00  0.0000E+00
 31  0.0000E+00  2.0936E-05  0.0000E+00  0.0000E+00  0.0000E+00  0.0000E+00  0.0000E+00  0.0000E+00  0.0000E+00
 32  0.0000E+00  2.8755E-05  0.0000E+00  0.0000E+00  0.0000E+00  0.0000E+00  0.0000E+00  0.0000E+00  0.0000E+00
 33  0.0000E+00  9.1018E-05  0.0000E+00  0.0000E+00  0.0000E+00  0.0000E+00  0.0000E+00  0.0000E+00  0.0000E+00
