###################################################################
## OUTPUT of StarlightChains_v04.for    [Cid@UFSC - 01/Apr/2007] ##
###################################################################

## Some input info
NGC5286_a_1.cxt                          [arq_obs]
Base.BC03.N                              [arq_base]
NGC5286_a_1.msk                          [arq_masks]
StCv04.C99.config                        [arq_config]
   45                                    [N_base]
    0                                    [N_YAV_components = # of components with extra extinction!]
    0                                    [i_FitPowerLaw (1/0 = Yes/No)]
-9.99                                    [alpha_PowerLaw]
CCM                                      [red_law_option]
 1.458241                                [q_norm = A(l_norm)/A(V)]

## (Re)Sampling Parameters
 3359.00                                 [l_ini (A)]
 6428.00                                 [l_fin (A)]
    1.00                                 [dl    (A)]     (OBS: dl_cushion =    50.00 A)

## Normalization info
 4020.00                                 [l_norm (A) - for base]
 4010.00                                 [llow_norm (A) - window for f_obs]
 4060.00                                 [lupp_norm (A) - window for f_obs]
3.810619E-14                             [fobs_norm (in input units)]

## S/N
 4730.00                                 [llow_SN (A) - window for S/N]
 4780.00                                 [lupp_SN (A) - window for S/N]
 122.361                                 [S/N in S/N window]
 104.972                                 [S/N in norm. window]
 167.801                                 [S/N_err in S/N window]
 143.955                                 [S/N_err in norm. window]
  1.0000                                 [fscale_chi2]

## etc...
  2147483638                             [idum_orig]
  3069                                   [NOl_eff]
  1417                                   [Nl_eff]
  1652    NSIGMA                         [Ntot_cliped & clip_method]
  1557360                                [Nglobal_steps]
   7                                     [N_chains]
   8                                     [NEX0s_base = N_base in EX0s-fits]
 0   0   1      194   2.0   3.182E+02    [Clip-Bug, RC-Crash & Burn-In warning-flags, n_censored_weights, wei_nsig_threshold & wei_limit]
    24     23.241     23.237      0.004  [idt_all, wdt_TotTime, wdt_UsrTime & wdt_SysTime (sec)]

## Synthesis Results - Best model ##

 2.84197E+00                             [chi2/Nl_eff]
     1.04608                             [adev (%)]

   101.42218                             [sum-of-x (%)]
 1.99395E-13                             [Flux_tot (units of input spectrum!)]
 1.08938E-09                             [Mini_tot (???)]
 5.96187E-10                             [Mcor_tot (???)]

 -18.74                                  [v0_min  (km/s)]
 102.05                                  [vd_min  (km/s)]
 1.2217                                  [AV_min  (mag)]
 0.0000                                  [YAV_min (mag)]

# j     x_j(%)      Mini_j(%)     Mcor_j(%)     age_j(yr)     Z_j      (L/M)_j    YAV?  Mstars   component_j        a/Fe...       SSP_chi2r SSP_adev(%)   SSP_AV   SSP_x(%)
  1      0.0000     0.0000E+00    0.0000E+00    1.000000E+06  0.00400  1.114E-02    0   1.0000   age020_m42            0.0000     4.5545E+02    10.3627   4.0000    77.6444
  2     15.5019     6.8687E-02    1.2549E-01    3.160000E+06  0.00400  4.073E-02    0   0.9999   age045_m42            0.0000     7.0145E+01     4.3017   3.0451    91.9770
  3      0.0000     0.0000E+00    0.0000E+00    5.010000E+06  0.00400  2.534E-02    0   0.9488   age055_m42            0.0000     2.1082E+02     7.2702   3.4487    85.4288
  4      9.6047     1.3638E-01    2.2084E-01    1.000000E+07  0.00400  1.271E-02    0   0.8862   age070_m42            0.0000     1.7771E+02     7.3123   2.6584    89.2951
  5      0.0000     0.0000E+00    0.0000E+00    2.512000E+07  0.00400  5.070E-03    0   0.8174   age090_m42            0.0000     1.5106E+02     6.7365   2.5314    90.7869
  6      0.0000     0.0000E+00    0.0000E+00    4.000000E+07  0.00400  3.505E-03    0   0.7851   age104_m42            0.0000     7.9181E+01     4.8206   2.2203    93.7253
  7     12.6528     1.0068E+00    1.3259E+00    1.015200E+08  0.00400  2.268E-03    0   0.7207   age116_m42            0.0000     1.6416E+02     5.2163   2.2217   103.7080
  8      0.0000     0.0000E+00    0.0000E+00    2.861200E+08  0.00400  1.079E-03    0   0.6613   age125_m42            0.0000     1.9401E+02     6.0443   1.7367   105.4987
  9      0.2093     7.4381E-02    8.4225E-02    6.405400E+08  0.00400  5.077E-04    0   0.6197   age132_m42            0.0000     2.2535E+02     6.4953   1.3762   109.4528
 10     27.0722     1.3821E+01    1.5213E+01    9.047900E+08  0.00400  3.535E-04    0   0.6024   age135_m42            0.0000     1.2975E+02     5.2624   1.1382   108.5433
 11      7.3660     6.9598E+00    7.2692E+00    1.434000E+09  0.00400  1.910E-04    0   0.5716   age139_m42            0.0000     7.1733E+01     4.6060   0.6131   107.1268
 12     16.6352     3.0578E+01    3.0524E+01    2.500000E+09  0.00400  9.818E-05    0   0.5463   age150_m42            0.0000     7.2485E+01     4.0637   0.3382   102.3004
 13     12.3801     4.7355E+01    4.5238E+01    5.000000E+09  0.00400  4.718E-05    0   0.5228   age161_m42            0.0000     1.1358E+02     4.5167   0.1732    98.7814
 14      0.0000     0.0000E+00    0.0000E+00    1.100000E+10  0.00400  2.205E-05    0   0.4980   age185_m42            0.0000     2.1767E+02     6.0998  -0.0839    96.4746
 15      0.0000     0.0000E+00    0.0000E+00    1.300000E+10  0.00400  1.883E-05    0   0.4927   age193_m42            0.0000     2.3381E+02     6.3034  -0.1001    96.2716
 16      0.0000     0.0000E+00    0.0000E+00    1.000000E+06  0.02000  1.989E-02    0   1.0000   age020_m62            0.0000     4.5870E+02    10.3850   3.9712    78.1272
 17      0.0000     0.0000E+00    0.0000E+00    3.160000E+06  0.02000  3.772E-02    0   0.9858   age045_m62            0.0000     4.0319E+02     9.8392   3.8301    80.3753
 18      0.0000     0.0000E+00    0.0000E+00    5.010000E+06  0.02000  3.227E-02    0   0.9342   age055_m62            0.0000     1.2635E+02     5.7396   3.3052    88.4932
 19      0.0000     0.0000E+00    0.0000E+00    1.000000E+07  0.02000  1.011E-02    0   0.8751   age070_m62            0.0000     4.8027E+02    11.9181   2.6867    85.0066
 20      0.0000     0.0000E+00    0.0000E+00    2.512000E+07  0.02000  4.206E-03    0   0.8099   age090_m62            0.0000     3.3782E+02     9.7471   2.6237    85.9690
 21      0.0000     0.0000E+00    0.0000E+00    4.000000E+07  0.02000  3.373E-03    0   0.7799   age104_m62            0.0000     5.7935E+01     4.2003   2.4355    95.2033
 22      0.0000     0.0000E+00    0.0000E+00    1.015200E+08  0.02000  1.878E-03    0   0.7221   age116_m62            0.0000     1.1585E+02     4.1052   2.2505   103.8462
 23      0.0000     0.0000E+00    0.0000E+00    2.861200E+08  0.02000  8.869E-04    0   0.6700   age125_m62            0.0000     3.7792E+02     8.1725   1.7463   110.6557
 24      0.0000     0.0000E+00    0.0000E+00    6.405400E+08  0.02000  3.657E-04    0   0.6322   age132_m62            0.0000     2.6948E+02     7.8947   1.0696   113.8428
 25      0.0000     0.0000E+00    0.0000E+00    9.047900E+08  0.02000  2.312E-04    0   0.6152   age135_m62            0.0000     1.6106E+02     6.6232   0.6936   112.8343
 26      0.0000     0.0000E+00    0.0000E+00    1.434000E+09  0.02000  1.168E-04    0   0.5865   age139_m62            0.0000     1.0181E+02     5.0865   0.2789   106.6722
 27      0.0000     0.0000E+00    0.0000E+00    2.500000E+09  0.02000  5.505E-05    0   0.5610   age150_m62            0.0000     1.8817E+02     6.2225  -0.0902   103.5495
 28      0.0000     0.0000E+00    0.0000E+00    5.000000E+09  0.02000  2.596E-05    0   0.5353   age161_m62            0.0000     3.6015E+02     8.3183  -0.4185   103.4256
 29      0.0000     0.0000E+00    0.0000E+00    1.100000E+10  0.02000  1.169E-05    0   0.5103   age185_m62            0.0000     5.6032E+02    10.3177  -0.7802   104.7729
 30      0.0000     0.0000E+00    0.0000E+00    1.300000E+10  0.02000  9.691E-06    0   0.5047   age193_m62            0.0000     5.9943E+02    10.6446  -0.8259   104.9766
 31      0.0000     0.0000E+00    0.0000E+00    1.000000E+06  0.05000  2.651E-02    0   0.9998   age020_m72            0.0000     4.2566E+02     9.8415   3.9749    78.9804
 32      0.0000     0.0000E+00    0.0000E+00    3.160000E+06  0.05000  4.817E-02    0   0.9577   age045_m72            0.0000     2.7246E+02     8.0179   3.6872    83.7505
 33      0.0000     0.0000E+00    0.0000E+00    5.010000E+06  0.05000  3.101E-02    0   0.9147   age055_m72            0.0000     2.4252E+02     7.7595   3.3267    86.3445
 34      0.0000     0.0000E+00    0.0000E+00    1.000000E+07  0.05000  8.954E-03    0   0.8524   age070_m72            0.0000     2.6725E+02     7.8814   3.5683    84.8184
 35      0.0000     0.0000E+00    0.0000E+00    2.512000E+07  0.05000  4.207E-03    0   0.7902   age090_m72            0.0000     1.0467E+02     5.0968   3.1350    90.6227
 36      0.0000     0.0000E+00    0.0000E+00    4.000000E+07  0.05000  3.198E-03    0   0.7618   age104_m72            0.0000     4.8989E+01     2.9885   2.6260    99.2825
 37      0.0000     0.0000E+00    0.0000E+00    1.015200E+08  0.05000  1.716E-03    0   0.7092   age116_m72            0.0000     1.5900E+02     4.9538   2.3392   104.0567
 38      0.0000     0.0000E+00    0.0000E+00    2.861200E+08  0.05000  7.047E-04    0   0.6618   age125_m72            0.0000     3.7950E+02     8.5603   1.5402   111.1969
 39      0.0000     0.0000E+00    0.0000E+00    6.405400E+08  0.05000  2.633E-04    0   0.6253   age132_m72            0.0000     2.2599E+02     7.6000   0.6896   113.3719
 40      0.0000     0.0000E+00    0.0000E+00    9.047900E+08  0.05000  1.484E-04    0   0.6088   age135_m72            0.0000     1.5781E+02     6.5047   0.2088   107.9708
 41      0.0000     0.0000E+00    0.0000E+00    1.434000E+09  0.05000  7.827E-05    0   0.5847   age139_m72            0.0000     2.5358E+02     7.4819  -0.1785   104.2156
 42      0.0000     0.0000E+00    0.0000E+00    2.500000E+09  0.05000  3.759E-05    0   0.5583   age150_m72            0.0000     3.9101E+02     8.7798  -0.4975   103.1802
 43      0.0000     0.0000E+00    0.0000E+00    5.000000E+09  0.05000  1.548E-05    0   0.5320   age161_m72            0.0000     5.7650E+02    10.3997  -0.9117   102.8587
 44      0.0000     0.0000E+00    0.0000E+00    1.100000E+10  0.05000  6.532E-06    0   0.5070   age185_m72            0.0000     8.9999E+02    13.1740  -1.0000    94.6703
 45      0.0000     0.0000E+00    0.0000E+00    1.300000E+10  0.05000  5.316E-06    0   0.5018   age193_m72            0.0000     1.0827E+03    14.5747  -1.0000    91.4186


## Synthesis Results - Average & Chains ##

# j      x_j: min, <> & last-chain-values for 1 ...  7 chains
  1      0.0000      0.0077      0.0000      0.0000      0.0000      0.0000      0.0000      0.0000      0.0443
  2     15.5019     13.3303     13.6072     13.4414     13.7027     13.5528     13.7129     13.5210     13.6194
  3      0.0000      0.0268      0.0000      0.0000      0.0000      0.0103      0.0277      0.0000      0.0000
  4      9.6047     10.6982     10.8133     10.7811     10.6785     10.7166     10.6426     10.8229     10.6946
  5      0.0000      0.0531      0.0000      0.1791      0.0000      0.0000      0.0000      0.0110      0.0000
  6      0.0000      0.0248      0.0000      0.0000      0.0000      0.0000      0.0044      0.0000      0.0000
  7     12.6528     12.9788     13.0638     13.1016     13.0483     13.4001     13.0074     13.0665     13.1534
  8      0.0000      0.0901      0.1998      0.0000      0.0000      0.0665      0.0009      0.0347      0.0000
  9      0.2093      0.5246      0.5948      0.5021      0.8881      0.5356      0.9945      1.0827      0.0714
 10     27.0722     25.0545     25.1665     25.3007     25.0285     25.4898     25.1091     25.0089     26.1521
 11      7.3660      9.6879      9.5018      9.7815      9.5300      9.1859      9.1119      9.3034      9.2317
 12     16.6352     15.4356     15.4746     15.5456     15.4832     15.5123     15.3799     15.2755     15.4086
 13     12.3801     12.0704     11.8866     11.5213     11.9608     12.0936     11.9365     12.1890     12.0849
 14      0.0000      0.0145      0.0000      0.0000      0.0000      0.0000      0.0000      0.0000      0.0000
 15      0.0000      0.0084      0.0000      0.0000      0.0000      0.0000      0.0000      0.0000      0.0000
 16      0.0000      0.0058      0.0000      0.0000      0.0000      0.0000      0.0000      0.0000      0.0000
 17      0.0000      0.0063      0.0053      0.0000      0.0000      0.0000      0.0000      0.0459      0.0000
 18      0.0000      0.0948      0.0937      0.2278      0.0000      0.0175      0.1395      0.1385      0.0000
 19      0.0000      0.0154      0.0000      0.0000      0.0712      0.0000      0.0000      0.0000      0.0000
 20      0.0000      0.0073      0.0000      0.0000      0.0000      0.0000      0.0000      0.0000      0.0000
 21      0.0000      0.0233      0.0000      0.0000      0.0213      0.0000      0.0013      0.0000      0.0266
 22      0.0000      0.0455      0.0000      0.0000      0.0234      0.0000      0.0567      0.0000      0.0000
 23      0.0000      0.0353      0.0000      0.0000      0.0000      0.0168      0.0203      0.0000      0.0000
 24      0.0000      0.0237      0.0021      0.0000      0.0000      0.0000      0.0000      0.0000      0.0000
 25      0.0000      0.0379      0.0000      0.0000      0.0008      0.0303      0.0000      0.0000      0.0000
 26      0.0000      0.0856      0.0000      0.0692      0.0000      0.0816      0.1648      0.1549      0.1021
 27      0.0000      0.0610      0.1809      0.1184      0.0000      0.0145      0.2800      0.0043      0.0319
 28      0.0000      0.0247      0.0000      0.0000      0.1430      0.0179      0.0000      0.0000      0.0387
 29      0.0000      0.0095      0.0000      0.0302      0.0000      0.0000      0.0000      0.0000      0.0000
 30      0.0000      0.0480      0.0000      0.0000      0.0000      0.1043      0.0000      0.0000      0.0416
 31      0.0000      0.0052      0.0000      0.0000      0.0000      0.0000      0.0000      0.0000      0.0000
 32      0.0000      0.0159      0.0000      0.0000      0.0159      0.0000      0.0132      0.0000      0.0003
 33      0.0000      0.0225      0.0000      0.0000      0.0000      0.0000      0.0000      0.0018      0.0000
 34      0.0000      0.0059      0.0000      0.0000      0.0000      0.0000      0.0000      0.0000      0.0000
 35      0.0000      0.0089      0.0000      0.0000      0.0000      0.0012      0.0000      0.0000      0.0000
 36      0.0000      0.0270      0.0000      0.0000      0.0092      0.0000      0.0000      0.0000      0.0000
 37      0.0000      0.0667      0.0517      0.0099      0.0719      0.0000      0.0000      0.0106      0.0000
 38      0.0000      0.0359      0.0000      0.0000      0.0000      0.0092      0.0000      0.0037      0.0004
 39      0.0000      0.0516      0.0000      0.0419      0.0000      0.0000      0.1178      0.0684      0.0000
 40      0.0000      0.0789      0.1275      0.1806      0.1494      0.0000      0.1157      0.0000      0.1328
 41      0.0000      0.2027      0.2924      0.2096      0.1743      0.0685      0.2086      0.2070      0.3188
 42      0.0000      0.1088      0.1102      0.1118      0.1843      0.1543      0.1509      0.1271      0.0000
 43      0.0000      0.0699      0.0470      0.0207      0.0617      0.1066      0.0719      0.1248      0.0297
 44      0.0000      0.2220      0.2152      0.2984      0.2150      0.2201      0.1942      0.2094      0.2292
 45      0.0000      0.1034      0.1136      0.0939      0.0976      0.1461      0.0912      0.1221      0.1455

# j      m_j: min, <> & last-chain-values for 1 ...  7 chains
  1  0.0000E+00  2.0616E-04  0.0000E+00  0.0000E+00  0.0000E+00  0.0000E+00  0.0000E+00  0.0000E+00  1.1828E-03
  2  1.2549E-01  9.7541E-02  1.0108E-01  9.9352E-02  1.0137E-01  9.7545E-02  1.0240E-01  9.9501E-02  9.9368E-02
  3  0.0000E+00  2.9960E-04  0.0000E+00  0.0000E+00  0.0000E+00  1.1263E-04  3.1501E-04  0.0000E+00  0.0000E+00
  4  2.2084E-01  2.2233E-01  2.2813E-01  2.2633E-01  2.2436E-01  2.1907E-01  2.2571E-01  2.2621E-01  2.2161E-01
  5  0.0000E+00  2.5511E-03  0.0000E+00  8.6927E-03  0.0000E+00  0.0000E+00  0.0000E+00  5.3228E-04  0.0000E+00
  6  0.0000E+00  1.6584E-03  0.0000E+00  0.0000E+00  0.0000E+00  0.0000E+00  3.0237E-04  0.0000E+00  0.0000E+00
  7  1.3259E+00  1.2293E+00  1.2561E+00  1.2535E+00  1.2494E+00  1.2484E+00  1.2572E+00  1.2446E+00  1.2422E+00
  8  0.0000E+00  1.6452E-02  3.7051E-02  0.0000E+00  0.0000E+00  1.1950E-02  1.6339E-04  6.3803E-03  0.0000E+00
  9  8.4225E-02  1.9084E-01  2.1966E-01  1.8453E-01  3.2666E-01  1.9168E-01  3.6921E-01  3.9616E-01  2.5915E-02
 10  1.5213E+01  1.2726E+01  1.2977E+01  1.2981E+01  1.2852E+01  1.2735E+01  1.3015E+01  1.2775E+01  1.3245E+01
 11  7.2692E+00  8.6415E+00  8.6041E+00  8.8136E+00  8.5942E+00  8.0596E+00  8.2943E+00  8.3459E+00  8.2108E+00
 12  3.0524E+01  2.5600E+01  2.6054E+01  2.6044E+01  2.5961E+01  2.5306E+01  2.6030E+01  2.5479E+01  2.5481E+01
 13  4.5238E+01  3.9866E+01  3.9855E+01  3.8439E+01  3.9938E+01  3.9289E+01  4.0232E+01  4.0488E+01  3.9798E+01
 14  0.0000E+00  9.7631E-02  0.0000E+00  0.0000E+00  0.0000E+00  0.0000E+00  0.0000E+00  0.0000E+00  0.0000E+00
 15  0.0000E+00  6.5581E-02  0.0000E+00  0.0000E+00  0.0000E+00  0.0000E+00  0.0000E+00  0.0000E+00  0.0000E+00
 16  0.0000E+00  8.7616E-05  0.0000E+00  0.0000E+00  0.0000E+00  0.0000E+00  0.0000E+00  0.0000E+00  0.0000E+00
 17  0.0000E+00  4.9304E-05  4.1763E-05  0.0000E+00  0.0000E+00  0.0000E+00  0.0000E+00  3.5952E-04  0.0000E+00
 18  0.0000E+00  8.1780E-04  8.2092E-04  1.9858E-03  0.0000E+00  1.4860E-04  1.2282E-03  1.2015E-03  0.0000E+00
 19  0.0000E+00  3.9703E-04  0.0000E+00  0.0000E+00  1.8563E-03  0.0000E+00  0.0000E+00  0.0000E+00  0.0000E+00
 20  0.0000E+00  4.1655E-04  0.0000E+00  0.0000E+00  0.0000E+00  0.0000E+00  0.0000E+00  0.0000E+00  0.0000E+00
 21  0.0000E+00  1.6029E-03  0.0000E+00  0.0000E+00  1.4817E-03  0.0000E+00  9.2130E-05  0.0000E+00  1.8264E-03
 22  0.0000E+00  5.2192E-03  0.0000E+00  0.0000E+00  2.7164E-03  0.0000E+00  6.6265E-03  0.0000E+00  0.0000E+00
 23  0.0000E+00  7.9543E-03  0.0000E+00  0.0000E+00  0.0000E+00  3.7156E-03  4.6725E-03  0.0000E+00  0.0000E+00
 24  0.0000E+00  1.2216E-02  1.1032E-03  0.0000E+00  0.0000E+00  0.0000E+00  0.0000E+00  0.0000E+00  0.0000E+00
 25  0.0000E+00  3.0060E-02  0.0000E+00  0.0000E+00  6.1007E-04  2.3634E-02  0.0000E+00  0.0000E+00  0.0000E+00
 26  0.0000E+00  1.2817E-01  0.0000E+00  1.0465E-01  0.0000E+00  1.2011E-01  2.5172E-01  2.3311E-01  1.5231E-01
 27  0.0000E+00  1.8526E-01  5.5767E-01  3.6342E-01  0.0000E+00  4.3208E-02  8.6785E-01  1.3233E-02  9.6599E-02
 28  0.0000E+00  1.5166E-01  0.0000E+00  0.0000E+00  8.8884E-01  1.0815E-01  0.0000E+00  0.0000E+00  2.3735E-01
 29  0.0000E+00  1.2408E-01  0.0000E+00  3.9702E-01  0.0000E+00  0.0000E+00  0.0000E+00  0.0000E+00  0.0000E+00
 30  0.0000E+00  7.4466E-01  0.0000E+00  0.0000E+00  0.0000E+00  1.5927E+00  0.0000E+00  0.0000E+00  6.4419E-01
 31  0.0000E+00  5.8641E-05  0.0000E+00  0.0000E+00  0.0000E+00  0.0000E+00  0.0000E+00  0.0000E+00  0.0000E+00
 32  0.0000E+00  9.4219E-05  0.0000E+00  0.0000E+00  9.5111E-05  0.0000E+00  7.9661E-05  0.0000E+00  1.9596E-06
 33  0.0000E+00  1.9741E-04  0.0000E+00  0.0000E+00  0.0000E+00  0.0000E+00  0.0000E+00  1.5997E-05  0.0000E+00
