###################################################################
## OUTPUT of StarlightChains_v04.for    [Cid@UFSC - 01/Apr/2007] ##
###################################################################

## Some input info
NGC5946_a_1.cxt                          [arq_obs]
Base.BC03.N                              [arq_base]
NGC5946_a_1.msk                          [arq_masks]
StCv04.C99.config                        [arq_config]
   45                                    [N_base]
    0                                    [N_YAV_components = # of components with extra extinction!]
    0                                    [i_FitPowerLaw (1/0 = Yes/No)]
-9.99                                    [alpha_PowerLaw]
CCM                                      [red_law_option]
 1.458241                                [q_norm = A(l_norm)/A(V)]

## (Re)Sampling Parameters
 3359.00                                 [l_ini (A)]
 6428.00                                 [l_fin (A)]
    1.00                                 [dl    (A)]     (OBS: dl_cushion =    50.00 A)

## Normalization info
 4020.00                                 [l_norm (A) - for base]
 4010.00                                 [llow_norm (A) - window for f_obs]
 4060.00                                 [lupp_norm (A) - window for f_obs]
2.679293E-15                             [fobs_norm (in input units)]

## S/N
 4730.00                                 [llow_SN (A) - window for S/N]
 4780.00                                 [lupp_SN (A) - window for S/N]
  76.219                                 [S/N in S/N window]
  50.437                                 [S/N in norm. window]
 152.898                                 [S/N_err in S/N window]
 101.177                                 [S/N_err in norm. window]
  1.0000                                 [fscale_chi2]

## etc...
  2147483630                             [idum_orig]
  3068                                   [NOl_eff]
   846                                   [Nl_eff]
  2222    NSIGMA                         [Ntot_cliped & clip_method]
  1501640                                [Nglobal_steps]
   7                                     [N_chains]
   7                                     [NEX0s_base = N_base in EX0s-fits]
 0   0   1      136   2.0   2.373E+02    [Clip-Bug, RC-Crash & Burn-In warning-flags, n_censored_weights, wei_nsig_threshold & wei_limit]
    24     24.685     24.677      0.008  [idt_all, wdt_TotTime, wdt_UsrTime & wdt_SysTime (sec)]

## Synthesis Results - Best model ##

 2.72765E+00                             [chi2/Nl_eff]
     1.93739                             [adev (%)]

    99.93677                             [sum-of-x (%)]
 6.79375E-14                             [Flux_tot (units of input spectrum!)]
 4.32795E-10                             [Mini_tot (???)]
 2.35069E-10                             [Mcor_tot (???)]

 -37.37                                  [v0_min  (km/s)]
 129.42                                  [vd_min  (km/s)]
 2.4076                                  [AV_min  (mag)]
 0.0000                                  [YAV_min (mag)]

# j     x_j(%)      Mini_j(%)     Mcor_j(%)     age_j(yr)     Z_j      (L/M)_j    YAV?  Mstars   component_j        a/Fe...       SSP_chi2r SSP_adev(%)   SSP_AV   SSP_x(%)
  1      0.0000     0.0000E+00    0.0000E+00    1.000000E+06  0.00400  1.114E-02    0   1.0000   age020_m42            0.0000     1.9926E+03    30.9512   4.0000    96.0057
  2     10.9014     4.2041E-02    7.7395E-02    3.160000E+06  0.00400  4.073E-02    0   0.9999   age045_m42            0.0000     1.3259E+02     8.3159   4.0000    99.2523
  3      0.0000     0.0000E+00    0.0000E+00    5.010000E+06  0.00400  2.534E-02    0   0.9488   age055_m42            0.0000     6.3263E+02    18.2910   4.0000    99.4208
  4     20.8689     2.5790E-01    4.2080E-01    1.000000E+07  0.00400  1.271E-02    0   0.8862   age070_m42            0.0000     7.8189E+01     7.8581   3.8776    91.1611
  5      3.6310     1.1249E-01    1.6929E-01    2.512000E+07  0.00400  5.070E-03    0   0.8174   age090_m42            0.0000     6.3041E+01     7.0739   3.7524    92.7276
  6      0.0000     0.0000E+00    0.0000E+00    4.000000E+07  0.00400  3.505E-03    0   0.7851   age104_m42            0.0000     3.0474E+01     4.9484   3.4487    95.6246
  7      0.0000     0.0000E+00    0.0000E+00    1.015200E+08  0.00400  2.268E-03    0   0.7207   age116_m42            0.0000     2.1526E+02    10.7929   3.4966   103.2757
  8      0.0000     0.0000E+00    0.0000E+00    2.861200E+08  0.00400  1.079E-03    0   0.6613   age125_m42            0.0000     2.5260E+02    12.0473   3.0111   104.8544
  9      0.0048     1.4792E-03    1.6877E-03    6.405400E+08  0.00400  5.077E-04    0   0.6197   age132_m42            0.0000     2.7670E+02    12.9831   2.6621   108.3282
 10     22.6151     1.0049E+01    1.1145E+01    9.047900E+08  0.00400  3.535E-04    0   0.6024   age135_m42            0.0000     1.8275E+02    10.7928   2.4191   107.8179
 11      0.0000     0.0000E+00    0.0000E+00    1.434000E+09  0.00400  1.910E-04    0   0.5716   age139_m42            0.0000     1.0551E+02     8.5350   1.8942   107.0205
 12     28.9175     4.6264E+01    4.6533E+01    2.500000E+09  0.00400  9.818E-05    0   0.5463   age150_m42            0.0000     6.1998E+01     6.3082   1.6077   103.0198
 13     12.9981     4.3274E+01    4.1653E+01    5.000000E+09  0.00400  4.718E-05    0   0.5228   age161_m42            0.0000     6.7570E+01     5.8743   1.4324   100.0952
 14      0.0000     0.0000E+00    0.0000E+00    1.100000E+10  0.00400  2.205E-05    0   0.4980   age185_m42            0.0000     1.3011E+02     7.6663   1.1721    98.2355
 15      0.0000     0.0000E+00    0.0000E+00    1.300000E+10  0.00400  1.883E-05    0   0.4927   age193_m42            0.0000     1.3992E+02     7.9706   1.1543    98.1328
 16      0.0000     0.0000E+00    0.0000E+00    1.000000E+06  0.02000  1.989E-02    0   1.0000   age020_m62            0.0000     1.8952E+03    29.9962   4.0000    96.5834
 17      0.0000     0.0000E+00    0.0000E+00    3.160000E+06  0.02000  3.772E-02    0   0.9858   age045_m62            0.0000     1.5126E+03    27.4049   4.0000    98.2552
 18      0.0000     0.0000E+00    0.0000E+00    5.010000E+06  0.02000  3.227E-02    0   0.9342   age055_m62            0.0000     3.9192E+02    14.3546   4.0000   100.4813
 19      0.0000     0.0000E+00    0.0000E+00    1.000000E+07  0.02000  1.011E-02    0   0.8751   age070_m62            0.0000     2.4602E+02    13.0867   3.8794    87.8673
 20      0.0000     0.0000E+00    0.0000E+00    2.512000E+07  0.02000  4.206E-03    0   0.8099   age090_m62            0.0000     1.5843E+02    10.8675   3.8196    88.7597
 21      0.0000     0.0000E+00    0.0000E+00    4.000000E+07  0.02000  3.373E-03    0   0.7799   age104_m62            0.0000     3.5802E+01     4.4921   3.6642    96.7676
 22      0.0000     0.0000E+00    0.0000E+00    1.015200E+08  0.02000  1.878E-03    0   0.7221   age116_m62            0.0000     1.7503E+02     9.4928   3.5144   103.8418
 23      0.0000     0.0000E+00    0.0000E+00    2.861200E+08  0.02000  8.869E-04    0   0.6700   age125_m62            0.0000     4.2853E+02    15.6730   3.0407   109.4038
 24      0.0000     0.0000E+00    0.0000E+00    6.405400E+08  0.02000  3.657E-04    0   0.6322   age132_m62            0.0000     3.1754E+02    13.9495   2.3739   112.4245
 25      0.0000     0.0000E+00    0.0000E+00    9.047900E+08  0.02000  2.312E-04    0   0.6152   age135_m62            0.0000     1.9824E+02    11.3135   1.9942   111.8773
 26      0.0000     0.0000E+00    0.0000E+00    1.434000E+09  0.02000  1.168E-04    0   0.5865   age139_m62            0.0000     9.6730E+01     7.6922   1.5625   106.9535
 27      0.0000     0.0000E+00    0.0000E+00    2.500000E+09  0.02000  5.505E-05    0   0.5610   age150_m62            0.0000     1.3105E+02     8.2171   1.1916   104.4020
 28      0.0000     0.0000E+00    0.0000E+00    5.000000E+09  0.02000  2.596E-05    0   0.5353   age161_m62            0.0000     2.3907E+02    10.6755   0.8650   104.5647
 29      0.0000     0.0000E+00    0.0000E+00    1.100000E+10  0.02000  1.169E-05    0   0.5103   age185_m62            0.0000     3.7549E+02    13.2171   0.5033   106.2726
 30      0.0000     0.0000E+00    0.0000E+00    1.300000E+10  0.02000  9.691E-06    0   0.5047   age193_m62            0.0000     4.0293E+02    13.6759   0.4581   106.5409
 31      0.0000     0.0000E+00    0.0000E+00    1.000000E+06  0.05000  2.651E-02    0   0.9998   age020_m72            0.0000     1.8662E+03    29.5009   4.0000    97.7254
 32      0.0000     0.0000E+00    0.0000E+00    3.160000E+06  0.05000  4.817E-02    0   0.9577   age045_m72            0.0000     1.0913E+03    23.2987   4.0000   100.8422
 33      0.0000     0.0000E+00    0.0000E+00    5.010000E+06  0.05000  3.101E-02    0   0.9147   age055_m72            0.0000     4.6010E+02    16.5131   4.0000    98.8507
 34      0.0000     0.0000E+00    0.0000E+00    1.000000E+07  0.05000  8.954E-03    0   0.8524   age070_m72            0.0000     8.3265E+02    20.5568   4.0000   100.6959
 35      0.0000     0.0000E+00    0.0000E+00    2.512000E+07  0.05000  4.207E-03    0   0.7902   age090_m72            0.0000     1.9305E+02    10.2028   4.0000    99.9166
 36      0.0000     0.0000E+00    0.0000E+00    4.000000E+07  0.05000  3.198E-03    0   0.7618   age104_m72            0.0000     9.8516E+01     6.6697   3.8728   100.1394
 37      0.0000     0.0000E+00    0.0000E+00    1.015200E+08  0.05000  1.716E-03    0   0.7092   age116_m72            0.0000     2.2310E+02    10.7614   3.6113   103.7963
 38      0.0000     0.0000E+00    0.0000E+00    2.861200E+08  0.05000  7.047E-04    0   0.6618   age125_m72            0.0000     4.2016E+02    15.6882   2.8462   109.8791
 39      0.0000     0.0000E+00    0.0000E+00    6.405400E+08  0.05000  2.633E-04    0   0.6253   age132_m72            0.0000     2.5827E+02    12.8137   2.0043   112.0544
 40      0.0000     0.0000E+00    0.0000E+00    9.047900E+08  0.05000  1.484E-04    0   0.6088   age135_m72            0.0000     1.5793E+02    10.0970   1.5137   107.4985
 41      0.0000     0.0000E+00    0.0000E+00    1.434000E+09  0.05000  7.827E-05    0   0.5847   age139_m72            0.0000     1.8477E+02     9.8321   1.1173   104.6224
 42      0.0000     0.0000E+00    0.0000E+00    2.500000E+09  0.05000  3.759E-05    0   0.5583   age150_m72            0.0000     2.5876E+02    11.1111   0.7919   104.2163
 43      0.0000     0.0000E+00    0.0000E+00    5.000000E+09  0.05000  1.548E-05    0   0.5320   age161_m72            0.0000     3.8260E+02    13.1189   0.3851   104.1257
 44      0.0000     0.0000E+00    0.0000E+00    1.100000E+10  0.05000  6.532E-06    0   0.5070   age185_m72            0.0000     5.5006E+02    15.6435   0.0110   104.4105
 45      0.0000     0.0000E+00    0.0000E+00    1.300000E+10  0.05000  5.316E-06    0   0.5018   age193_m72            0.0000     6.2264E+02    16.6860  -0.1049   104.6331


## Synthesis Results - Average & Chains ##

# j      x_j: min, <> & last-chain-values for 1 ...  7 chains
  1      0.0000      0.0189      0.0000      0.0000      0.0000      0.0000      0.0000      0.0000      0.0000
  2     10.9014     11.3546     11.4938     11.0863     11.6021     11.3535     11.6533     11.4185     11.1748
  3      0.0000      0.0577      0.0000      0.1232      0.2851      0.0000      0.0869      0.0000      0.0000
  4     20.8689     18.0652     17.9613     18.5383     18.0957     18.6480     18.4427     18.2018     18.2406
  5      3.6310      4.6308      4.7886      4.7357      4.6097      4.6820      4.3878      4.6881      4.7475
  6      0.0000      0.0498      0.0000      0.0000      0.0499      0.0000      0.0000      0.0042      0.0000
  7      0.0000      0.1002      0.0246      0.0000      0.1097      0.0000      0.0891      0.0731      0.0000
  8      0.0000      0.0473      0.0493      0.0000      0.0000      0.0229      0.0000      0.0000      0.0000
  9      0.0048      0.2922      0.2615      0.2068      0.1562      0.4751      0.5098      0.0000      0.8311
 10     22.6151     21.6753     22.3826     22.2697     21.8831     21.9352     21.5861     22.6161     21.3436
 11      0.0000      0.2640      0.3092      0.0000      0.4094      0.1552      0.0000      0.2699      0.7182
 12     28.9175     27.4618     27.0740     27.6395     27.4840     27.6172     28.2113     26.9614     27.3235
 13     12.9981     13.8710     13.7369     13.9925     13.9510     13.7074     13.7414     13.9599     13.7129
 14      0.0000      0.0212      0.0000      0.0000      0.0000      0.0000      0.0000      0.0000      0.0000
 15      0.0000      0.0132      0.0000      0.0000      0.0000      0.0000      0.0000      0.0209      0.0000
 16      0.0000      0.0210      0.0000      0.0000      0.0000      0.0000      0.0000      0.0000      0.0723
 17      0.0000      0.0161      0.0000      0.0000      0.0000      0.0085      0.0000      0.0000      0.0000
 18      0.0000      0.5073      0.7962      0.5282      0.5785      0.4675      0.4641      0.5410      0.7406
 19      0.0000      0.0502      0.0000      0.0000      0.0283      0.0000      0.0000      0.2255      0.0000
 20      0.0000      0.0199      0.0000      0.0000      0.0194      0.0000      0.0000      0.0000      0.0000
 21      0.0000      0.0309      0.0000      0.0000      0.0000      0.0000      0.0000      0.0000      0.0000
 22      0.0000      0.0642      0.0000      0.0871      0.0991      0.0000      0.0961      0.0230      0.0000
 23      0.0000      0.0456      0.0000      0.0000      0.0000      0.0032      0.0000      0.0000      0.0000
 24      0.0000      0.0430      0.0000      0.0000      0.0198      0.0000      0.0000      0.0000      0.0000
 25      0.0000      0.0671      0.0000      0.0000      0.1624      0.0000      0.0000      0.0000      0.0000
 26      0.0000      0.0895      0.0000      0.0000      0.0448      0.0000      0.0080      0.0000      0.0000
 27      0.0000      0.3491      0.7008      0.4322      0.0469      0.4284      0.4315      0.5684      0.4290
 28      0.0000      0.0801      0.0000      0.1932      0.0797      0.1018      0.0000      0.0942      0.0000
 29      0.0000      0.0538      0.0656      0.0000      0.0703      0.0434      0.0000      0.0325      0.0847
 30      0.0000      0.0219      0.1326      0.0000      0.0000      0.0000      0.0000      0.0679      0.0753
 31      0.0000      0.0145      0.0629      0.0250      0.0000      0.0000      0.0000      0.0000      0.0000
 32      0.0000      0.1069      0.0946      0.0000      0.0000      0.0527      0.0700      0.0679      0.0435
 33      0.0000      0.0498      0.0000      0.0000      0.0000      0.0413      0.0000      0.1104      0.1631
 34      0.0000      0.0247      0.0000      0.0000      0.0000      0.0000      0.0000      0.0000      0.0000
 35      0.0000      0.0213      0.0000      0.0000      0.0000      0.0000      0.0000      0.0000      0.0000
 36      0.0000      0.0317      0.0000      0.0203      0.0084      0.0293      0.0000      0.0000      0.0000
 37      0.0000      0.0503      0.0000      0.0000      0.0201      0.0000      0.0248      0.0000      0.0000
 38      0.0000      0.0291      0.0000      0.0395      0.0161      0.0055      0.0000      0.0000      0.0000
 39      0.0000      0.0513      0.0000      0.0000      0.0000      0.0000      0.0000      0.0000      0.0000
 40      0.0000      0.0664      0.0000      0.0000      0.0000      0.0054      0.0000      0.0417      0.0151
 41      0.0000      0.1035      0.0510      0.0886      0.1007      0.0000      0.0000      0.0000      0.2760
 42      0.0000      0.0377      0.0000      0.0000      0.0477      0.1677      0.1221      0.0000      0.0000
 43      0.0000      0.0128      0.0464      0.0000      0.0000      0.0000      0.0000      0.0000      0.0077
 44      0.0000      0.0192      0.0000      0.0000      0.0000      0.0119      0.0000      0.0000      0.0000
 45      0.0000      0.0090      0.0000      0.0000      0.0000      0.0000      0.0381      0.0000      0.0000

# j      m_j: min, <> & last-chain-values for 1 ...  7 chains
  1  0.0000E+00  4.6921E-04  0.0000E+00  0.0000E+00  0.0000E+00  0.0000E+00  0.0000E+00  0.0000E+00  0.0000E+00
  2  7.7395E-02  7.7036E-02  7.7624E-02  7.5912E-02  8.0007E-02  7.7821E-02  7.9718E-02  7.7900E-02  7.6152E-02
  3  0.0000E+00  5.9689E-04  0.0000E+00  1.2862E-03  2.9984E-03  0.0000E+00  9.0700E-04  0.0000E+00  0.0000E+00
  4  4.2080E-01  3.4810E-01  3.4452E-01  3.6053E-01  3.5442E-01  3.6303E-01  3.5833E-01  3.5268E-01  3.5304E-01
  5  1.6929E-01  2.0633E-01  2.1238E-01  2.1296E-01  2.0876E-01  2.1076E-01  1.9712E-01  2.1004E-01  2.1247E-01
  6  0.0000E+00  3.0820E-03  0.0000E+00  0.0000E+00  3.1395E-03  0.0000E+00  0.0000E+00  2.6029E-04  0.0000E+00
  7  0.0000E+00  8.7958E-03  2.1548E-03  0.0000E+00  9.7908E-03  0.0000E+00  7.8908E-03  6.4539E-03  0.0000E+00
  8  0.0000E+00  8.0071E-03  8.3152E-03  0.0000E+00  0.0000E+00  3.9184E-03  0.0000E+00  0.0000E+00  0.0000E+00
  9  1.6877E-03  9.8574E-02  8.7814E-02  7.0390E-02  5.3569E-02  1.6193E-01  1.7340E-01  0.0000E+00  2.8161E-01
 10  1.1145E+01  1.0208E+01  1.0493E+01  1.0585E+01  1.0475E+01  1.0437E+01  1.0250E+01  1.0710E+01  1.0096E+01
 11  0.0000E+00  2.1833E-01  2.5455E-01  0.0000E+00  3.4413E-01  1.2964E-01  0.0000E+00  2.2450E-01  5.9660E-01
 12  4.6533E+01  4.2230E+01  4.1443E+01  4.2897E+01  4.2958E+01  4.2905E+01  4.3742E+01  4.1690E+01  4.2203E+01
 13  4.1653E+01  4.2478E+01  4.1875E+01  4.3247E+01  4.3424E+01  4.2409E+01  4.2430E+01  4.2988E+01  4.2180E+01
 14  0.0000E+00  1.3231E-01  0.0000E+00  0.0000E+00  0.0000E+00  0.0000E+00  0.0000E+00  0.0000E+00  0.0000E+00
 15  0.0000E+00  9.5601E-02  0.0000E+00  0.0000E+00  0.0000E+00  0.0000E+00  0.0000E+00  1.5175E-01  0.0000E+00
 16  0.0000E+00  2.9151E-04  0.0000E+00  0.0000E+00  0.0000E+00  0.0000E+00  0.0000E+00  0.0000E+00  1.0092E-03
 17  0.0000E+00  1.1642E-04  0.0000E+00  0.0000E+00  0.0000E+00  6.1801E-05  0.0000E+00  0.0000E+00  0.0000E+00
 18  0.0000E+00  4.0589E-03  6.3411E-03  4.2652E-03  4.7046E-03  3.7790E-03  3.7439E-03  4.3520E-03  5.9514E-03
 19  0.0000E+00  1.1998E-03  0.0000E+00  0.0000E+00  6.8714E-04  0.0000E+00  0.0000E+00  5.4252E-03  0.0000E+00
 20  0.0000E+00  1.0594E-03  0.0000E+00  0.0000E+00  1.0507E-03  0.0000E+00  0.0000E+00  0.0000E+00  0.0000E+00
 21  0.0000E+00  1.9773E-03  0.0000E+00  0.0000E+00  0.0000E+00  0.0000E+00  0.0000E+00  0.0000E+00  0.0000E+00
 22  0.0000E+00  6.8269E-03  0.0000E+00  9.3400E-03  1.0699E-02  0.0000E+00  1.0302E-02  2.4614E-03  0.0000E+00
 23  0.0000E+00  9.5268E-03  0.0000E+00  0.0000E+00  0.0000E+00  6.6948E-04  0.0000E+00  0.0000E+00  0.0000E+00
 24  0.0000E+00  2.0528E-02  0.0000E+00  0.0000E+00  9.6212E-03  0.0000E+00  0.0000E+00  0.0000E+00  0.0000E+00
 25  0.0000E+00  4.9345E-02  0.0000E+00  0.0000E+00  1.2135E-01  0.0000E+00  0.0000E+00  0.0000E+00  0.0000E+00
 26  0.0000E+00  1.2416E-01  0.0000E+00  0.0000E+00  6.3230E-02  0.0000E+00  1.1200E-02  0.0000E+00  0.0000E+00
 27  0.0000E+00  9.8320E-01  1.9648E+00  1.2285E+00  1.3433E-01  1.2189E+00  1.2253E+00  1.6096E+00  1.2134E+00
 28  0.0000E+00  4.5665E-01  0.0000E+00  1.1114E+00  4.6167E-01  5.8591E-01  0.0000E+00  5.3996E-01  0.0000E+00
 29  0.0000E+00  6.4905E-01  7.8729E-01  0.0000E+00  8.6142E-01  5.2934E-01  0.0000E+00  3.9397E-01  1.0261E+00
 30  0.0000E+00  3.1450E-01  1.8991E+00  0.0000E+00  0.0000E+00  0.0000E+00  0.0000E+00  9.8331E-01  1.0889E+00
 31  0.0000E+00  1.5090E-04  6.5311E-04  2.6249E-04  0.0000E+00  0.0000E+00  0.0000E+00  0.0000E+00  0.0000E+00
 32  0.0000E+00  5.8710E-04  5.1725E-04  0.0000E+00  0.0000E+00  2.9250E-04  3.8762E-04  3.7500E-04  2.4020E-04
 33  0.0000E+00  4.0563E-04  0.0000E+00  0.0000E+00  0.0000E+00  3.4032E-04  0.0000E+00  9.0499E-04  1.3357E-03
