###################################################################
## OUTPUT of StarlightChains_v04.for    [Cid@UFSC - 01/Apr/2007] ##
###################################################################

## Some input info
NGC6528_a_2.cxt                          [arq_obs]
Base.BC03.N                              [arq_base]
NGC6528_a_2.msk                          [arq_masks]
StCv04.C99.config                        [arq_config]
   45                                    [N_base]
    0                                    [N_YAV_components = # of components with extra extinction!]
    0                                    [i_FitPowerLaw (1/0 = Yes/No)]
-9.99                                    [alpha_PowerLaw]
CCM                                      [red_law_option]
 1.458241                                [q_norm = A(l_norm)/A(V)]

## (Re)Sampling Parameters
 3359.00                                 [l_ini (A)]
 6428.00                                 [l_fin (A)]
    1.00                                 [dl    (A)]     (OBS: dl_cushion =    50.00 A)

## Normalization info
 4020.00                                 [l_norm (A) - for base]
 4010.00                                 [llow_norm (A) - window for f_obs]
 4060.00                                 [lupp_norm (A) - window for f_obs]
4.643135E-15                             [fobs_norm (in input units)]

## S/N
 4730.00                                 [llow_SN (A) - window for S/N]
 4780.00                                 [lupp_SN (A) - window for S/N]
  27.089                                 [S/N in S/N window]
  13.711                                 [S/N in norm. window]
 346.459                                 [S/N_err in S/N window]
 175.352                                 [S/N_err in norm. window]
  1.0000                                 [fscale_chi2]

## etc...
  2147483605                             [idum_orig]
  3068                                   [NOl_eff]
  1225                                   [Nl_eff]
  1843    NSIGMA                         [Ntot_cliped & clip_method]
  1691760                                [Nglobal_steps]
   7                                     [N_chains]
   9                                     [NEX0s_base = N_base in EX0s-fits]
 0   0   1      164   2.0   3.956E+02    [Clip-Bug, RC-Crash & Burn-In warning-flags, n_censored_weights, wei_nsig_threshold & wei_limit]
    24     24.104     24.099      0.004  [idt_all, wdt_TotTime, wdt_UsrTime & wdt_SysTime (sec)]

## Synthesis Results - Best model ##

 2.28829E+00                             [chi2/Nl_eff]
     1.92867                             [adev (%)]

    99.27906                             [sum-of-x (%)]
 4.39339E-14                             [Flux_tot (units of input spectrum!)]
 3.47743E-09                             [Mini_tot (???)]
 1.76374E-09                             [Mcor_tot (???)]

  11.15                                  [v0_min  (km/s)]
  25.69                                  [vd_min  (km/s)]
 1.6786                                  [AV_min  (mag)]
 0.0000                                  [YAV_min (mag)]

# j     x_j(%)      Mini_j(%)     Mcor_j(%)     age_j(yr)     Z_j      (L/M)_j    YAV?  Mstars   component_j        a/Fe...       SSP_chi2r SSP_adev(%)   SSP_AV   SSP_x(%)
  1     11.1806     1.2772E-02    2.5182E-02    1.000000E+06  0.00400  1.114E-02    0   1.0000   age020_m42            0.0000     3.2815E+03    43.9823   4.0000    94.9905
  2      7.0167     2.1923E-03    4.3220E-03    3.160000E+06  0.00400  4.073E-02    0   0.9999   age045_m42            0.0000     1.0833E+03    23.1057   4.0000   107.0935
  3      4.5609     2.2905E-03    4.2848E-03    5.010000E+06  0.00400  2.534E-02    0   0.9488   age055_m42            0.0000     1.8826E+03    32.4064   4.0000   102.9951
  4      0.9193     9.2049E-04    1.6083E-03    1.000000E+07  0.00400  1.271E-02    0   0.8862   age070_m42            0.0000     8.5069E+02    16.5897   4.0000   101.9753
  5      0.0000     0.0000E+00    0.0000E+00    2.512000E+07  0.00400  5.070E-03    0   0.8174   age090_m42            0.0000     6.9177E+02    13.6522   4.0000   102.2632
  6      0.0000     0.0000E+00    0.0000E+00    4.000000E+07  0.00400  3.505E-03    0   0.7851   age104_m42            0.0000     4.3634E+02    10.3240   4.0000   100.9971
  7      0.0000     0.0000E+00    0.0000E+00    1.015200E+08  0.00400  2.268E-03    0   0.7207   age116_m42            0.0000     7.8985E+02    11.3523   4.0000   107.5015
  8      0.0000     0.0000E+00    0.0000E+00    2.861200E+08  0.00400  1.079E-03    0   0.6613   age125_m42            0.0000     8.0345E+02    11.0926   3.5957   107.5453
  9      0.0000     0.0000E+00    0.0000E+00    6.405400E+08  0.00400  5.077E-04    0   0.6197   age132_m42            0.0000     8.0221E+02    11.1607   3.2271   112.0476
 10      0.0000     0.0000E+00    0.0000E+00    9.047900E+08  0.00400  3.535E-04    0   0.6024   age135_m42            0.0000     6.0601E+02     9.8893   2.9882   111.2832
 11      0.0000     0.0000E+00    0.0000E+00    1.434000E+09  0.00400  1.910E-04    0   0.5716   age139_m42            0.0000     3.4130E+02     8.0151   2.4191   109.3974
 12      0.0000     0.0000E+00    0.0000E+00    2.500000E+09  0.00400  9.818E-05    0   0.5463   age150_m42            0.0000     1.5396E+02     6.0355   2.1514   104.4650
 13      2.9749     8.0240E-01    8.2709E-01    5.000000E+09  0.00400  4.718E-05    0   0.5228   age161_m42            0.0000     8.0057E+01     4.8124   1.9897   101.1192
 14      0.0000     0.0000E+00    0.0000E+00    1.100000E+10  0.00400  2.205E-05    0   0.4980   age185_m42            0.0000     5.1297E+01     5.2059   1.6777    98.8510
 15      0.0000     0.0000E+00    0.0000E+00    1.300000E+10  0.00400  1.883E-05    0   0.4927   age193_m42            0.0000     4.9439E+01     5.2720   1.6580    98.6707
 16      0.0000     0.0000E+00    0.0000E+00    1.000000E+06  0.02000  1.989E-02    0   1.0000   age020_m62            0.0000     3.2103E+03    43.1467   4.0000    95.7912
 17      0.0000     0.0000E+00    0.0000E+00    3.160000E+06  0.02000  3.772E-02    0   0.9858   age045_m62            0.0000     2.8757E+03    40.6171   4.0000    98.4567
 18      0.0000     0.0000E+00    0.0000E+00    5.010000E+06  0.02000  3.227E-02    0   0.9342   age055_m62            0.0000     1.5553E+03    28.9431   4.0000   105.6869
 19      0.0000     0.0000E+00    0.0000E+00    1.000000E+07  0.02000  1.011E-02    0   0.8751   age070_m62            0.0000     1.1449E+03    18.7635   4.0000    99.3791
 20      0.0000     0.0000E+00    0.0000E+00    2.512000E+07  0.02000  4.206E-03    0   0.8099   age090_m62            0.0000     9.1919E+02    16.3315   4.0000    99.3802
 21      0.0000     0.0000E+00    0.0000E+00    4.000000E+07  0.02000  3.373E-03    0   0.7799   age104_m62            0.0000     6.1855E+02    11.1910   4.0000   105.0174
 22      0.0000     0.0000E+00    0.0000E+00    1.015200E+08  0.02000  1.878E-03    0   0.7221   age116_m62            0.0000     7.8173E+02    10.7561   4.0000   108.8990
 23      0.0000     0.0000E+00    0.0000E+00    2.861200E+08  0.02000  8.869E-04    0   0.6700   age125_m62            0.0000     1.1015E+03    12.5100   3.5802   112.4981
 24      0.0000     0.0000E+00    0.0000E+00    6.405400E+08  0.02000  3.657E-04    0   0.6322   age132_m62            0.0000     7.7793E+02    11.7578   2.8352   115.3805
 25      0.0000     0.0000E+00    0.0000E+00    9.047900E+08  0.02000  2.312E-04    0   0.6152   age135_m62            0.0000     5.0149E+02    10.0463   2.4648   114.0471
 26      0.0000     0.0000E+00    0.0000E+00    1.434000E+09  0.02000  1.168E-04    0   0.5865   age139_m62            0.0000     2.0512E+02     7.1204   2.0696   107.9342
 27      0.0000     0.0000E+00    0.0000E+00    2.500000E+09  0.02000  5.505E-05    0   0.5610   age150_m62            0.0000     9.5652E+01     6.4818   1.6695   104.9810
 28      0.0000     0.0000E+00    0.0000E+00    5.000000E+09  0.02000  2.596E-05    0   0.5353   age161_m62            0.0000     8.9219E+01     8.2966   1.2712   104.6767
 29     31.3447     3.4122E+01    3.4331E+01    1.100000E+10  0.02000  1.169E-05    0   0.5103   age185_m62            0.0000     1.3724E+02    11.2045   0.8221   106.0030
 30     26.1873     3.4388E+01    3.4219E+01    1.300000E+10  0.02000  9.691E-06    0   0.5047   age193_m62            0.0000     1.4957E+02    11.7671   0.7605   106.2179
 31      0.0000     0.0000E+00    0.0000E+00    1.000000E+06  0.05000  2.651E-02    0   0.9998   age020_m72            0.0000     3.1586E+03    42.8041   4.0000    97.0240
 32      0.0000     0.0000E+00    0.0000E+00    3.160000E+06  0.05000  4.817E-02    0   0.9577   age045_m72            0.0000     2.4152E+03    36.9373   4.0000   102.5562
 33      0.0000     0.0000E+00    0.0000E+00    5.010000E+06  0.05000  3.101E-02    0   0.9147   age055_m72            0.0000     1.7799E+03    30.1398   4.0000   104.2970
 34      0.0000     0.0000E+00    0.0000E+00    1.000000E+07  0.05000  8.954E-03    0   0.8524   age070_m72            0.0000     2.1375E+03    34.3830   4.0000   103.5403
 35      0.0000     0.0000E+00    0.0000E+00    2.512000E+07  0.05000  4.207E-03    0   0.7902   age090_m72            0.0000     1.2345E+03    24.7302   4.0000   107.3091
 36      0.0000     0.0000E+00    0.0000E+00    4.000000E+07  0.05000  3.198E-03    0   0.7618   age104_m72            0.0000     7.7244E+02    14.3007   4.0000   109.9693
 37      0.0000     0.0000E+00    0.0000E+00    1.015200E+08  0.05000  1.716E-03    0   0.7092   age116_m72            0.0000     8.8477E+02    12.1978   4.0000   110.0773
 38      0.0000     0.0000E+00    0.0000E+00    2.861200E+08  0.05000  7.047E-04    0   0.6618   age125_m72            0.0000     1.0329E+03    12.6258   3.3459   112.6446
 39      0.0000     0.0000E+00    0.0000E+00    6.405400E+08  0.05000  2.633E-04    0   0.6253   age132_m72            0.0000     5.9213E+02    11.2540   2.4360   114.2551
 40      0.0000     0.0000E+00    0.0000E+00    9.047900E+08  0.05000  1.484E-04    0   0.6088   age135_m72            0.0000     2.6908E+02     9.0884   1.9504   108.7090
 41      0.0000     0.0000E+00    0.0000E+00    1.434000E+09  0.05000  7.827E-05    0   0.5847   age139_m72            0.0000     1.3054E+02     8.3284   1.5270   105.2052
 42      0.0000     0.0000E+00    0.0000E+00    2.500000E+09  0.05000  3.759E-05    0   0.5583   age150_m72            0.0000     1.0511E+02     8.9529   1.1766   104.3662
 43      0.0000     0.0000E+00    0.0000E+00    5.000000E+09  0.05000  1.548E-05    0   0.5320   age161_m72            0.0000     1.4808E+02    11.8768   0.6966   103.5474
 44     12.2621     2.3889E+01    2.3880E+01    1.100000E+10  0.05000  6.532E-06    0   0.5070   age185_m72            0.0000     2.4967E+02    16.1010   0.1564   103.8205
 45      2.8324     6.7803E+00    6.7081E+00    1.300000E+10  0.05000  5.316E-06    0   0.5018   age193_m72            0.0000     3.0006E+02    17.7418  -0.0304   104.2410


## Synthesis Results - Average & Chains ##

# j      x_j: min, <> & last-chain-values for 1 ...  7 chains
  1     11.1806     11.4919     11.6213     11.6178     11.4887     11.2701     11.6288     11.5184     11.4278
  2      7.0167      5.9476      6.2309      6.0800      6.0843      6.0883      5.9747      6.0138      5.9403
  3      4.5609      4.7279      4.5916      4.8034      4.8616      4.8993      4.7518      4.7062      4.8126
  4      0.9193      0.7844      0.7893      0.6781      0.8496      1.0404      0.8674      0.9036      0.9110
  5      0.0000      0.0558      0.1625      0.0000      0.0000      0.0235      0.0000      0.1493      0.1914
  6      0.0000      0.0273      0.0000      0.0000      0.0000      0.0000      0.0000      0.1349      0.0000
  7      0.0000      0.0501      0.0269      0.0328      0.0000      0.1312      0.2108      0.0744      0.0000
  8      0.0000      0.0469      0.0000      0.0000      0.0000      0.0000      0.1245      0.0000      0.0000
  9      0.0000      0.0502      0.0248      0.1739      0.0000      0.0000      0.3492      0.0000      0.0795
 10      0.0000      0.0931      0.0000      0.0000      0.2677      0.0000      0.0907      0.0000      0.0468
 11      0.0000      0.1295      0.1167      0.0000      0.1989      0.0000      0.0000      0.0000      0.2677
 12      0.0000      0.3459      0.5249      1.4094      0.4793      0.3964      0.8798      0.7739      0.1595
 13      2.9749      0.5830      0.6881      0.3703      1.7820      0.7622      0.0000      0.9332      0.5627
 14      0.0000      0.5713      0.3962      0.4772      0.3901      0.4994      0.2341      0.7231      0.2991
 15      0.0000      0.4904      0.3610      0.2081      0.0000      0.6871      0.8532      0.0322      1.2346
 16      0.0000      0.0155      0.0000      0.0000      0.0000      0.0000      0.0000      0.0000      0.0000
 17      0.0000      0.0127      0.0021      0.0000      0.0000      0.0000      0.0690      0.0000      0.0000
 18      0.0000      0.0547      0.0000      0.0000      0.0000      0.0000      0.0000      0.0000      0.0000
 19      0.0000      0.0192      0.0000      0.0000      0.0000      0.0900      0.0000      0.0000      0.0000
 20      0.0000      0.0242      0.0000      0.0000      0.0000      0.0000      0.0000      0.0000      0.0000
 21      0.0000      0.0310      0.0000      0.0139      0.0000      0.0000      0.0000      0.0000      0.0000
 22      0.0000      0.0287      0.0000      0.1006      0.0000      0.0175      0.0000      0.0000      0.1571
 23      0.0000      0.0282      0.1432      0.0003      0.0000      0.0000      0.0000      0.0000      0.2252
 24      0.0000      0.0880      0.0000      0.0000      0.0149      0.0120      0.0000      0.0000      0.0000
 25      0.0000      0.0647      0.0000      0.0000      0.0000      0.0000      0.0000      0.0000      0.0000
 26      0.0000      0.1606      0.0377      0.0000      0.0000      0.0943      0.0000      0.3780      0.1275
 27      0.0000      0.2362      0.0000      0.0000      0.0000      0.8503      0.6228      0.1501      0.0000
 28      0.0000      0.2608      0.0000      0.6982      0.0000      0.1494      0.0000      0.0000      0.1302
 29     31.3447     31.3545     31.4342     31.7548     31.6224     31.2068     31.8533     31.2502     31.4973
 30     26.1873     25.5446     25.9576     24.8915     25.6213     25.5390     25.5476     25.7625     25.6105
 31      0.0000      0.0257      0.0124      0.0000      0.0000      0.0000      0.0000      0.0000      0.0000
 32      0.0000      0.0228      0.0000      0.0875      0.0000      0.0000      0.0000      0.0000      0.0695
 33      0.0000      0.0584      0.0000      0.0000      0.0000      0.0085      0.0000      0.0000      0.0465
 34      0.0000      0.0151      0.0072      0.0036      0.0000      0.0000      0.0000      0.0000      0.0000
 35      0.0000      0.0110      0.0000      0.0000      0.0000      0.0022      0.0000      0.0000      0.0000
 36      0.0000      0.0170      0.0593      0.0000      0.0000      0.0000      0.0000      0.0000      0.0000
 37      0.0000      0.0520      0.0000      0.0001      0.0000      0.1409      0.0000      0.1331      0.0000
 38      0.0000      0.0337      0.0000      0.2334      0.0639      0.0118      0.0000      0.1006      0.0000
 39      0.0000      0.0472      0.0161      0.0000      0.0000      0.0000      0.0000      0.0000      0.0589
 40      0.0000      0.1209      0.8446      0.0000      0.1328      0.0595      0.0000      0.1167      0.1745
 41      0.0000      0.1470      0.0134      0.0000      0.0157      0.0832      0.0280      0.0000      0.1429
 42      0.0000      0.1110      0.0000      0.2343      0.2491      0.0000      0.0000      0.0000      0.0000
 43      0.0000      0.0638      0.0000      0.0822      0.0290      0.0000      0.0000      0.0000      0.0000
 44     12.2621     12.6733     12.4056     12.6588     12.7039     12.4337     12.4498     12.8230     12.6418
 45      2.8324      2.5924      2.8407      2.6778      2.4437      2.7660      2.7588      2.6202      2.4894

# j      m_j: min, <> & last-chain-values for 1 ...  7 chains
  1  2.5182E-02  2.5931E-02  2.6147E-02  2.6279E-02  2.5974E-02  2.5464E-02  2.6169E-02  2.5941E-02  2.5781E-02
  2  4.3220E-03  3.6703E-03  3.8339E-03  3.7610E-03  3.7618E-03  3.7620E-03  3.6771E-03  3.7040E-03  3.6650E-03
  3  4.2848E-03  4.4499E-03  4.3091E-03  4.5319E-03  4.5845E-03  4.6172E-03  4.4604E-03  4.4210E-03  4.5287E-03
  4  1.6083E-03  1.3748E-03  1.3794E-03  1.1913E-03  1.4920E-03  1.8259E-03  1.5162E-03  1.5806E-03  1.5964E-03
  5  0.0000E+00  2.2629E-04  6.5662E-04  0.0000E+00  0.0000E+00  9.5502E-05  0.0000E+00  6.0401E-04  7.7548E-04
  6  0.0000E+00  1.5395E-04  0.0000E+00  0.0000E+00  0.0000E+00  0.0000E+00  0.0000E+00  7.5784E-04  0.0000E+00
  7  0.0000E+00  3.9985E-04  2.1442E-04  2.6264E-04  0.0000E+00  1.0494E-03  1.6792E-03  5.9289E-04  0.0000E+00
  8  0.0000E+00  7.2190E-04  0.0000E+00  0.0000E+00  0.0000E+00  0.0000E+00  1.9125E-03  0.0000E+00  0.0000E+00
  9  0.0000E+00  1.5394E-03  7.5728E-04  5.3489E-03  0.0000E+00  0.0000E+00  1.0686E-02  0.0000E+00  2.4389E-03
 10  0.0000E+00  3.9872E-03  0.0000E+00  0.0000E+00  1.1488E-02  0.0000E+00  3.8732E-03  0.0000E+00  2.0035E-03
 11  0.0000E+00  9.7404E-03  8.7525E-03  0.0000E+00  1.4991E-02  0.0000E+00  0.0000E+00  0.0000E+00  2.0135E-02
 12  0.0000E+00  4.8383E-02  7.3200E-02  1.9760E-01  6.7171E-02  5.5521E-02  1.2273E-01  1.0804E-01  2.2307E-02
 13  8.2709E-01  1.6239E-01  1.9110E-01  1.0338E-01  4.9733E-01  2.1258E-01  0.0000E+00  2.5945E-01  1.5670E-01
 14  0.0000E+00  3.2434E-01  2.2430E-01  2.7158E-01  2.2188E-01  2.8389E-01  1.3254E-01  4.0973E-01  1.6975E-01
 15  0.0000E+00  3.2258E-01  2.3673E-01  1.3724E-01  0.0000E+00  4.5253E-01  5.5965E-01  2.1166E-02  8.1188E-01
 16  0.0000E+00  1.9560E-05  0.0000E+00  0.0000E+00  0.0000E+00  0.0000E+00  0.0000E+00  0.0000E+00  0.0000E+00
 17  0.0000E+00  8.3722E-06  1.3487E-06  0.0000E+00  0.0000E+00  0.0000E+00  4.5226E-05  0.0000E+00  0.0000E+00
 18  0.0000E+00  3.9814E-05  0.0000E+00  0.0000E+00  0.0000E+00  0.0000E+00  0.0000E+00  0.0000E+00  0.0000E+00
 19  0.0000E+00  4.1829E-05  0.0000E+00  0.0000E+00  0.0000E+00  1.9598E-04  0.0000E+00  0.0000E+00  0.0000E+00
 20  0.0000E+00  1.1699E-04  0.0000E+00  0.0000E+00  0.0000E+00  0.0000E+00  0.0000E+00  0.0000E+00  0.0000E+00
 21  0.0000E+00  1.7989E-04  0.0000E+00  8.1212E-05  0.0000E+00  0.0000E+00  0.0000E+00  0.0000E+00  0.0000E+00
 22  0.0000E+00  2.7780E-04  0.0000E+00  9.7444E-04  0.0000E+00  1.6891E-04  0.0000E+00  0.0000E+00  1.5184E-03
 23  0.0000E+00  5.3614E-04  2.7117E-03  5.8283E-06  0.0000E+00  0.0000E+00  0.0000E+00  0.0000E+00  4.2761E-03
 24  0.0000E+00  3.8249E-03  0.0000E+00  0.0000E+00  6.4985E-04  5.2164E-04  0.0000E+00  0.0000E+00  0.0000E+00
 25  0.0000E+00  4.3251E-03  0.0000E+00  0.0000E+00  0.0000E+00  0.0000E+00  0.0000E+00  0.0000E+00  0.0000E+00
 26  0.0000E+00  2.0265E-02  4.7495E-03  0.0000E+00  0.0000E+00  1.1917E-02  0.0000E+00  4.7627E-02  1.6086E-02
 27  0.0000E+00  6.0504E-02  0.0000E+00  0.0000E+00  0.0000E+00  2.1811E-01  1.5912E-01  3.8387E-02  0.0000E+00
 28  0.0000E+00  1.3515E-01  0.0000E+00  3.6276E-01  0.0000E+00  7.7513E-02  0.0000E+00  0.0000E+00  6.7452E-02
 29  3.4331E+01  3.4405E+01  3.4393E+01  3.4929E+01  3.4766E+01  3.4288E+01  3.4858E+01  3.4225E+01  3.4555E+01
 30  3.4219E+01  3.3441E+01  3.3883E+01  3.2665E+01  3.3605E+01  3.3477E+01  3.3355E+01  3.3661E+01  3.3520E+01
 31  0.0000E+00  2.4325E-05  1.1707E-05  0.0000E+00  0.0000E+00  0.0000E+00  0.0000E+00  0.0000E+00  0.0000E+00
 32  0.0000E+00  1.1408E-05  0.0000E+00  4.3822E-05  0.0000E+00  0.0000E+00  0.0000E+00  0.0000E+00  3.4707E-05
 33  0.0000E+00  4.3302E-05  0.0000E+00  0.0000E+00  0.0000E+00  6.3172E-06  0.0000E+00  0.0000E+00  3.4477E-05
