###################################################################
## OUTPUT of StarlightChains_v04.for    [Cid@UFSC - 01/Apr/2007] ##
###################################################################

## Some input info
NGC6441_a_2.cxt                          [arq_obs]
Base.BC03.N                              [arq_base]
NGC6441_a_2.msk                          [arq_masks]
StCv04.C99.config                        [arq_config]
   45                                    [N_base]
    0                                    [N_YAV_components = # of components with extra extinction!]
    0                                    [i_FitPowerLaw (1/0 = Yes/No)]
-9.99                                    [alpha_PowerLaw]
CCM                                      [red_law_option]
 1.458241                                [q_norm = A(l_norm)/A(V)]

## (Re)Sampling Parameters
 3359.00                                 [l_ini (A)]
 6428.00                                 [l_fin (A)]
    1.00                                 [dl    (A)]     (OBS: dl_cushion =    50.00 A)

## Normalization info
 4020.00                                 [l_norm (A) - for base]
 4010.00                                 [llow_norm (A) - window for f_obs]
 4060.00                                 [lupp_norm (A) - window for f_obs]
3.752896E-14                             [fobs_norm (in input units)]

## S/N
 4730.00                                 [llow_SN (A) - window for S/N]
 4780.00                                 [lupp_SN (A) - window for S/N]
  36.122                                 [S/N in S/N window]
  21.548                                 [S/N in norm. window]
 237.783                                 [S/N_err in S/N window]
 141.847                                 [S/N_err in norm. window]
  1.0000                                 [fscale_chi2]

## etc...
  2147483608                             [idum_orig]
  3067                                   [NOl_eff]
   715                                   [Nl_eff]
  2352    NSIGMA                         [Ntot_cliped & clip_method]
  1889020                                [Nglobal_steps]
   7                                     [N_chains]
  10                                     [NEX0s_base = N_base in EX0s-fits]
 0   0   1      159   2.0   3.244E+02    [Clip-Bug, RC-Crash & Burn-In warning-flags, n_censored_weights, wei_nsig_threshold & wei_limit]
    25     25.082     25.078      0.004  [idt_all, wdt_TotTime, wdt_UsrTime & wdt_SysTime (sec)]

## Synthesis Results - Best model ##

 2.46688E+00                             [chi2/Nl_eff]
     1.64013                             [adev (%)]

    99.96154                             [sum-of-x (%)]
 2.44786E-13                             [Flux_tot (units of input spectrum!)]
 9.79490E-09                             [Mini_tot (???)]
 5.02341E-09                             [Mcor_tot (???)]

 -13.20                                  [v0_min  (km/s)]
  27.93                                  [vd_min  (km/s)]
 1.3965                                  [AV_min  (mag)]
 0.0000                                  [YAV_min (mag)]

# j     x_j(%)      Mini_j(%)     Mcor_j(%)     age_j(yr)     Z_j      (L/M)_j    YAV?  Mstars   component_j        a/Fe...       SSP_chi2r SSP_adev(%)   SSP_AV   SSP_x(%)
  1      0.0000     0.0000E+00    0.0000E+00    1.000000E+06  0.00400  1.114E-02    0   1.0000   age020_m42            0.0000     4.2429E+03    42.9707   4.0000   102.6577
  2      3.2052     1.9674E-03    3.8357E-03    3.160000E+06  0.00400  4.073E-02    0   0.9999   age045_m42            0.0000     5.6948E+02    16.6861   4.0000   101.3067
  3      0.8206     8.0961E-04    1.4978E-03    5.010000E+06  0.00400  2.534E-02    0   0.9488   age055_m42            0.0000     1.5722E+03    28.2207   4.0000   103.5041
  4      4.2407     8.3416E-03    1.4414E-02    1.000000E+07  0.00400  1.271E-02    0   0.8862   age070_m42            0.0000     5.0213E+02    15.9350   3.9068    92.1401
  5      1.9591     9.6607E-03    1.5397E-02    2.512000E+07  0.00400  5.070E-03    0   0.8174   age090_m42            0.0000     4.5600E+02    15.2761   3.7835    93.6973
  6      0.0000     0.0000E+00    0.0000E+00    4.000000E+07  0.00400  3.505E-03    0   0.7851   age104_m42            0.0000     3.4225E+02    13.2923   3.4774    96.5135
  7      0.0000     0.0000E+00    0.0000E+00    1.015200E+08  0.00400  2.268E-03    0   0.7207   age116_m42            0.0000     5.9506E+02    12.9911   3.5254   103.9131
  8      0.0000     0.0000E+00    0.0000E+00    2.861200E+08  0.00400  1.079E-03    0   0.6613   age125_m42            0.0000     6.0037E+02    12.9615   3.0367   105.8158
  9      0.0000     0.0000E+00    0.0000E+00    6.405400E+08  0.00400  5.077E-04    0   0.6197   age132_m42            0.0000     5.9865E+02    13.2072   2.6630   110.4352
 10      0.0000     0.0000E+00    0.0000E+00    9.047900E+08  0.00400  3.535E-04    0   0.6024   age135_m42            0.0000     4.1816E+02    10.8010   2.4287   109.4906
 11      0.0000     0.0000E+00    0.0000E+00    1.434000E+09  0.00400  1.910E-04    0   0.5716   age139_m42            0.0000     1.9155E+02     7.1055   1.9358   107.2155
 12     17.9543     4.5719E+00    4.8700E+00    2.500000E+09  0.00400  9.818E-05    0   0.5463   age150_m42            0.0000     5.4318E+01     3.6098   1.6749   102.0166
 13     35.4975     1.8810E+01    1.9175E+01    5.000000E+09  0.00400  4.718E-05    0   0.5228   age161_m42            0.0000     1.6361E+01     2.4065   1.5137    98.6685
 14      1.3519     1.5328E+00    1.4884E+00    1.100000E+10  0.00400  2.205E-05    0   0.4980   age185_m42            0.0000     2.4806E+01     3.2666   1.2748    96.0349
 15      0.0000     0.0000E+00    0.0000E+00    1.300000E+10  0.00400  1.883E-05    0   0.4927   age193_m42            0.0000     2.9546E+01     3.5641   1.2588    95.8790
 16      0.0000     0.0000E+00    0.0000E+00    1.000000E+06  0.02000  1.989E-02    0   1.0000   age020_m62            0.0000     4.0537E+03    41.8872   4.0000   103.1338
 17      0.0000     0.0000E+00    0.0000E+00    3.160000E+06  0.02000  3.772E-02    0   0.9858   age045_m62            0.0000     3.3133E+03    38.9982   4.0000   104.3141
 18      1.7310     1.3411E-03    2.4429E-03    5.010000E+06  0.02000  3.227E-02    0   0.9342   age055_m62            0.0000     1.1425E+03    24.1701   4.0000   104.0646
 19      0.0000     0.0000E+00    0.0000E+00    1.000000E+07  0.02000  1.011E-02    0   0.8751   age070_m62            0.0000     7.9062E+02    20.3023   3.9503    89.1254
 20      0.0000     0.0000E+00    0.0000E+00    2.512000E+07  0.02000  4.206E-03    0   0.8099   age090_m62            0.0000     6.0754E+02    18.2545   3.8823    89.8165
 21      0.0000     0.0000E+00    0.0000E+00    4.000000E+07  0.02000  3.373E-03    0   0.7799   age104_m62            0.0000     3.7730E+02    13.1498   3.7132    97.7403
 22      0.0000     0.0000E+00    0.0000E+00    1.015200E+08  0.02000  1.878E-03    0   0.7221   age116_m62            0.0000     5.5633E+02    12.3231   3.5455   104.9478
 23      0.0000     0.0000E+00    0.0000E+00    2.861200E+08  0.02000  8.869E-04    0   0.6700   age125_m62            0.0000     8.5283E+02    15.8812   3.0557   111.0013
 24      0.0000     0.0000E+00    0.0000E+00    6.405400E+08  0.02000  3.657E-04    0   0.6322   age132_m62            0.0000     5.6258E+02    12.2895   2.3999   113.2261
 25      0.0000     0.0000E+00    0.0000E+00    9.047900E+08  0.02000  2.312E-04    0   0.6152   age135_m62            0.0000     3.2494E+02     8.9711   2.0413   111.6839
 26      0.0000     0.0000E+00    0.0000E+00    1.434000E+09  0.02000  1.168E-04    0   0.5865   age139_m62            0.0000     9.1416E+01     4.7723   1.6458   105.4575
 27      0.0000     0.0000E+00    0.0000E+00    2.500000E+09  0.02000  5.505E-05    0   0.5610   age150_m62            0.0000     4.2593E+01     3.9941   1.2994   101.9855
 28      0.0000     0.0000E+00    0.0000E+00    5.000000E+09  0.02000  2.596E-05    0   0.5353   age161_m62            0.0000     9.1521E+01     6.0086   1.0030   100.8438
 29     24.0042     5.1337E+01    5.1080E+01    1.100000E+10  0.02000  1.169E-05    0   0.5103   age185_m62            0.0000     2.0527E+02     8.6173   0.6741   101.2806
 30      9.1970     2.3726E+01    2.3349E+01    1.300000E+10  0.02000  9.691E-06    0   0.5047   age193_m62            0.0000     2.3051E+02     9.0794   0.6331   101.3766
 31      0.0000     0.0000E+00    0.0000E+00    1.000000E+06  0.05000  2.651E-02    0   0.9998   age020_m72            0.0000     3.9991E+03    41.4719   4.0000   104.3597
 32      0.0000     0.0000E+00    0.0000E+00    3.160000E+06  0.05000  4.817E-02    0   0.9577   age045_m72            0.0000     2.4915E+03    34.2540   4.0000   106.1609
 33      0.0000     0.0000E+00    0.0000E+00    5.010000E+06  0.05000  3.101E-02    0   0.9147   age055_m72            0.0000     1.3092E+03    26.5130   4.0000   102.9276
 34      0.0000     0.0000E+00    0.0000E+00    1.000000E+07  0.05000  8.954E-03    0   0.8524   age070_m72            0.0000     2.0597E+03    31.3866   4.0000   105.8967
 35      0.0000     0.0000E+00    0.0000E+00    2.512000E+07  0.05000  4.207E-03    0   0.7902   age090_m72            0.0000     7.6091E+02    19.9624   4.0000   103.3385
 36      0.0000     0.0000E+00    0.0000E+00    4.000000E+07  0.05000  3.198E-03    0   0.7618   age104_m72            0.0000     4.5191E+02    11.3574   3.9438   100.2553
 37      0.0000     0.0000E+00    0.0000E+00    1.015200E+08  0.05000  1.716E-03    0   0.7092   age116_m72            0.0000     6.2774E+02    13.1167   3.6730   104.4029
 38      0.0000     0.0000E+00    0.0000E+00    2.861200E+08  0.05000  7.047E-04    0   0.6618   age125_m72            0.0000     8.0143E+02    15.2455   2.8877   110.5807
 39      0.0000     0.0000E+00    0.0000E+00    6.405400E+08  0.05000  2.633E-04    0   0.6253   age132_m72            0.0000     4.0453E+02    10.3262   2.0650   111.5583
 40      0.0000     0.0000E+00    0.0000E+00    9.047900E+08  0.05000  1.484E-04    0   0.6088   age135_m72            0.0000     1.5143E+02     6.4650   1.6018   105.7402
 41      0.0000     0.0000E+00    0.0000E+00    1.434000E+09  0.05000  7.827E-05    0   0.5847   age139_m72            0.0000     9.2449E+01     5.6573   1.2455   101.4514
 42      0.0000     0.0000E+00    0.0000E+00    2.500000E+09  0.05000  3.759E-05    0   0.5583   age150_m72            0.0000     1.2309E+02     6.7841   0.9477   100.1617
 43      0.0000     0.0000E+00    0.0000E+00    5.000000E+09  0.05000  1.548E-05    0   0.5320   age161_m72            0.0000     2.4724E+02     9.0719   0.5975    98.6939
 44      0.0000     0.0000E+00    0.0000E+00    1.100000E+10  0.05000  6.532E-06    0   0.5070   age185_m72            0.0000     4.6028E+02    12.1265   0.2655    97.3504
 45      0.0000     0.0000E+00    0.0000E+00    1.300000E+10  0.05000  5.316E-06    0   0.5018   age193_m72            0.0000     5.6051E+02    13.3890   0.1657    96.9545


## Synthesis Results - Average & Chains ##

# j      x_j: min, <> & last-chain-values for 1 ...  7 chains
  1      0.0000      0.0254      0.0000      0.0411      0.0000      0.0000      0.0000      0.0000      0.0000
  2      3.2052      2.6863      2.8398      2.6641      2.7317      2.8279      2.8070      2.6315      2.9190
  3      0.8206      1.0267      0.9867      1.0234      1.0990      1.0254      0.9887      0.9702      1.1268
  4      4.2407      3.9483      4.0711      4.0639      4.0469      4.0229      4.0099      3.7177      3.9398
  5      1.9591      1.6014      1.7356      1.6239      1.6611      1.6140      1.6146      1.9798      1.5876
  6      0.0000      0.0544      0.0000      0.0000      0.0000      0.0000      0.0000      0.0000      0.1536
  7      0.0000      0.0447      0.0861      0.0000      0.0114      0.0827      0.0624      0.0060      0.0000
  8      0.0000      0.0303      0.0000      0.0000      0.1230      0.0000      0.1175      0.0792      0.0000
  9      0.0000      0.0697      0.0000      0.0000      0.0088      0.0808      0.0000      0.0580      0.0000
 10      0.0000      0.0904      0.0394      0.1425      0.0462      0.2495      0.1234      0.3666      0.1010
 11      0.0000      0.1506      0.2114      0.0000      0.2723      0.3797      0.1971      0.0654      0.3073
 12     17.9543     17.0339     17.2498     17.8780     17.0372     17.3914     17.0964     17.1424     17.1745
 13     35.4975     34.5880     34.9481     34.7313     35.3548     34.6607     34.7623     36.3362     35.2222
 14      1.3519      2.3884      1.9206      2.1390      2.0566      1.8412      2.4110      1.3270      2.2437
 15      0.0000      0.2125      0.0000      0.1197      0.0000      0.1425      0.0000      0.0213      0.0000
 16      0.0000      0.0158      0.0000      0.0000      0.0000      0.0000      0.0000      0.0000      0.0000
 17      0.0000      0.0134      0.0000      0.0000      0.0000      0.0349      0.0000      0.0000      0.0000
 18      1.7310      1.9080      1.8770      1.9412      1.9611      1.9233      2.0601      1.8668      1.8594
 19      0.0000      0.0585      0.0342      0.0341      0.0000      0.1667      0.0883      0.0000      0.0000
 20      0.0000      0.0647      0.0000      0.0000      0.0000      0.1475      0.0000      0.0000      0.0000
 21      0.0000      0.0543      0.0240      0.2173      0.0000      0.0000      0.0000      0.0247      0.0000
 22      0.0000      0.0328      0.0000      0.0000      0.0946      0.0000      0.0201      0.0000      0.0904
 23      0.0000      0.0293      0.0993      0.0835      0.0452      0.0000      0.1577      0.0000      0.0000
 24      0.0000      0.0566      0.0881      0.0000      0.0000      0.0000      0.0000      0.0000      0.0000
 25      0.0000      0.0857      0.0000      0.1305      0.0277      0.0000      0.0000      0.0000      0.0000
 26      0.0000      0.1047      0.1322      0.0000      0.0105      0.0000      0.0597      0.0000      0.0085
 27      0.0000      0.1168      0.0000      0.0000      0.0000      0.0000      0.0000      0.0000      0.0000
 28      0.0000      0.1160      0.0944      0.0000      0.2767      0.0000      0.0000      0.0183      0.0000
 29     24.0042     23.5202     23.8404     23.5239     23.6095     23.9358     23.7607     23.5473     23.7548
 30      9.1970      8.4901      8.7146      8.4152      8.4495      8.4758      8.6621      8.5007      8.6108
 31      0.0000      0.0642      0.0000      0.0000      0.0000      0.0000      0.0000      0.1325      0.0775
 32      0.0000      0.0247      0.0000      0.0052      0.0000      0.0000      0.0000      0.0000      0.0000
 33      0.0000      0.0548      0.1736      0.0000      0.1899      0.0644      0.0000      0.2689      0.0395
 34      0.0000      0.0571      0.0713      0.1437      0.0000      0.0104      0.1959      0.0332      0.0000
 35      0.0000      0.0380      0.0518      0.1173      0.0000      0.0000      0.0000      0.0000      0.0320
 36      0.0000      0.0186      0.0000      0.0000      0.0000      0.0000      0.0000      0.0000      0.0000
 37      0.0000      0.0253      0.0000      0.0000      0.0992      0.0000      0.0000      0.0000      0.0000
 38      0.0000      0.0318      0.0000      0.0000      0.0000      0.0000      0.0308      0.0000      0.0000
 39      0.0000      0.0619      0.0000      0.0437      0.0000      0.0866      0.0000      0.0405      0.1197
 40      0.0000      0.0944      0.0000      0.0175      0.0341      0.0573      0.0000      0.0000      0.0000
 41      0.0000      0.0711      0.0000      0.0000      0.0000      0.0000      0.0000      0.0000      0.0000
 42      0.0000      0.0573      0.0000      0.0000      0.0000      0.0000      0.0077      0.0000      0.0000
 43      0.0000      0.0592      0.0000      0.0000      0.0000      0.0000      0.0316      0.0934      0.0000
 44      0.0000      0.3146      0.2229      0.3989      0.3712      0.3680      0.2572      0.3661      0.2789
 45      0.0000      0.3494      0.4398      0.4302      0.3152      0.3636      0.4153      0.3685      0.2943

# j      m_j: min, <> & last-chain-values for 1 ...  7 chains
  1  0.0000E+00  1.1008E-04  0.0000E+00  1.7783E-04  0.0000E+00  0.0000E+00  0.0000E+00  0.0000E+00  0.0000E+00
  2  3.8357E-03  3.1800E-03  3.3448E-03  3.1533E-03  3.2397E-03  3.3406E-03  3.3042E-03  3.1243E-03  3.4558E-03
  3  1.4978E-03  1.8538E-03  1.7726E-03  1.8475E-03  1.9879E-03  1.8475E-03  1.7751E-03  1.7568E-03  2.0347E-03
  4  1.4414E-02  1.3275E-02  1.3619E-02  1.3662E-02  1.3631E-02  1.3497E-02  1.3406E-02  1.2536E-02  1.3248E-02
  5  1.5397E-02  1.2449E-02  1.3425E-02  1.2622E-02  1.2937E-02  1.2521E-02  1.2481E-02  1.5437E-02  1.2344E-02
  6  0.0000E+00  5.8807E-04  0.0000E+00  0.0000E+00  0.0000E+00  0.0000E+00  0.0000E+00  0.0000E+00  1.6592E-03
  7  0.0000E+00  6.8526E-04  1.3127E-03  0.0000E+00  1.7464E-04  1.2652E-03  9.5082E-04  9.2490E-05  0.0000E+00
  8  0.0000E+00  8.9444E-04  0.0000E+00  0.0000E+00  3.6420E-03  0.0000E+00  3.4516E-03  2.3483E-03  0.0000E+00
  9  0.0000E+00  4.1010E-03  0.0000E+00  0.0000E+00  5.2070E-04  4.7446E-03  0.0000E+00  3.4220E-03  0.0000E+00
 10  0.0000E+00  7.4252E-03  3.2238E-03  1.1708E-02  3.8012E-03  2.0455E-02  1.0083E-02  3.0212E-02  8.3011E-03
 11  0.0000E+00  2.1740E-02  3.0358E-02  0.0000E+00  3.9374E-02  5.4677E-02  2.8279E-02  9.4667E-03  4.4347E-02
 12  4.8700E+00  4.5705E+00  4.6050E+00  4.7962E+00  4.5796E+00  4.6565E+00  4.5613E+00  4.6130E+00  4.6087E+00
 13  1.9175E+01  1.8482E+01  1.8580E+01  1.8555E+01  1.8926E+01  1.8481E+01  1.8470E+01  1.9472E+01  1.8822E+01
 14  1.4884E+00  2.6011E+00  2.0811E+00  2.3291E+00  2.2439E+00  2.0010E+00  2.6110E+00  1.4495E+00  2.4438E+00
 15  0.0000E+00  2.6818E-01  0.0000E+00  1.5103E-01  0.0000E+00  1.7940E-01  0.0000E+00  2.6915E-02  0.0000E+00
 16  0.0000E+00  3.8370E-05  0.0000E+00  0.0000E+00  0.0000E+00  0.0000E+00  0.0000E+00  0.0000E+00  0.0000E+00
 17  0.0000E+00  1.6863E-05  0.0000E+00  0.0000E+00  0.0000E+00  4.3834E-05  0.0000E+00  0.0000E+00  0.0000E+00
 18  2.4429E-03  2.6635E-03  2.6070E-03  2.7094E-03  2.7426E-03  2.6792E-03  2.8596E-03  2.6136E-03  2.5960E-03
 19  0.0000E+00  2.4434E-04  1.4217E-04  1.4211E-04  0.0000E+00  6.9436E-04  3.6657E-04  0.0000E+00  0.0000E+00
 20  0.0000E+00  6.0045E-04  0.0000E+00  0.0000E+00  0.0000E+00  1.3671E-03  0.0000E+00  0.0000E+00  0.0000E+00
 21  0.0000E+00  6.0566E-04  2.6571E-04  2.4229E-03  0.0000E+00  0.0000E+00  0.0000E+00  2.7631E-04  0.0000E+00
 22  0.0000E+00  6.0849E-04  0.0000E+00  0.0000E+00  1.7572E-03  0.0000E+00  3.7013E-04  0.0000E+00  1.6754E-03
 23  0.0000E+00  1.0658E-03  3.6005E-03  3.0417E-03  1.6479E-03  0.0000E+00  5.7138E-03  0.0000E+00  0.0000E+00
 24  0.0000E+00  4.7152E-03  7.3110E-03  0.0000E+00  0.0000E+00  0.0000E+00  0.0000E+00  0.0000E+00  0.0000E+00
 25  0.0000E+00  1.0997E-02  0.0000E+00  1.6740E-02  3.5603E-03  0.0000E+00  0.0000E+00  0.0000E+00  0.0000E+00
 26  0.0000E+00  2.5342E-02  3.1841E-02  0.0000E+00  2.5384E-03  0.0000E+00  1.4381E-02  0.0000E+00  2.0574E-03
 27  0.0000E+00  5.7413E-02  0.0000E+00  0.0000E+00  0.0000E+00  0.0000E+00  0.0000E+00  0.0000E+00  0.0000E+00
 28  0.0000E+00  1.1536E-01  9.3373E-02  0.0000E+00  2.7567E-01  0.0000E+00  0.0000E+00  1.8249E-02  0.0000E+00
 29  5.1080E+01  4.9510E+01  4.9930E+01  4.9509E+01  4.9788E+01  5.0277E+01  4.9733E+01  4.9711E+01  5.0009E+01
 30  2.3349E+01  2.1321E+01  2.1775E+01  2.1130E+01  2.1258E+01  2.1240E+01  2.1630E+01  2.1410E+01  2.1627E+01
 31  0.0000E+00  1.1684E-04  0.0000E+00  0.0000E+00  0.0000E+00  0.0000E+00  0.0000E+00  2.4164E-04  1.4090E-04
 32  0.0000E+00  2.3699E-05  0.0000E+00  5.0266E-06  0.0000E+00  0.0000E+00  0.0000E+00  0.0000E+00  0.0000E+00
 33  0.0000E+00  7.7887E-05  2.4573E-04  0.0000E+00  2.7057E-04  9.1389E-05  0.0000E+00  3.8362E-04  5.6180E-05
