###################################################################
## OUTPUT of StarlightChains_v04.for    [Cid@UFSC - 01/Apr/2007] ##
###################################################################

## Some input info
NGC6304_a_1.cxt                          [arq_obs]
Base.BC03.N                              [arq_base]
NGC6304_a_1.msk                          [arq_masks]
StCv04.C99.config                        [arq_config]
   45                                    [N_base]
    0                                    [N_YAV_components = # of components with extra extinction!]
    0                                    [i_FitPowerLaw (1/0 = Yes/No)]
-9.99                                    [alpha_PowerLaw]
CCM                                      [red_law_option]
 1.458241                                [q_norm = A(l_norm)/A(V)]

## (Re)Sampling Parameters
 3359.00                                 [l_ini (A)]
 6428.00                                 [l_fin (A)]
    1.00                                 [dl    (A)]     (OBS: dl_cushion =    50.00 A)

## Normalization info
 4020.00                                 [l_norm (A) - for base]
 4010.00                                 [llow_norm (A) - window for f_obs]
 4060.00                                 [lupp_norm (A) - window for f_obs]
6.037552E-15                             [fobs_norm (in input units)]

## S/N
 4730.00                                 [llow_SN (A) - window for S/N]
 4780.00                                 [lupp_SN (A) - window for S/N]
  34.026                                 [S/N in S/N window]
  19.978                                 [S/N in norm. window]
 118.990                                 [S/N_err in S/N window]
  69.864                                 [S/N_err in norm. window]
  1.0000                                 [fscale_chi2]

## etc...
  2147483619                             [idum_orig]
  3066                                   [NOl_eff]
  1236                                   [Nl_eff]
  1830    NSIGMA                         [Ntot_cliped & clip_method]
  1812720                                [Nglobal_steps]
   7                                     [N_chains]
  10                                     [NEX0s_base = N_base in EX0s-fits]
 0   0   1      178   2.0   5.094E+02    [Clip-Bug, RC-Crash & Burn-In warning-flags, n_censored_weights, wei_nsig_threshold & wei_limit]
    24     23.908     23.904      0.004  [idt_all, wdt_TotTime, wdt_UsrTime & wdt_SysTime (sec)]

## Synthesis Results - Best model ##

 2.50240E+00                             [chi2/Nl_eff]
     2.28292                             [adev (%)]

    99.87037                             [sum-of-x (%)]
 3.35695E-14                             [Flux_tot (units of input spectrum!)]
 1.74724E-09                             [Mini_tot (???)]
 8.97397E-10                             [Mcor_tot (???)]

  11.39                                  [v0_min  (km/s)]
  47.86                                  [vd_min  (km/s)]
 1.2783                                  [AV_min  (mag)]
 0.0000                                  [YAV_min (mag)]

# j     x_j(%)      Mini_j(%)     Mcor_j(%)     age_j(yr)     Z_j      (L/M)_j    YAV?  Mstars   component_j        a/Fe...       SSP_chi2r SSP_adev(%)   SSP_AV   SSP_x(%)
  1      5.1193     8.8406E-03    1.7213E-02    1.000000E+06  0.00400  1.114E-02    0   1.0000   age020_m42            0.0000     2.0231E+03    35.6196   4.0000    88.0986
  2      5.0945     2.4063E-03    4.6846E-03    3.160000E+06  0.00400  4.073E-02    0   0.9999   age045_m42            0.0000     5.7915E+02    13.7847   4.0000    97.1899
  3      1.5863     1.2043E-03    2.2248E-03    5.010000E+06  0.00400  2.534E-02    0   0.9488   age055_m42            0.0000     1.0601E+03    23.0804   4.0000    94.1181
  4      5.9638     9.0268E-03    1.5575E-02    1.000000E+07  0.00400  1.271E-02    0   0.8862   age070_m42            0.0000     4.7381E+02     9.4729   4.0000    92.7143
  5      0.0000     0.0000E+00    0.0000E+00    2.512000E+07  0.00400  5.070E-03    0   0.8174   age090_m42            0.0000     4.0283E+02     9.3386   4.0000    92.9560
  6      0.0000     0.0000E+00    0.0000E+00    4.000000E+07  0.00400  3.505E-03    0   0.7851   age104_m42            0.0000     3.4382E+02     9.3531   3.8182    93.6248
  7      0.0000     0.0000E+00    0.0000E+00    1.015200E+08  0.00400  2.268E-03    0   0.7207   age116_m42            0.0000     7.7984E+02     8.1252   3.6861   100.5493
  8      0.0000     0.0000E+00    0.0000E+00    2.861200E+08  0.00400  1.079E-03    0   0.6613   age125_m42            0.0000     7.9152E+02     8.5892   3.1314   102.6908
  9      0.0000     0.0000E+00    0.0000E+00    6.405400E+08  0.00400  5.077E-04    0   0.6197   age132_m42            0.0000     8.0454E+02     8.5415   2.7895   106.6549
 10      0.0000     0.0000E+00    0.0000E+00    9.047900E+08  0.00400  3.535E-04    0   0.6024   age135_m42            0.0000     5.9872E+02     7.4837   2.5433   106.4009
 11      0.0000     0.0000E+00    0.0000E+00    1.434000E+09  0.00400  1.910E-04    0   0.5716   age139_m42            0.0000     3.2828E+02     6.3848   1.9408   105.9875
 12      0.0000     0.0000E+00    0.0000E+00    2.500000E+09  0.00400  9.818E-05    0   0.5463   age150_m42            0.0000     1.2346E+02     4.6812   1.6489   102.2697
 13      2.7862     1.1361E+00    1.1564E+00    5.000000E+09  0.00400  4.718E-05    0   0.5228   age161_m42            0.0000     5.3251E+01     3.7228   1.4798    99.4571
 14      8.4585     7.3797E+00    7.1554E+00    1.100000E+10  0.00400  2.205E-05    0   0.4980   age185_m42            0.0000     3.3972E+01     4.6131   1.1492    97.8913
 15      0.0000     0.0000E+00    0.0000E+00    1.300000E+10  0.00400  1.883E-05    0   0.4927   age193_m42            0.0000     3.4509E+01     4.7730   1.1250    97.8249
 16      1.9364     1.8729E-03    3.6466E-03    1.000000E+06  0.02000  1.989E-02    0   1.0000   age020_m62            0.0000     1.9628E+03    34.6972   4.0000    88.8073
 17      0.0000     0.0000E+00    0.0000E+00    3.160000E+06  0.02000  3.772E-02    0   0.9858   age045_m62            0.0000     1.7415E+03    31.7697   4.0000    90.8009
 18      0.0000     0.0000E+00    0.0000E+00    5.010000E+06  0.02000  3.227E-02    0   0.9342   age055_m62            0.0000     8.9522E+02    19.4656   4.0000    96.0992
 19      0.0000     0.0000E+00    0.0000E+00    1.000000E+07  0.02000  1.011E-02    0   0.8751   age070_m62            0.0000     6.2814E+02    12.6315   4.0000    90.7713
 20      0.0000     0.0000E+00    0.0000E+00    2.512000E+07  0.02000  4.206E-03    0   0.8099   age090_m62            0.0000     5.0805E+02    10.7202   4.0000    90.6566
 21      0.0000     0.0000E+00    0.0000E+00    4.000000E+07  0.02000  3.373E-03    0   0.7799   age104_m62            0.0000     4.4725E+02     9.0303   4.0000    94.9722
 22      0.0000     0.0000E+00    0.0000E+00    1.015200E+08  0.02000  1.878E-03    0   0.7221   age116_m62            0.0000     7.6429E+02     8.0742   3.7451   101.0119
 23      0.0000     0.0000E+00    0.0000E+00    2.861200E+08  0.02000  8.869E-04    0   0.6700   age125_m62            0.0000     1.1045E+03     9.9313   3.1332   107.0062
 24      0.0000     0.0000E+00    0.0000E+00    6.405400E+08  0.02000  3.657E-04    0   0.6322   age132_m62            0.0000     7.6268E+02    10.2222   2.3474   111.2594
 25      0.0000     0.0000E+00    0.0000E+00    9.047900E+08  0.02000  2.312E-04    0   0.6152   age135_m62            0.0000     4.7112E+02     8.7345   1.9623   110.9769
 26      0.0000     0.0000E+00    0.0000E+00    1.434000E+09  0.02000  1.168E-04    0   0.5865   age139_m62            0.0000     1.6574E+02     6.0790   1.5420   106.2891
 27      0.0000     0.0000E+00    0.0000E+00    2.500000E+09  0.02000  5.505E-05    0   0.5610   age150_m62            0.0000     5.9802E+01     5.6593   1.1332   104.2547
 28     29.0463     2.1525E+01    2.2434E+01    5.000000E+09  0.02000  2.596E-05    0   0.5353   age161_m62            0.0000     6.2589E+01     7.6547   0.7083   105.0065
 29     27.1864     4.4740E+01    4.4451E+01    1.100000E+10  0.02000  1.169E-05    0   0.5103   age185_m62            0.0000     1.2459E+02    10.5483   0.2287   107.3612
 30     12.6926     2.5196E+01    2.4759E+01    1.300000E+10  0.02000  9.691E-06    0   0.5047   age193_m62            0.0000     1.4038E+02    11.0993   0.1612   107.7665
 31      0.0000     0.0000E+00    0.0000E+00    1.000000E+06  0.05000  2.651E-02    0   0.9998   age020_m72            0.0000     1.9378E+03    34.2941   4.0000    89.7665
 32      0.0000     0.0000E+00    0.0000E+00    3.160000E+06  0.05000  4.817E-02    0   0.9577   age045_m72            0.0000     1.4343E+03    27.8264   4.0000    93.8888
 33      0.0000     0.0000E+00    0.0000E+00    5.010000E+06  0.05000  3.101E-02    0   0.9147   age055_m72            0.0000     1.0005E+03    20.0478   4.0000    95.1003
 34      0.0000     0.0000E+00    0.0000E+00    1.000000E+07  0.05000  8.954E-03    0   0.8524   age070_m72            0.0000     1.2333E+03    24.7870   4.0000    94.7352
 35      0.0000     0.0000E+00    0.0000E+00    2.512000E+07  0.05000  4.207E-03    0   0.7902   age090_m72            0.0000     6.7934E+02    14.8035   4.0000    97.4264
 36      0.0000     0.0000E+00    0.0000E+00    4.000000E+07  0.05000  3.198E-03    0   0.7618   age104_m72            0.0000     6.0705E+02     7.3817   4.0000    98.9717
 37      0.0000     0.0000E+00    0.0000E+00    1.015200E+08  0.05000  1.716E-03    0   0.7092   age116_m72            0.0000     8.4088E+02     8.2666   3.8123   101.0215
 38      0.0000     0.0000E+00    0.0000E+00    2.861200E+08  0.05000  7.047E-04    0   0.6618   age125_m72            0.0000     1.0292E+03    10.2830   2.8750   107.8421
 39      0.0000     0.0000E+00    0.0000E+00    6.405400E+08  0.05000  2.633E-04    0   0.6253   age132_m72            0.0000     5.6051E+02    10.1438   1.9171   111.2893
 40      0.0000     0.0000E+00    0.0000E+00    9.047900E+08  0.05000  1.484E-04    0   0.6088   age135_m72            0.0000     2.2194E+02     8.2651   1.4045   107.2446
 41      0.0000     0.0000E+00    0.0000E+00    1.434000E+09  0.05000  7.827E-05    0   0.5847   age139_m72            0.0000     9.0440E+01     7.6079   0.9688   104.8093
 42      0.0000     0.0000E+00    0.0000E+00    2.500000E+09  0.05000  3.759E-05    0   0.5583   age150_m72            0.0000     7.7729E+01     8.3945   0.6069   104.6557
 43      0.0000     0.0000E+00    0.0000E+00    5.000000E+09  0.05000  1.548E-05    0   0.5320   age161_m72            0.0000     1.3204E+02    11.1349   0.0845   104.9666
 44      0.0000     0.0000E+00    0.0000E+00    1.100000E+10  0.05000  6.532E-06    0   0.5070   age185_m72            0.0000     2.3657E+02    15.4675  -0.5058   106.5854
 45      0.0000     0.0000E+00    0.0000E+00    1.300000E+10  0.05000  5.316E-06    0   0.5018   age193_m72            0.0000     2.8682E+02    17.1972  -0.7129   107.5179


## Synthesis Results - Average & Chains ##

# j      x_j: min, <> & last-chain-values for 1 ...  7 chains
  1      5.1193      4.8594      4.8289      4.7653      4.9265      4.7967      4.8446      4.9343      5.0181
  2      5.0945      3.6771      3.9065      3.8044      3.7777      3.6547      4.1470      3.9581      3.7495
  3      1.5863      1.2507      1.1796      1.2105      1.5082      1.5332      1.4193      1.1637      1.4696
  4      5.9638      7.9411      8.0813      7.9244      7.8052      7.9139      7.7101      7.8506      7.9211
  5      0.0000      0.0232      0.0000      0.0000      0.0000      0.0000      0.0000      0.0000      0.0000
  6      0.0000      0.0181      0.0000      0.0000      0.0000      0.0000      0.0000      0.0000      0.0000
  7      0.0000      0.0091      0.0000      0.0000      0.0041      0.0000      0.0000      0.0000      0.0000
  8      0.0000      0.0121      0.0000      0.0000      0.0000      0.0000      0.0000      0.0153      0.0000
  9      0.0000      0.0247      0.0149      0.0000      0.0000      0.1277      0.0000      0.0000      0.0000
 10      0.0000      0.0482      0.0000      0.1226      0.2219      0.0000      0.2932      0.0000      0.1396
 11      0.0000      0.0645      0.0000      0.0000      0.0000      0.0000      0.0104      0.0828      0.0000
 12      0.0000      0.2500      0.4381      0.1778      0.8032      0.1233      0.1764      0.2054      0.4054
 13      2.7862      1.2760      1.6818      2.0620      1.0342      2.1524      1.0801      1.7920      1.3373
 14      8.4585      8.9315      8.3227      8.9882      8.9177      8.8783      9.5408      7.9039      8.1840
 15      0.0000      0.5070      1.1834      0.2153      0.5962      0.0735      0.0000      0.7719      0.8561
 16      1.9364      1.7585      1.8862      1.8527      1.7711      1.7013      1.8565      1.8081      1.7264
 17      0.0000      0.0954      0.0979      0.0000      0.0000      0.0621      0.0195      0.0758      0.0000
 18      0.0000      0.0256      0.0000      0.0000      0.0000      0.0000      0.0246      0.0000      0.0000
 19      0.0000      0.0388      0.0000      0.0000      0.0063      0.0000      0.0000      0.0000      0.0000
 20      0.0000      0.0152      0.0000      0.0000      0.0000      0.0000      0.0000      0.0000      0.0000
 21      0.0000      0.0158      0.0000      0.0000      0.0000      0.0000      0.0000      0.0000      0.0000
 22      0.0000      0.0074      0.0000      0.0000      0.0000      0.0000      0.0000      0.0000      0.0000
 23      0.0000      0.0081      0.0000      0.0000      0.0000      0.0000      0.0000      0.0000      0.0000
 24      0.0000      0.0134      0.0000      0.0000      0.0000      0.0000      0.0000      0.0000      0.0000
 25      0.0000      0.0232      0.0000      0.0258      0.0000      0.0000      0.0000      0.0000      0.0000
 26      0.0000      0.0425      0.0000      0.0000      0.0000      0.0000      0.0000      0.0000      0.1232
 27      0.0000      0.1369      0.0000      0.0000      0.0000      0.0000      0.0000      0.0000      0.1244
 28     29.0463     26.9540     26.7556     27.2931     26.8521     27.2807     27.0309     27.9909     27.8886
 29     27.1864     27.6985     27.8377     27.6476     28.0290     28.1581     27.7914     27.9181     27.5433
 30     12.6926     13.6336     13.5710     13.3501     13.3890     13.1358     13.7625     13.1350     13.4154
 31      0.0000      0.0679      0.0183      0.2387      0.0554      0.0000      0.0000      0.0645      0.0000
 32      0.0000      0.0610      0.0000      0.0000      0.1152      0.1399      0.0000      0.0679      0.0000
 33      0.0000      0.0316      0.0000      0.0000      0.0000      0.0000      0.0000      0.1245      0.0000
 34      0.0000      0.0435      0.0000      0.0396      0.0000      0.1350      0.0613      0.0000      0.0000
 35      0.0000      0.0132      0.0000      0.0000      0.0000      0.0015      0.0000      0.0000      0.0000
 36      0.0000      0.0093      0.0000      0.0000      0.0000      0.0051      0.0000      0.0000      0.0000
 37      0.0000      0.0094      0.0000      0.0000      0.0000      0.0000      0.0000      0.0000      0.0000
 38      0.0000      0.0060      0.0000      0.0000      0.0000      0.0000      0.0000      0.0000      0.0000
 39      0.0000      0.0144      0.0038      0.0000      0.0000      0.0000      0.0000      0.0000      0.0000
 40      0.0000      0.0347      0.0000      0.0000      0.0000      0.0000      0.1263      0.0000      0.0000
 41      0.0000      0.0615      0.0000      0.0000      0.0000      0.0000      0.0000      0.0000      0.0000
 42      0.0000      0.1330      0.0215      0.0000      0.0594      0.0195      0.0000      0.0000      0.0000
 43      0.0000      0.0412      0.0000      0.1439      0.0000      0.0000      0.0000      0.0000      0.0124
 44      0.0000      0.0061      0.0000      0.0019      0.0000      0.0000      0.0000      0.0000      0.0000
 45      0.0000      0.0044      0.0000      0.0000      0.0000      0.0000      0.0000      0.0000      0.0000

# j      m_j: min, <> & last-chain-values for 1 ...  7 chains
  1  1.7213E-02  1.6075E-02  1.5965E-02  1.5820E-02  1.6319E-02  1.5921E-02  1.6000E-02  1.6398E-02  1.6658E-02
  2  4.6846E-03  3.3265E-03  3.5320E-03  3.4540E-03  3.4222E-03  3.3175E-03  3.7456E-03  3.5973E-03  3.4039E-03
  3  2.2248E-03  1.7257E-03  1.6267E-03  1.6762E-03  2.0838E-03  2.1226E-03  1.9551E-03  1.6131E-03  2.0349E-03
  4  1.5575E-02  2.0404E-02  2.0752E-02  2.0434E-02  2.0082E-02  2.0403E-02  1.9779E-02  2.0265E-02  2.0424E-02
  5  0.0000E+00  1.3776E-04  0.0000E+00  0.0000E+00  0.0000E+00  0.0000E+00  0.0000E+00  0.0000E+00  0.0000E+00
  6  0.0000E+00  1.4948E-04  0.0000E+00  0.0000E+00  0.0000E+00  0.0000E+00  0.0000E+00  0.0000E+00  0.0000E+00
  7  0.0000E+00  1.0679E-04  0.0000E+00  0.0000E+00  4.7914E-05  0.0000E+00  0.0000E+00  0.0000E+00  0.0000E+00
  8  0.0000E+00  2.7268E-04  0.0000E+00  0.0000E+00  0.0000E+00  0.0000E+00  0.0000E+00  3.4698E-04  0.0000E+00
  9  0.0000E+00  1.1131E-03  6.6885E-04  0.0000E+00  0.0000E+00  5.7634E-03  0.0000E+00  0.0000E+00  0.0000E+00
 10  0.0000E+00  3.0264E-03  0.0000E+00  7.7240E-03  1.3953E-02  0.0000E+00  1.8385E-02  0.0000E+00  8.7952E-03
 11  0.0000E+00  7.1080E-03  0.0000E+00  0.0000E+00  0.0000E+00  0.0000E+00  1.1487E-03  9.1721E-03  0.0000E+00
 12  0.0000E+00  5.1261E-02  8.9772E-02  3.6578E-02  1.6492E-01  2.5361E-02  3.6123E-02  4.2317E-02  8.3421E-02
 13  1.1564E+00  5.2105E-01  6.8635E-01  8.4500E-01  4.2286E-01  8.8189E-01  4.4034E-01  7.3515E-01  5.4798E-01
 14  7.1554E+00  7.4335E+00  6.9227E+00  7.5073E+00  7.4321E+00  7.4143E+00  7.9279E+00  6.6087E+00  6.8353E+00
 15  0.0000E+00  4.8885E-01  1.1404E+00  2.0836E-01  5.7565E-01  7.1130E-02  0.0000E+00  7.4776E-01  8.2839E-01
 16  3.6466E-03  3.2581E-03  3.4926E-03  3.4448E-03  3.2858E-03  3.1627E-03  3.4341E-03  3.3655E-03  3.2097E-03
 17  0.0000E+00  9.1894E-05  9.4249E-05  0.0000E+00  0.0000E+00  6.0051E-05  1.8738E-05  7.3313E-05  0.0000E+00
 18  0.0000E+00  2.7306E-05  0.0000E+00  0.0000E+00  0.0000E+00  0.0000E+00  2.6215E-05  0.0000E+00  0.0000E+00
 19  0.0000E+00  1.2365E-04  0.0000E+00  0.0000E+00  2.0060E-05  0.0000E+00  0.0000E+00  0.0000E+00  0.0000E+00
 20  0.0000E+00  1.0816E-04  0.0000E+00  0.0000E+00  0.0000E+00  0.0000E+00  0.0000E+00  0.0000E+00  0.0000E+00
 21  0.0000E+00  1.3463E-04  0.0000E+00  0.0000E+00  0.0000E+00  0.0000E+00  0.0000E+00  0.0000E+00  0.0000E+00
 22  0.0000E+00  1.0439E-04  0.0000E+00  0.0000E+00  0.0000E+00  0.0000E+00  0.0000E+00  0.0000E+00  0.0000E+00
 23  0.0000E+00  2.2636E-04  0.0000E+00  0.0000E+00  0.0000E+00  0.0000E+00  0.0000E+00  0.0000E+00  0.0000E+00
 24  0.0000E+00  8.5144E-04  0.0000E+00  0.0000E+00  0.0000E+00  0.0000E+00  0.0000E+00  0.0000E+00  0.0000E+00
 25  0.0000E+00  2.2701E-03  0.0000E+00  2.5436E-03  0.0000E+00  0.0000E+00  0.0000E+00  0.0000E+00  0.0000E+00
 26  0.0000E+00  7.8633E-03  0.0000E+00  0.0000E+00  0.0000E+00  0.0000E+00  0.0000E+00  0.0000E+00  2.2886E-02
 27  0.0000E+00  5.1415E-02  0.0000E+00  0.0000E+00  0.0000E+00  0.0000E+00  0.0000E+00  0.0000E+00  4.6879E-02
 28  2.2434E+01  2.0482E+01  2.0319E+01  2.0813E+01  2.0432E+01  2.0800E+01  2.0507E+01  2.1368E+01  2.1266E+01
 29  4.4451E+01  4.4557E+01  4.4754E+01  4.4633E+01  4.5150E+01  4.5450E+01  4.4635E+01  4.5118E+01  4.4462E+01
 30  2.4759E+01  2.6165E+01  2.6030E+01  2.5712E+01  2.5731E+01  2.5295E+01  2.6370E+01  2.5325E+01  2.5836E+01
 31  0.0000E+00  9.4310E-05  2.5407E-05  3.3296E-04  7.7125E-05  0.0000E+00  0.0000E+00  8.9992E-05  0.0000E+00
 32  0.0000E+00  4.4685E-05  0.0000E+00  0.0000E+00  8.4489E-05  1.0287E-04  0.0000E+00  4.9997E-05  0.0000E+00
 33  0.0000E+00  3.4302E-05  0.0000E+00  0.0000E+00  0.0000E+00  0.0000E+00  0.0000E+00  1.3593E-04  0.0000E+00
