###################################################################
## OUTPUT of StarlightChains_v04.for    [Cid@UFSC - 01/Apr/2007] ##
###################################################################

## Some input info
NGC6266_a_1.cxt                          [arq_obs]
Base.BC03.N                              [arq_base]
NGC6266_a_1.msk                          [arq_masks]
StCv04.C99.config                        [arq_config]
   45                                    [N_base]
    0                                    [N_YAV_components = # of components with extra extinction!]
    0                                    [i_FitPowerLaw (1/0 = Yes/No)]
-9.99                                    [alpha_PowerLaw]
CCM                                      [red_law_option]
 1.458241                                [q_norm = A(l_norm)/A(V)]

## (Re)Sampling Parameters
 3359.00                                 [l_ini (A)]
 6428.00                                 [l_fin (A)]
    1.00                                 [dl    (A)]     (OBS: dl_cushion =    50.00 A)

## Normalization info
 4020.00                                 [l_norm (A) - for base]
 4010.00                                 [llow_norm (A) - window for f_obs]
 4060.00                                 [lupp_norm (A) - window for f_obs]
4.260575E-14                             [fobs_norm (in input units)]

## S/N
 4730.00                                 [llow_SN (A) - window for S/N]
 4780.00                                 [lupp_SN (A) - window for S/N]
  58.893                                 [S/N in S/N window]
  42.056                                 [S/N in norm. window]
 225.721                                 [S/N_err in S/N window]
 161.191                                 [S/N_err in norm. window]
  1.0000                                 [fscale_chi2]

## etc...
  2147483622                             [idum_orig]
  3068                                   [NOl_eff]
   708                                   [Nl_eff]
  2360    NSIGMA                         [Ntot_cliped & clip_method]
  1467900                                [Nglobal_steps]
   7                                     [N_chains]
   6                                     [NEX0s_base = N_base in EX0s-fits]
 0   0   1        2   2.0   4.774E+02    [Clip-Bug, RC-Crash & Burn-In warning-flags, n_censored_weights, wei_nsig_threshold & wei_limit]
    23     23.361     23.353      0.008  [idt_all, wdt_TotTime, wdt_UsrTime & wdt_SysTime (sec)]

## Synthesis Results - Best model ##

 2.47351E+00                             [chi2/Nl_eff]
     1.08393                             [adev (%)]

    98.67849                             [sum-of-x (%)]
 3.87411E-13                             [Flux_tot (units of input spectrum!)]
 3.77481E-09                             [Mini_tot (???)]
 2.02015E-09                             [Mcor_tot (???)]

 -12.55                                  [v0_min  (km/s)]
  50.48                                  [vd_min  (km/s)]
 1.6535                                  [AV_min  (mag)]
 0.0000                                  [YAV_min (mag)]

# j     x_j(%)      Mini_j(%)     Mcor_j(%)     age_j(yr)     Z_j      (L/M)_j    YAV?  Mstars   component_j        a/Fe...       SSP_chi2r SSP_adev(%)   SSP_AV   SSP_x(%)
  1      0.0000     0.0000E+00    0.0000E+00    1.000000E+06  0.00400  1.114E-02    0   1.0000   age020_m42            0.0000     2.9185E+03    26.0432   4.0000    89.7757
  2      8.8243     2.2533E-02    4.2101E-02    3.160000E+06  0.00400  4.073E-02    0   0.9999   age045_m42            0.0000     1.1728E+02     5.5391   3.8747    89.7574
  3      0.0000     0.0000E+00    0.0000E+00    5.010000E+06  0.00400  2.534E-02    0   0.9488   age055_m42            0.0000     4.7803E+02    11.9214   4.0000    89.3793
  4     16.0072     1.3099E-01    2.1690E-01    1.000000E+07  0.00400  1.271E-02    0   0.8862   age070_m42            0.0000     2.3597E+02     8.5332   3.4752    87.3653
  5      0.0000     0.0000E+00    0.0000E+00    2.512000E+07  0.00400  5.070E-03    0   0.8174   age090_m42            0.0000     2.0078E+02     7.9242   3.3482    89.0293
  6      0.0000     0.0000E+00    0.0000E+00    4.000000E+07  0.00400  3.505E-03    0   0.7851   age104_m42            0.0000     1.1739E+02     6.0447   3.0338    92.3730
  7      0.0000     0.0000E+00    0.0000E+00    1.015200E+08  0.00400  2.268E-03    0   0.7207   age116_m42            0.0000     5.9969E+02    10.1081   3.0232   103.3038
  8      0.0000     0.0000E+00    0.0000E+00    2.861200E+08  0.00400  1.079E-03    0   0.6613   age125_m42            0.0000     6.5146E+02    11.0445   2.5278   105.7056
  9      0.0000     0.0000E+00    0.0000E+00    6.405400E+08  0.00400  5.077E-04    0   0.6197   age132_m42            0.0000     7.0099E+02    11.4969   2.1500   110.2730
 10     14.4560     4.2532E+00    4.7875E+00    9.047900E+08  0.00400  3.535E-04    0   0.6024   age135_m42            0.0000     4.4821E+02     9.3767   1.9143   109.3394
 11      0.0000     0.0000E+00    0.0000E+00    1.434000E+09  0.00400  1.910E-04    0   0.5716   age139_m42            0.0000     2.2125E+02     7.0195   1.4041   108.1080
 12     27.9363     2.9594E+01    3.0210E+01    2.500000E+09  0.00400  9.818E-05    0   0.5463   age150_m42            0.0000     9.2317E+01     4.8555   1.1464   102.7926
 13     28.9125     6.3736E+01    6.2263E+01    5.000000E+09  0.00400  4.718E-05    0   0.5228   age161_m42            0.0000     9.5891E+01     4.3847   0.9847    99.3320
 14      0.0000     0.0000E+00    0.0000E+00    1.100000E+10  0.00400  2.205E-05    0   0.4980   age185_m42            0.0000     2.2271E+02     6.1576   0.7294    97.5149
 15      0.0000     0.0000E+00    0.0000E+00    1.300000E+10  0.00400  1.883E-05    0   0.4927   age193_m42            0.0000     2.4513E+02     6.4370   0.7130    97.3775
 16      0.0000     0.0000E+00    0.0000E+00    1.000000E+06  0.02000  1.989E-02    0   1.0000   age020_m62            0.0000     2.7130E+03    24.9883   4.0000    90.0811
 17      0.0000     0.0000E+00    0.0000E+00    3.160000E+06  0.02000  3.772E-02    0   0.9858   age045_m62            0.0000     1.9367E+03    21.8199   4.0000    90.7233
 18      0.0000     0.0000E+00    0.0000E+00    5.010000E+06  0.02000  3.227E-02    0   0.9342   age055_m62            0.0000     2.1732E+02     8.3031   4.0000    89.4607
 19      0.0000     0.0000E+00    0.0000E+00    1.000000E+07  0.02000  1.011E-02    0   0.8751   age070_m62            0.0000     6.4754E+02    13.2513   3.5144    82.9487
 20      0.0000     0.0000E+00    0.0000E+00    2.512000E+07  0.02000  4.206E-03    0   0.8099   age090_m62            0.0000     4.3521E+02    11.0008   3.4501    84.0272
 21      0.0000     0.0000E+00    0.0000E+00    4.000000E+07  0.02000  3.373E-03    0   0.7799   age104_m62            0.0000     1.3115E+02     5.6234   3.2527    93.9067
 22      0.0000     0.0000E+00    0.0000E+00    1.015200E+08  0.02000  1.878E-03    0   0.7221   age116_m62            0.0000     4.7100E+02     8.7016   3.0499   103.5740
 23      0.0000     0.0000E+00    0.0000E+00    2.861200E+08  0.02000  8.869E-04    0   0.6700   age125_m62            0.0000     1.0918E+03    14.2472   2.5374   111.2924
 24      0.0000     0.0000E+00    0.0000E+00    6.405400E+08  0.02000  3.657E-04    0   0.6322   age132_m62            0.0000     7.7366E+02    12.4973   1.8663   114.6416
 25      0.0000     0.0000E+00    0.0000E+00    9.047900E+08  0.02000  2.312E-04    0   0.6152   age135_m62            0.0000     4.6882E+02     9.9452   1.5010   113.3204
 26      2.5422     2.2638E+00    2.4809E+00    1.434000E+09  0.02000  1.168E-04    0   0.5865   age139_m62            0.0000     1.9085E+02     6.5574   1.1049   106.9043
 27      0.0000     0.0000E+00    0.0000E+00    2.500000E+09  0.02000  5.505E-05    0   0.5610   age150_m62            0.0000     2.5285E+02     7.1508   0.7418   104.1179
 28      0.0000     0.0000E+00    0.0000E+00    5.000000E+09  0.02000  2.596E-05    0   0.5353   age161_m62            0.0000     5.1438E+02     9.7032   0.4124   104.7124
 29      0.0000     0.0000E+00    0.0000E+00    1.100000E+10  0.02000  1.169E-05    0   0.5103   age185_m62            0.0000     8.5737E+02    12.2468   0.0530   106.7379
 30      0.0000     0.0000E+00    0.0000E+00    1.300000E+10  0.02000  9.691E-06    0   0.5047   age193_m62            0.0000     9.2463E+02    12.6606   0.0076   107.0715
 31      0.0000     0.0000E+00    0.0000E+00    1.000000E+06  0.05000  2.651E-02    0   0.9998   age020_m72            0.0000     2.6808E+03    24.5349   4.0000    91.1880
 32      0.0000     0.0000E+00    0.0000E+00    3.160000E+06  0.05000  4.817E-02    0   0.9577   age045_m72            0.0000     1.1762E+03    17.2808   4.0000    92.3365
 33      0.0000     0.0000E+00    0.0000E+00    5.010000E+06  0.05000  3.101E-02    0   0.9147   age055_m72            0.0000     3.6204E+02    10.4675   4.0000    87.8998
 34      0.0000     0.0000E+00    0.0000E+00    1.000000E+07  0.05000  8.954E-03    0   0.8524   age070_m72            0.0000     8.4009E+02    14.7018   4.0000    91.6139
 35      0.0000     0.0000E+00    0.0000E+00    2.512000E+07  0.05000  4.207E-03    0   0.7902   age090_m72            0.0000     1.4597E+02     6.1616   3.9653    88.8694
 36      0.0000     0.0000E+00    0.0000E+00    4.000000E+07  0.05000  3.198E-03    0   0.7618   age104_m72            0.0000     2.7123E+02     6.5766   3.4509    98.3942
 37      0.0000     0.0000E+00    0.0000E+00    1.015200E+08  0.05000  1.716E-03    0   0.7092   age116_m72            0.0000     6.0117E+02    10.0061   3.1580   103.5764
 38      0.0000     0.0000E+00    0.0000E+00    2.861200E+08  0.05000  7.047E-04    0   0.6618   age125_m72            0.0000     1.0914E+03    14.3090   2.3510   111.6275
 39      0.0000     0.0000E+00    0.0000E+00    6.405400E+08  0.05000  2.633E-04    0   0.6253   age132_m72            0.0000     6.3803E+02    11.4930   1.5100   113.8845
 40      0.0000     0.0000E+00    0.0000E+00    9.047900E+08  0.05000  1.484E-04    0   0.6088   age135_m72            0.0000     3.3564E+02     8.8989   1.0383   108.4854
 41      0.0000     0.0000E+00    0.0000E+00    1.434000E+09  0.05000  7.827E-05    0   0.5847   age139_m72            0.0000     3.8922E+02     8.9543   0.6626   104.9639
 42      0.0000     0.0000E+00    0.0000E+00    2.500000E+09  0.05000  3.759E-05    0   0.5583   age150_m72            0.0000     5.8023E+02    10.3705   0.3458   104.4173
 43      0.0000     0.0000E+00    0.0000E+00    5.000000E+09  0.05000  1.548E-05    0   0.5320   age161_m72            0.0000     8.9591E+02    12.3212  -0.0503   104.6650
 44      0.0000     0.0000E+00    0.0000E+00    1.100000E+10  0.05000  6.532E-06    0   0.5070   age185_m72            0.0000     1.2874E+03    14.6399  -0.4248   105.4561
 45      0.0000     0.0000E+00    0.0000E+00    1.300000E+10  0.05000  5.316E-06    0   0.5018   age193_m72            0.0000     1.4597E+03    15.6404  -0.5406   105.8568


## Synthesis Results - Average & Chains ##

# j      x_j: min, <> & last-chain-values for 1 ...  7 chains
  1      0.0000      0.0166      0.0000      0.0000      0.0751      0.0000      0.0197      0.0000      0.0000
  2      8.8243      8.3169      8.2762      8.5432      8.4007      8.4365      8.7965      8.3644      8.3363
  3      0.0000      0.0384      0.0469      0.0274      0.0183      0.0000      0.0772      0.0555      0.1097
  4     16.0072     15.3706     15.2134     15.6272     15.5403     15.6687     15.5385     15.5013     15.4700
  5      0.0000      0.1904      0.3335      0.1793      0.1485      0.1580      0.0000      0.1937      0.1624
  6      0.0000      0.0226      0.0000      0.0000      0.0000      0.0030      0.0000      0.0000      0.0000
  7      0.0000      0.0430      0.0000      0.0249      0.0613      0.0000      0.1723      0.0569      0.1213
  8      0.0000      0.0488      0.0000      0.0858      0.0000      0.2046      0.0000      0.0148      0.1065
  9      0.0000      0.1370      0.2479      0.2583      0.2602      0.0836      0.0000      0.0589      0.2308
 10     14.4560     14.3910     14.4507     14.2410     14.4518     14.5271     14.3343     14.4670     14.3554
 11      0.0000      0.2925      0.4000      0.0000      0.2505      0.0000      0.0000      0.3622      0.0000
 12     27.9363     28.1401     28.0927     28.3875     27.9710     28.0399     28.1242     28.0464     27.9722
 13     28.9125     29.7588     29.5180     29.5046     29.8513     29.5918     29.6618     29.6168     29.6668
 14      0.0000      0.0210      0.0199      0.1540      0.0000      0.0000      0.0067      0.0000      0.0000
 15      0.0000      0.0189      0.0000      0.0000      0.0007      0.0000      0.0000      0.0000      0.0000
 16      0.0000      0.0097      0.0000      0.0000      0.0000      0.0000      0.0000      0.0000      0.0035
 17      0.0000      0.0210      0.0000      0.0000      0.0391      0.0124      0.0000      0.0518      0.0000
 18      0.0000      0.0298      0.0763      0.0000      0.0000      0.0605      0.0476      0.0930      0.0559
 19      0.0000      0.0217      0.0000      0.0000      0.0000      0.0000      0.0000      0.0000      0.0000
 20      0.0000      0.0236      0.0000      0.0097      0.0716      0.0000      0.0000      0.0000      0.0000
 21      0.0000      0.0272      0.0000      0.0000      0.0257      0.0000      0.0000      0.0000      0.0000
 22      0.0000      0.0455      0.0000      0.0487      0.0655      0.0000      0.0000      0.0518      0.1230
 23      0.0000      0.0199      0.0000      0.0000      0.0476      0.0000      0.0000      0.0000      0.0000
 24      0.0000      0.0316      0.0000      0.0000      0.0604      0.0000      0.0000      0.0161      0.0985
 25      0.0000      0.0886      0.0017      0.0000      0.0000      0.0149      0.0000      0.0984      0.0879
 26      2.5422      0.3894      0.9754      0.4003      0.3250      0.7364      0.2399      0.3667      0.3422
 27      0.0000      0.2209      0.2660      0.3666      0.2920      0.2210      0.2916      0.4015      0.3178
 28      0.0000      0.0701      0.0000      0.0007      0.0000      0.1245      0.0352      0.0984      0.0000
 29      0.0000      0.0227      0.0000      0.0000      0.0000      0.0000      0.0898      0.0000      0.0000
 30      0.0000      0.0111      0.0387      0.0000      0.0000      0.0000      0.0342      0.0000      0.0597
 31      0.0000      0.0120      0.0000      0.0000      0.0000      0.0000      0.0000      0.0000      0.0000
 32      0.0000      0.0319      0.1498      0.0000      0.0000      0.0000      0.0000      0.0000      0.0000
 33      0.0000      0.1719      0.2711      0.1373      0.1057      0.1974      0.0400      0.1061      0.3140
 34      0.0000      0.0144      0.0000      0.0000      0.0000      0.0000      0.0000      0.0000      0.0000
 35      0.0000      0.0182      0.0000      0.0000      0.0010      0.0159      0.0400      0.0000      0.0112
 36      0.0000      0.0302      0.0000      0.0000      0.0000      0.0000      0.0529      0.1787      0.0000
 37      0.0000      0.0489      0.0257      0.0000      0.0465      0.0000      0.1371      0.0495      0.0000
 38      0.0000      0.0313      0.0011      0.1414      0.0393      0.0747      0.0000      0.0000      0.0119
 39      0.0000      0.0701      0.0473      0.0185      0.0684      0.1282      0.5295      0.0435      0.0000
 40      0.0000      0.0862      0.0000      0.0000      0.0000      0.0000      0.0000      0.0000      0.0982
 41      0.0000      0.2739      0.2468      0.4222      0.4892      0.4023      0.3504      0.2590      0.6378
 42      0.0000      0.0445      0.0000      0.1044      0.0000      0.0000      0.0679      0.1694      0.0000
 43      0.0000      0.0211      0.0031      0.0000      0.0000      0.0000      0.0000      0.0000      0.0000
 44      0.0000      0.0060      0.0000      0.0000      0.0000      0.0000      0.0000      0.0000      0.0000
 45      0.0000      0.0191      0.0123      0.0000      0.0000      0.0000      0.0000      0.0000      0.0000

# j      m_j: min, <> & last-chain-values for 1 ...  7 chains
  1  0.0000E+00  2.8293E-04  0.0000E+00  0.0000E+00  1.2919E-03  0.0000E+00  3.3516E-04  0.0000E+00  0.0000E+00
  2  4.2101E-02  3.8664E-02  3.8762E-02  3.9948E-02  3.9497E-02  3.9663E-02  4.1003E-02  3.9166E-02  3.9037E-02
  3  0.0000E+00  2.7209E-04  3.3484E-04  1.9538E-04  1.3103E-04  0.0000E+00  5.4852E-04  3.9617E-04  7.8367E-04
  4  2.1690E-01  2.0295E-01  2.0237E-01  2.0754E-01  2.0752E-01  2.0922E-01  2.0571E-01  2.0615E-01  2.0575E-01
  5  0.0000E+00  5.8131E-03  1.0259E-02  5.5063E-03  4.5848E-03  4.8773E-03  0.0000E+00  5.9564E-03  4.9956E-03
  6  0.0000E+00  9.5902E-04  0.0000E+00  0.0000E+00  0.0000E+00  1.3071E-04  0.0000E+00  0.0000E+00  0.0000E+00
  7  0.0000E+00  2.5873E-03  0.0000E+00  1.5072E-03  3.7327E-03  0.0000E+00  1.0398E-02  3.4491E-03  7.3542E-03
  8  0.0000E+00  5.6688E-03  0.0000E+00  1.0013E-02  0.0000E+00  2.4017E-02  0.0000E+00  1.7310E-03  1.2454E-02
  9  0.0000E+00  3.1673E-02  5.7722E-02  6.0055E-02  6.0829E-02  1.9542E-02  0.0000E+00  1.3702E-02  5.3733E-02
 10  4.7875E+00  4.6440E+00  4.6980E+00  4.6224E+00  4.7166E+00  4.7408E+00  4.6380E+00  4.7022E+00  4.6663E+00
 11  0.0000E+00  1.6577E-01  2.2839E-01  0.0000E+00  1.4360E-01  0.0000E+00  0.0000E+00  2.0673E-01  0.0000E+00
 12  3.0210E+01  2.9651E+01  2.9822E+01  3.0086E+01  2.9808E+01  2.9879E+01  2.9713E+01  2.9765E+01  2.9689E+01
 13  6.2263E+01  6.2445E+01  6.2401E+01  6.2273E+01  6.3351E+01  6.2795E+01  6.2407E+01  6.2595E+01  6.2706E+01
 14  0.0000E+00  8.9981E-02  8.5875E-02  6.6242E-01  0.0000E+00  0.0000E+00  2.8937E-02  0.0000E+00  0.0000E+00
 15  0.0000E+00  9.3859E-02  0.0000E+00  0.0000E+00  3.4245E-03  0.0000E+00  0.0000E+00  0.0000E+00  0.0000E+00
 16  0.0000E+00  9.2259E-05  0.0000E+00  0.0000E+00  0.0000E+00  0.0000E+00  0.0000E+00  0.0000E+00  3.3748E-05
 17  0.0000E+00  1.0399E-04  0.0000E+00  0.0000E+00  1.9592E-04  6.1858E-05  0.0000E+00  2.5837E-04  0.0000E+00
 18  0.0000E+00  1.6332E-04  4.2117E-04  0.0000E+00  0.0000E+00  3.3522E-04  2.6161E-04  5.1367E-04  3.0847E-04
 19  0.0000E+00  3.5605E-04  0.0000E+00  0.0000E+00  0.0000E+00  0.0000E+00  0.0000E+00  0.0000E+00  0.0000E+00
 20  0.0000E+00  8.6100E-04  0.0000E+00  3.5573E-04  2.6388E-03  0.0000E+00  0.0000E+00  0.0000E+00  0.0000E+00
 21  0.0000E+00  1.1914E-03  0.0000E+00  0.0000E+00  1.1375E-03  0.0000E+00  0.0000E+00  0.0000E+00  0.0000E+00
 22  0.0000E+00  3.3095E-03  0.0000E+00  3.5652E-03  4.8200E-03  0.0000E+00  0.0000E+00  3.7979E-03  9.0195E-03
 23  0.0000E+00  2.8424E-03  0.0000E+00  0.0000E+00  6.8823E-03  0.0000E+00  0.0000E+00  0.0000E+00  0.0000E+00
 24  0.0000E+00  1.0343E-02  0.0000E+00  0.0000E+00  2.0009E-02  0.0000E+00  0.0000E+00  5.3010E-03  3.2482E-02
 25  0.0000E+00  4.4651E-02  8.6603E-04  0.0000E+00  0.0000E+00  7.5749E-03  0.0000E+00  4.9961E-02  4.4632E-02
 26  2.4809E+00  3.7031E-01  9.3440E-01  3.8285E-01  3.1259E-01  7.0814E-01  2.2871E-01  3.5123E-01  3.2774E-01
 27  0.0000E+00  4.2626E-01  5.1707E-01  7.1150E-01  5.6990E-01  4.3131E-01  5.6428E-01  7.8048E-01  6.1777E-01
 28  0.0000E+00  2.7372E-01  0.0000E+00  2.7014E-03  0.0000E+00  4.9154E-01  1.3793E-01  3.8697E-01  0.0000E+00
 29  0.0000E+00  1.8774E-01  0.0000E+00  0.0000E+00  0.0000E+00  0.0000E+00  7.4392E-01  0.0000E+00  0.0000E+00
 30  0.0000E+00  1.0961E-01  3.8452E-01  0.0000E+00  0.0000E+00  0.0000E+00  3.3787E-01  0.0000E+00  5.9333E-01
 31  0.0000E+00  8.5467E-05  0.0000E+00  0.0000E+00  0.0000E+00  0.0000E+00  0.0000E+00  0.0000E+00  0.0000E+00
 32  0.0000E+00  1.2002E-04  5.6821E-04  0.0000E+00  0.0000E+00  0.0000E+00  0.0000E+00  0.0000E+00  0.0000E+00
 33  0.0000E+00  9.6001E-04  1.5257E-03  7.7113E-04  5.9700E-04  1.1149E-03  2.2415E-04  5.9677E-04  1.7668E-03
