###################################################################
## OUTPUT of StarlightChains_v04.for    [Cid@UFSC - 01/Apr/2007] ##
###################################################################

## Some input info
NGC6171_a_1.cxt                          [arq_obs]
Base.BC03.N                              [arq_base]
NGC6171_a_1.msk                          [arq_masks]
StCv04.C99.config                        [arq_config]
   45                                    [N_base]
    0                                    [N_YAV_components = # of components with extra extinction!]
    0                                    [i_FitPowerLaw (1/0 = Yes/No)]
-9.99                                    [alpha_PowerLaw]
CCM                                      [red_law_option]
 1.458241                                [q_norm = A(l_norm)/A(V)]

## (Re)Sampling Parameters
 3359.00                                 [l_ini (A)]
 6428.00                                 [l_fin (A)]
    1.00                                 [dl    (A)]     (OBS: dl_cushion =    50.00 A)

## Normalization info
 4020.00                                 [l_norm (A) - for base]
 4010.00                                 [llow_norm (A) - window for f_obs]
 4060.00                                 [lupp_norm (A) - window for f_obs]
4.369149E-15                             [fobs_norm (in input units)]

## S/N
 4730.00                                 [llow_SN (A) - window for S/N]
 4780.00                                 [lupp_SN (A) - window for S/N]
  52.314                                 [S/N in S/N window]
  35.378                                 [S/N in norm. window]
 244.302                                 [S/N_err in S/N window]
 165.214                                 [S/N_err in norm. window]
  1.0000                                 [fscale_chi2]

## etc...
  2147483627                             [idum_orig]
  3069                                   [NOl_eff]
   720                                   [Nl_eff]
  2349    NSIGMA                         [Ntot_cliped & clip_method]
  1998640                                [Nglobal_steps]
   7                                     [N_chains]
  11                                     [NEX0s_base = N_base in EX0s-fits]
 0   0   1      258   2.0   3.468E+02    [Clip-Bug, RC-Crash & Burn-In warning-flags, n_censored_weights, wei_nsig_threshold & wei_limit]
    25     25.006     25.006      0.000  [idt_all, wdt_TotTime, wdt_UsrTime & wdt_SysTime (sec)]

## Synthesis Results - Best model ##

 2.70951E+00                             [chi2/Nl_eff]
     1.15513                             [adev (%)]

   100.92538                             [sum-of-x (%)]
 3.20332E-14                             [Flux_tot (units of input spectrum!)]
 5.14788E-10                             [Mini_tot (???)]
 2.70206E-10                             [Mcor_tot (???)]

 -10.96                                  [v0_min  (km/s)]
  50.53                                  [vd_min  (km/s)]
 1.4764                                  [AV_min  (mag)]
 0.0000                                  [YAV_min (mag)]

# j     x_j(%)      Mini_j(%)     Mcor_j(%)     age_j(yr)     Z_j      (L/M)_j    YAV?  Mstars   component_j        a/Fe...       SSP_chi2r SSP_adev(%)   SSP_AV   SSP_x(%)
  1      4.6367     2.5662E-02    4.8891E-02    1.000000E+06  0.00400  1.114E-02    0   1.0000   age020_m42            0.0000     1.9718E+03    22.2681   4.0000    95.2224
  2      4.4931     6.8014E-03    1.2957E-02    3.160000E+06  0.00400  4.073E-02    0   0.9999   age045_m42            0.0000     1.9749E+02     6.2573   3.8360    95.6490
  3      4.4114     1.0733E-02    1.9402E-02    5.010000E+06  0.00400  2.534E-02    0   0.9488   age055_m42            0.0000     3.8021E+02    10.6573   4.0000    94.5361
  4      3.3517     1.6259E-02    2.7451E-02    1.000000E+07  0.00400  1.271E-02    0   0.8862   age070_m42            0.0000     2.7391E+02     8.3338   3.4345    94.0688
  5      0.0000     0.0000E+00    0.0000E+00    2.512000E+07  0.00400  5.070E-03    0   0.8174   age090_m42            0.0000     2.2977E+02     7.5821   3.3089    95.6868
  6      0.0000     0.0000E+00    0.0000E+00    4.000000E+07  0.00400  3.505E-03    0   0.7851   age104_m42            0.0000     1.6092E+02     5.8881   3.0037    98.4324
  7      0.0000     0.0000E+00    0.0000E+00    1.015200E+08  0.00400  2.268E-03    0   0.7207   age116_m42            0.0000     7.7144E+02    11.2853   3.0700   105.1674
  8      0.0000     0.0000E+00    0.0000E+00    2.861200E+08  0.00400  1.079E-03    0   0.6613   age125_m42            0.0000     8.3846E+02    12.1137   2.5831   106.9440
  9      0.0000     0.0000E+00    0.0000E+00    6.405400E+08  0.00400  5.077E-04    0   0.6197   age132_m42            0.0000     8.8874E+02    12.7684   2.2268   110.7494
 10      1.1180     1.9499E-01    2.2379E-01    9.047900E+08  0.00400  3.535E-04    0   0.6024   age135_m42            0.0000     6.2742E+02    10.9104   1.9792   110.3360
 11      0.0000     0.0000E+00    0.0000E+00    1.434000E+09  0.00400  1.910E-04    0   0.5716   age139_m42            0.0000     3.5906E+02     8.7712   1.4485   109.5662
 12     38.5313     2.4197E+01    2.5184E+01    2.500000E+09  0.00400  9.818E-05    0   0.5463   age150_m42            0.0000     1.5031E+02     6.1662   1.1543   105.6888
 13     32.7956     4.2858E+01    4.2687E+01    5.000000E+09  0.00400  4.718E-05    0   0.5228   age161_m42            0.0000     1.0031E+02     5.2186   0.9793   102.8288
 14      0.0000     0.0000E+00    0.0000E+00    1.100000E+10  0.00400  2.205E-05    0   0.4980   age185_m42            0.0000     1.8645E+02     6.5536   0.7179   100.9386
 15      0.0000     0.0000E+00    0.0000E+00    1.300000E+10  0.00400  1.883E-05    0   0.4927   age193_m42            0.0000     2.0074E+02     6.7635   0.6996   100.8703
 16      5.2100     1.6150E-02    3.0769E-02    1.000000E+06  0.02000  1.989E-02    0   1.0000   age020_m62            0.0000     1.8314E+03    21.4312   4.0000    95.5926
 17      0.0000     0.0000E+00    0.0000E+00    3.160000E+06  0.02000  3.772E-02    0   0.9858   age045_m62            0.0000     1.3358E+03    18.9245   4.0000    96.1865
 18      0.0000     0.0000E+00    0.0000E+00    5.010000E+06  0.02000  3.227E-02    0   0.9342   age055_m62            0.0000     2.6040E+02     7.9625   4.0000    94.5634
 19      0.0000     0.0000E+00    0.0000E+00    1.000000E+07  0.02000  1.011E-02    0   0.8751   age070_m62            0.0000     5.3114E+02    12.3929   3.4701    91.2491
 20      0.0000     0.0000E+00    0.0000E+00    2.512000E+07  0.02000  4.206E-03    0   0.8099   age090_m62            0.0000     3.4661E+02    10.1926   3.3984    92.0798
 21      0.0000     0.0000E+00    0.0000E+00    4.000000E+07  0.02000  3.373E-03    0   0.7799   age104_m62            0.0000     2.1769E+02     5.9905   3.2431    99.5279
 22      0.0000     0.0000E+00    0.0000E+00    1.015200E+08  0.02000  1.878E-03    0   0.7221   age116_m62            0.0000     6.7441E+02    10.4624   3.0930   106.0147
 23      0.0000     0.0000E+00    0.0000E+00    2.861200E+08  0.02000  8.869E-04    0   0.6700   age125_m62            0.0000     1.2707E+03    14.8857   2.6091   111.6981
 24      0.0000     0.0000E+00    0.0000E+00    6.405400E+08  0.02000  3.657E-04    0   0.6322   age132_m62            0.0000     9.2896E+02    13.4645   1.9216   115.1694
 25      0.0000     0.0000E+00    0.0000E+00    9.047900E+08  0.02000  2.312E-04    0   0.6152   age135_m62            0.0000     5.9040E+02    11.0631   1.5402   114.5560
 26      0.0000     0.0000E+00    0.0000E+00    1.434000E+09  0.02000  1.168E-04    0   0.5865   age139_m62            0.0000     2.5230E+02     7.6198   1.1140   109.6138
 27      0.0000     0.0000E+00    0.0000E+00    2.500000E+09  0.02000  5.505E-05    0   0.5610   age150_m62            0.0000     2.4766E+02     7.7616   0.7408   107.1313
 28      0.9028     2.1441E+00    2.1866E+00    5.000000E+09  0.02000  2.596E-05    0   0.5353   age161_m62            0.0000     4.4840E+02    10.0320   0.4077   107.4195
 29      3.9540     2.0854E+01    2.0275E+01    1.100000E+10  0.02000  1.169E-05    0   0.5103   age185_m62            0.0000     7.5137E+02    12.6169   0.0485   109.0987
 30      1.5209     9.6765E+00    9.3043E+00    1.300000E+10  0.02000  9.691E-06    0   0.5047   age193_m62            0.0000     8.1171E+02    13.0589   0.0032   109.3880
 31      0.0000     0.0000E+00    0.0000E+00    1.000000E+06  0.05000  2.651E-02    0   0.9998   age020_m72            0.0000     1.8001E+03    21.0075   4.0000    96.5866
 32      0.0000     0.0000E+00    0.0000E+00    3.160000E+06  0.05000  4.817E-02    0   0.9577   age045_m72            0.0000     8.4916E+02    15.0989   4.0000    97.3413
 33      0.0000     0.0000E+00    0.0000E+00    5.010000E+06  0.05000  3.101E-02    0   0.9147   age055_m72            0.0000     3.2645E+02     9.7677   4.0000    93.7455
 34      0.0000     0.0000E+00    0.0000E+00    1.000000E+07  0.05000  8.954E-03    0   0.8524   age070_m72            0.0000     5.9554E+02    12.7254   4.0000    96.8926
 35      0.0000     0.0000E+00    0.0000E+00    2.512000E+07  0.05000  4.207E-03    0   0.7902   age090_m72            0.0000     1.8798E+02     6.2351   3.9283    95.3121
 36      0.0000     0.0000E+00    0.0000E+00    4.000000E+07  0.05000  3.198E-03    0   0.7618   age104_m72            0.0000     4.3667E+02     8.3642   3.4738   102.0407
 37      0.0000     0.0000E+00    0.0000E+00    1.015200E+08  0.05000  1.716E-03    0   0.7092   age116_m72            0.0000     7.9655E+02    11.4697   3.2154   105.6653
 38      0.0000     0.0000E+00    0.0000E+00    2.861200E+08  0.05000  7.047E-04    0   0.6618   age125_m72            0.0000     1.2380E+03    14.9093   2.4241   111.9200
 39      0.0000     0.0000E+00    0.0000E+00    6.405400E+08  0.05000  2.633E-04    0   0.6253   age132_m72            0.0000     7.5670E+02    12.4276   1.5611   114.5250
 40      0.0000     0.0000E+00    0.0000E+00    9.047900E+08  0.05000  1.484E-04    0   0.6088   age135_m72            0.0000     4.0738E+02     9.7682   1.0609   110.2109
 41      0.0000     0.0000E+00    0.0000E+00    1.434000E+09  0.05000  7.827E-05    0   0.5847   age139_m72            0.0000     3.8614E+02     9.6971   0.6684   107.2862
 42      0.0000     0.0000E+00    0.0000E+00    2.500000E+09  0.05000  3.759E-05    0   0.5583   age150_m72            0.0000     5.1668E+02    10.7840   0.3444   106.9728
 43      0.0000     0.0000E+00    0.0000E+00    5.000000E+09  0.05000  1.548E-05    0   0.5320   age161_m72            0.0000     8.1280E+02    12.8947  -0.0350   106.6315
 44      0.0000     0.0000E+00    0.0000E+00    1.100000E+10  0.05000  6.532E-06    0   0.5070   age185_m72            0.0000     1.2448E+03    15.5998  -0.4028   106.4806
 45      0.0000     0.0000E+00    0.0000E+00    1.300000E+10  0.05000  5.316E-06    0   0.5018   age193_m72            0.0000     1.4347E+03    16.7069  -0.5166   106.5403


## Synthesis Results - Average & Chains ##

# j      x_j: min, <> & last-chain-values for 1 ...  7 chains
  1      4.6367      4.7372      4.8303      4.8562      4.7196      4.6972      4.6933      4.7229      4.8496
  2      4.4931      3.8941      4.0450      3.8865      3.9128      3.9379      3.9356      4.2443      3.8857
  3      4.4114      4.4689      4.4604      4.4021      4.5270      4.3688      4.5780      4.4934      4.4741
  4      3.3517      3.5386      3.5440      3.4944      3.5549      3.5728      3.5565      3.5643      3.6593
  5      0.0000      0.0920      0.1390      0.0157      0.2185      0.0000      0.0000      0.0000      0.0000
  6      0.0000      0.0364      0.0000      0.0000      0.0237      0.0000      0.0374      0.0000      0.0000
  7      0.0000      0.0154      0.0149      0.0000      0.0000      0.0000      0.0000      0.0000      0.0000
  8      0.0000      0.0227      0.0354      0.0000      0.0000      0.0303      0.0000      0.0000      0.0000
  9      0.0000      0.1205      0.0191      0.1162      0.1166      0.1753      0.2582      0.1544      0.0916
 10      1.1180      0.3925      0.8965      0.5149      0.4326      0.5789      0.5466      0.5073      0.3600
 11      0.0000      0.1740      0.0000      0.4783      0.2607      0.1114      0.0339      0.0191      0.1423
 12     38.5313     38.9810     39.1930     39.0774     38.9797     39.0468     39.1777     39.3952     39.5626
 13     32.7956     31.7379     31.6597     31.6834     32.1723     31.7428     31.7702     31.3484     32.1106
 14      0.0000      0.0890      0.0563      0.0094      0.0271      0.0000      0.1368      0.1107      0.0185
 15      0.0000      0.0600      0.0000      0.0000      0.1980      0.0000      0.0000      0.1192      0.0000
 16      5.2100      4.1156      4.2110      4.2744      4.0605      4.2400      4.0643      4.2796      4.1843
 17      0.0000      0.7704      0.7303      0.6924      0.8512      0.6915      0.7513      0.6785      0.7790
 18      0.0000      0.0586      0.0000      0.1565      0.0077      0.2119      0.0803      0.0476      0.1131
 19      0.0000      0.0739      0.0304      0.0000      0.0000      0.0000      0.0000      0.0029      0.0000
 20      0.0000      0.0253      0.0000      0.0177      0.0000      0.0065      0.0000      0.0000      0.0000
 21      0.0000      0.0219      0.0000      0.0000      0.0000      0.0000      0.0000      0.0000      0.0114
 22      0.0000      0.0170      0.0000      0.0000      0.0175      0.0000      0.0000      0.0000      0.0000
 23      0.0000      0.0182      0.0000      0.0000      0.0000      0.0000      0.0106      0.0145      0.0000
 24      0.0000      0.0352      0.0000      0.0050      0.0179      0.0665      0.0000      0.0000      0.0568
 25      0.0000      0.0439      0.0000      0.0000      0.0000      0.0653      0.0000      0.0000      0.0477
 26      0.0000      0.0621      0.0000      0.0000      0.0000      0.0000      0.0800      0.0000      0.0000
 27      0.0000      0.0722      0.0674      0.0000      0.0000      0.0423      0.0000      0.1173      0.0000
 28      0.9028      0.8964      0.8619      1.0555      0.8014      0.8776      0.9252      0.9296      0.7835
 29      3.9540      4.0846      4.1427      4.1304      4.1127      4.0193      3.9465      4.0748      4.0558
 30      1.5209      1.8590      1.7718      1.7180      1.6509      1.9556      1.9951      1.7238      1.6885
 31      0.0000      0.0244      0.0000      0.0000      0.0000      0.1103      0.0000      0.0796      0.0000
 32      0.0000      0.0276      0.0000      0.0000      0.0000      0.0000      0.1448      0.0179      0.0000
 33      0.0000      0.1547      0.1096      0.1294      0.1219      0.2832      0.2842      0.1052      0.0756
 34      0.0000      0.0364      0.0000      0.1160      0.1516      0.0000      0.0000      0.0000      0.0000
 35      0.0000      0.0499      0.1513      0.0000      0.0000      0.0717      0.0000      0.0000      0.0000
 36      0.0000      0.0237      0.0224      0.0000      0.0000      0.0000      0.0000      0.0340      0.0000
 37      0.0000      0.0217      0.0000      0.0000      0.0000      0.0000      0.0000      0.0000      0.0000
 38      0.0000      0.0160      0.0000      0.0538      0.0000      0.0000      0.0000      0.0000      0.0000
 39      0.0000      0.0230      0.0000      0.0000      0.0000      0.0203      0.0000      0.0000      0.0000
 40      0.0000      0.0374      0.0000      0.0000      0.0028      0.0000      0.0000      0.0421      0.0000
 41      0.0000      0.0259      0.0000      0.0310      0.0000      0.0000      0.0000      0.0000      0.0000
 42      0.0000      0.0227      0.0000      0.0683      0.0000      0.0000      0.0000      0.1333      0.0000
 43      0.0000      0.0129      0.0000      0.0000      0.0000      0.0000      0.0000      0.0000      0.0000
 44      0.0000      0.0069      0.0000      0.0000      0.0000      0.0779      0.0000      0.0000      0.0000
 45      0.0000      0.0040      0.0000      0.0000      0.0064      0.0000      0.0000      0.0000      0.0000

# j      m_j: min, <> & last-chain-values for 1 ...  7 chains
  1  4.8891E-02  4.8782E-02  5.0153E-02  5.0383E-02  4.8992E-02  4.8246E-02  4.8352E-02  4.9031E-02  5.0616E-02
  2  1.2957E-02  1.0966E-02  1.1486E-02  1.1027E-02  1.1108E-02  1.1061E-02  1.1089E-02  1.2050E-02  1.1091E-02
  3  1.9402E-02  1.9195E-02  1.9317E-02  1.9050E-02  1.9601E-02  1.8717E-02  1.9672E-02  1.9458E-02  1.9478E-02
  4  2.7451E-02  2.8303E-02  2.8581E-02  2.8160E-02  2.8663E-02  2.8503E-02  2.8460E-02  2.8741E-02  2.9665E-02
  5  0.0000E+00  1.7023E-03  2.5927E-03  2.9199E-04  4.0745E-03  0.0000E+00  0.0000E+00  0.0000E+00  0.0000E+00
  6  0.0000E+00  9.3477E-04  0.0000E+00  0.0000E+00  6.1313E-04  0.0000E+00  9.6250E-04  0.0000E+00  0.0000E+00
  7  0.0000E+00  5.6116E-04  5.4611E-04  0.0000E+00  0.0000E+00  0.0000E+00  0.0000E+00  0.0000E+00  0.0000E+00
  8  0.0000E+00  1.5973E-03  2.5117E-03  0.0000E+00  0.0000E+00  2.1240E-03  0.0000E+00  0.0000E+00  0.0000E+00
  9  0.0000E+00  1.6876E-02  2.7025E-03  1.6387E-02  1.6453E-02  2.4477E-02  3.6175E-02  2.1791E-02  1.2998E-02
 10  2.2379E-01  7.6720E-02  1.7671E-01  1.0140E-01  8.5258E-02  1.1287E-01  1.0690E-01  9.9987E-02  7.1331E-02
 11  0.0000E+00  5.9739E-02  0.0000E+00  1.6544E-01  9.0235E-02  3.8151E-02  1.1640E-02  6.6016E-03  4.9512E-02
 12  2.5184E+01  2.4882E+01  2.5224E+01  2.5131E+01  2.5082E+01  2.4860E+01  2.5019E+01  2.5351E+01  2.5595E+01
 13  4.2687E+01  4.0344E+01  4.0578E+01  4.0577E+01  4.1226E+01  4.0247E+01  4.0403E+01  4.0173E+01  4.1370E+01
 14  0.0000E+00  2.3047E-01  1.4718E-01  2.4654E-02  7.0815E-02  0.0000E+00  3.5469E-01  2.8922E-01  4.8602E-02
 15  0.0000E+00  1.8018E-01  0.0000E+00  0.0000E+00  5.9922E-01  0.0000E+00  0.0000E+00  3.6073E-01  0.0000E+00
 16  3.0769E-02  2.3737E-02  2.4488E-02  2.4837E-02  2.3608E-02  2.4391E-02  2.3451E-02  2.4884E-02  2.4460E-02
 17  0.0000E+00  2.3097E-03  2.2077E-03  2.0915E-03  2.5726E-03  2.0679E-03  2.2535E-03  2.0508E-03  2.3672E-03
 18  0.0000E+00  1.9469E-04  0.0000E+00  5.2377E-04  2.5779E-05  7.0181E-04  2.6691E-04  1.5933E-04  3.8061E-04
 19  0.0000E+00  7.3338E-04  3.0436E-04  0.0000E+00  0.0000E+00  0.0000E+00  0.0000E+00  2.9168E-05  0.0000E+00
 20  0.0000E+00  5.5841E-04  0.0000E+00  3.9331E-04  0.0000E+00  1.4390E-04  0.0000E+00  0.0000E+00  0.0000E+00
 21  0.0000E+00  5.8125E-04  0.0000E+00  0.0000E+00  0.0000E+00  0.0000E+00  0.0000E+00  0.0000E+00  3.0773E-04
 22  0.0000E+00  7.5085E-04  0.0000E+00  0.0000E+00  7.7873E-04  0.0000E+00  0.0000E+00  0.0000E+00  0.0000E+00
 23  0.0000E+00  1.5753E-03  0.0000E+00  0.0000E+00  0.0000E+00  0.0000E+00  9.2241E-04  1.2704E-03  0.0000E+00
 24  0.0000E+00  6.9802E-03  0.0000E+00  9.9986E-04  3.5804E-03  1.3153E-02  0.0000E+00  0.0000E+00  1.1407E-02
 25  0.0000E+00  1.3400E-02  0.0000E+00  0.0000E+00  0.0000E+00  1.9880E-02  0.0000E+00  0.0000E+00  1.4757E-02
 26  0.0000E+00  3.5785E-02  0.0000E+00  0.0000E+00  0.0000E+00  0.0000E+00  4.6114E-02  0.0000E+00  0.0000E+00
 27  0.0000E+00  8.4442E-02  7.9478E-02  0.0000E+00  0.0000E+00  4.9303E-02  0.0000E+00  1.3829E-01  0.0000E+00
 28  2.1866E+00  2.1205E+00  2.0557E+00  2.5155E+00  1.9109E+00  2.0706E+00  2.1896E+00  2.2168E+00  1.8783E+00
 29  2.0275E+01  2.0454E+01  2.0917E+01  2.0839E+01  2.0761E+01  2.0075E+01  1.9771E+01  2.0571E+01  2.0585E+01
 30  9.3043E+00  1.1106E+01  1.0673E+01  1.0341E+01  9.9423E+00  1.1653E+01  1.1925E+01  1.0382E+01  1.0224E+01
 31  0.0000E+00  1.0539E-04  0.0000E+00  0.0000E+00  0.0000E+00  4.7580E-04  0.0000E+00  3.4731E-04  0.0000E+00
 32  0.0000E+00  6.3009E-05  0.0000E+00  0.0000E+00  0.0000E+00  0.0000E+00  3.3043E-04  4.1062E-05  0.0000E+00
 33  0.0000E+00  5.2362E-04  3.7398E-04  4.4104E-04  4.1588E-04  9.5586E-04  9.6211E-04  3.5893E-04  2.5915E-04
