###################################################################
## OUTPUT of StarlightChains_v04.for    [Cid@UFSC - 01/Apr/2007] ##
###################################################################

## Some input info
NGC6624_a_1.cxt                          [arq_obs]
Base.BC03.N                              [arq_base]
NGC6624_a_1.msk                          [arq_masks]
StCv04.C99.config                        [arq_config]
   45                                    [N_base]
    0                                    [N_YAV_components = # of components with extra extinction!]
    0                                    [i_FitPowerLaw (1/0 = Yes/No)]
-9.99                                    [alpha_PowerLaw]
CCM                                      [red_law_option]
 1.458241                                [q_norm = A(l_norm)/A(V)]

## (Re)Sampling Parameters
 3359.00                                 [l_ini (A)]
 6428.00                                 [l_fin (A)]
    1.00                                 [dl    (A)]     (OBS: dl_cushion =    50.00 A)

## Normalization info
 4020.00                                 [l_norm (A) - for base]
 4010.00                                 [llow_norm (A) - window for f_obs]
 4060.00                                 [lupp_norm (A) - window for f_obs]
1.685692E-14                             [fobs_norm (in input units)]

## S/N
 4730.00                                 [llow_SN (A) - window for S/N]
 4780.00                                 [lupp_SN (A) - window for S/N]
  42.348                                 [S/N in S/N window]
  28.608                                 [S/N in norm. window]
  94.289                                 [S/N_err in S/N window]
  63.698                                 [S/N_err in norm. window]
  1.0000                                 [fscale_chi2]

## etc...
  2147483597                             [idum_orig]
  3069                                   [NOl_eff]
  1102                                   [Nl_eff]
  1967    NSIGMA                         [Ntot_cliped & clip_method]
  1546300                                [Nglobal_steps]
   7                                     [N_chains]
  10                                     [NEX0s_base = N_base in EX0s-fits]
 0   0   1      375   2.0   1.181E+03    [Clip-Bug, RC-Crash & Burn-In warning-flags, n_censored_weights, wei_nsig_threshold & wei_limit]
    21     20.790     20.782      0.008  [idt_all, wdt_TotTime, wdt_UsrTime & wdt_SysTime (sec)]

## Synthesis Results - Best model ##

 2.66617E+00                             [chi2/Nl_eff]
     1.38377                             [adev (%)]

   103.29562                             [sum-of-x (%)]
 3.34250E-14                             [Flux_tot (units of input spectrum!)]
 1.17121E-09                             [Mini_tot (???)]
 6.14946E-10                             [Mcor_tot (???)]

   8.40                                  [v0_min  (km/s)]
  83.08                                  [vd_min  (km/s)]
 0.4855                                  [AV_min  (mag)]
 0.0000                                  [YAV_min (mag)]

# j     x_j(%)      Mini_j(%)     Mcor_j(%)     age_j(yr)     Z_j      (L/M)_j    YAV?  Mstars   component_j        a/Fe...       SSP_chi2r SSP_adev(%)   SSP_AV   SSP_x(%)
  1      0.0000     0.0000E+00    0.0000E+00    1.000000E+06  0.00400  1.114E-02    0   1.0000   age020_m42            0.0000     1.5428E+03    31.6401   4.0000    70.6946
  2      0.0000     0.0000E+00    0.0000E+00    3.160000E+06  0.00400  4.073E-02    0   0.9999   age045_m42            0.0000     3.8221E+02    10.6164   3.9424    82.9746
  3      0.0000     0.0000E+00    0.0000E+00    5.010000E+06  0.00400  2.534E-02    0   0.9488   age055_m42            0.0000     6.0614E+02    17.9142   4.0000    78.0230
  4      2.8287     6.1488E-03    1.0378E-02    1.000000E+07  0.00400  1.271E-02    0   0.8862   age070_m42            0.0000     4.5669E+02    14.1243   3.6113    78.5245
  5      0.0000     0.0000E+00    0.0000E+00    2.512000E+07  0.00400  5.070E-03    0   0.8174   age090_m42            0.0000     4.5647E+02    13.6955   3.4715    80.4028
  6      0.0000     0.0000E+00    0.0000E+00    4.000000E+07  0.00400  3.505E-03    0   0.7851   age104_m42            0.0000     4.3539E+02    12.1486   3.1350    84.2345
  7      0.0000     0.0000E+00    0.0000E+00    1.015200E+08  0.00400  2.268E-03    0   0.7207   age116_m42            0.0000     1.1722E+03     9.1879   3.0613    95.7716
  8      0.0000     0.0000E+00    0.0000E+00    2.861200E+08  0.00400  1.079E-03    0   0.6613   age125_m42            0.0000     1.1545E+03     8.5488   2.5145   100.1295
  9      0.0000     0.0000E+00    0.0000E+00    6.405400E+08  0.00400  5.077E-04    0   0.6197   age132_m42            0.0000     1.1379E+03     8.7134   2.1300   104.9482
 10      0.0000     0.0000E+00    0.0000E+00    9.047900E+08  0.00400  3.535E-04    0   0.6024   age135_m42            0.0000     7.9182E+02     7.6141   1.8846   104.7907
 11      0.0000     0.0000E+00    0.0000E+00    1.434000E+09  0.00400  1.910E-04    0   0.5716   age139_m42            0.0000     3.7228E+02     5.2732   1.3324   105.7047
 12      9.2252     2.5960E+00    2.7011E+00    2.500000E+09  0.00400  9.818E-05    0   0.5463   age150_m42            0.0000     8.7231E+01     3.0420   1.0524   101.9443
 13     18.5546     1.0865E+01    1.0819E+01    5.000000E+09  0.00400  4.718E-05    0   0.5228   age161_m42            0.0000     2.6744E+01     2.5525   0.8943    98.5494
 14     18.0450     2.2610E+01    2.1445E+01    1.100000E+10  0.00400  2.205E-05    0   0.4980   age185_m42            0.0000     9.8385E+00     2.1375   0.6047    98.1505
 15      0.0000     0.0000E+00    0.0000E+00    1.300000E+10  0.00400  1.883E-05    0   0.4927   age193_m42            0.0000     1.2541E+01     2.2367   0.5844    98.1807
 16      0.0000     0.0000E+00    0.0000E+00    1.000000E+06  0.02000  1.989E-02    0   1.0000   age020_m62            0.0000     1.4609E+03    30.6222   4.0000    71.6630
 17      0.0000     0.0000E+00    0.0000E+00    3.160000E+06  0.02000  3.772E-02    0   0.9858   age045_m62            0.0000     1.2100E+03    27.7902   4.0000    73.4625
 18      0.0000     0.0000E+00    0.0000E+00    5.010000E+06  0.02000  3.227E-02    0   0.9342   age055_m62            0.0000     5.3682E+02    14.7100   4.0000    80.1304
 19      0.0000     0.0000E+00    0.0000E+00    1.000000E+07  0.02000  1.011E-02    0   0.8751   age070_m62            0.0000     5.4531E+02    17.7436   3.6576    74.0918
 20      0.0000     0.0000E+00    0.0000E+00    2.512000E+07  0.02000  4.206E-03    0   0.8099   age090_m62            0.0000     5.2398E+02    16.0876   3.5765    75.6807
 21      0.0000     0.0000E+00    0.0000E+00    4.000000E+07  0.02000  3.373E-03    0   0.7799   age104_m62            0.0000     5.8170E+02    12.2595   3.3496    85.1848
 22      0.0000     0.0000E+00    0.0000E+00    1.015200E+08  0.02000  1.878E-03    0   0.7221   age116_m62            0.0000     1.1380E+03     9.9304   3.1116    94.8321
 23      0.0000     0.0000E+00    0.0000E+00    2.861200E+08  0.02000  8.869E-04    0   0.6700   age125_m62            0.0000     1.6274E+03     9.6327   2.4908   106.3496
 24      0.0000     0.0000E+00    0.0000E+00    6.405400E+08  0.02000  3.657E-04    0   0.6322   age132_m62            0.0000     9.0667E+02     7.9602   1.7110   115.3358
 25      0.0000     0.0000E+00    0.0000E+00    9.047900E+08  0.02000  2.312E-04    0   0.6152   age135_m62            0.0000     4.8796E+02     6.1193   1.3443   114.5872
 26      0.0000     0.0000E+00    0.0000E+00    1.434000E+09  0.02000  1.168E-04    0   0.5865   age139_m62            0.0000     1.1687E+02     3.3199   0.9601   107.8406
 27      2.4810     1.2452E+00    1.3304E+00    2.500000E+09  0.02000  5.505E-05    0   0.5610   age150_m62            0.0000     1.6609E+01     1.9049   0.5705   106.2844
 28     41.0638     4.3703E+01    4.4556E+01    5.000000E+09  0.02000  2.596E-05    0   0.5353   age161_m62            0.0000     2.3904E+01     2.8915   0.1853   109.4065
 29      0.0000     0.0000E+00    0.0000E+00    1.100000E+10  0.02000  1.169E-05    0   0.5103   age185_m62            0.0000     1.0680E+02     4.8237  -0.2448   114.6160
 30      0.0000     0.0000E+00    0.0000E+00    1.300000E+10  0.02000  9.691E-06    0   0.5047   age193_m62            0.0000     1.3121E+02     5.1375  -0.3021   115.5142
 31      0.0000     0.0000E+00    0.0000E+00    1.000000E+06  0.05000  2.651E-02    0   0.9998   age020_m72            0.0000     1.4510E+03    30.4138   4.0000    72.5952
 32      0.0000     0.0000E+00    0.0000E+00    3.160000E+06  0.05000  4.817E-02    0   0.9577   age045_m72            0.0000     9.3391E+02    23.8167   4.0000    76.7239
 33      0.0000     0.0000E+00    0.0000E+00    5.010000E+06  0.05000  3.101E-02    0   0.9147   age055_m72            0.0000     5.5139E+02    16.1442   4.0000    77.9621
 34      0.0000     0.0000E+00    0.0000E+00    1.000000E+07  0.05000  8.954E-03    0   0.8524   age070_m72            0.0000     7.8658E+02    20.6559   4.0000    78.2386
 35      0.0000     0.0000E+00    0.0000E+00    2.512000E+07  0.05000  4.207E-03    0   0.7902   age090_m72            0.0000     5.0166E+02    11.9041   4.0000    81.8842
 36      0.0000     0.0000E+00    0.0000E+00    4.000000E+07  0.05000  3.198E-03    0   0.7618   age104_m72            0.0000     8.4586E+02     9.7286   3.4952    90.5627
 37      0.0000     0.0000E+00    0.0000E+00    1.015200E+08  0.05000  1.716E-03    0   0.7092   age116_m72            0.0000     1.2335E+03     9.5743   3.1858    95.6472
 38      0.0000     0.0000E+00    0.0000E+00    2.861200E+08  0.05000  7.047E-04    0   0.6618   age125_m72            0.0000     1.4651E+03     8.7111   2.2528   108.7634
 39      0.0000     0.0000E+00    0.0000E+00    6.405400E+08  0.05000  2.633E-04    0   0.6253   age132_m72            0.0000     6.2643E+02     6.4338   1.3214   116.0539
 40      0.0000     0.0000E+00    0.0000E+00    9.047900E+08  0.05000  1.484E-04    0   0.6088   age135_m72            0.0000     1.6979E+02     4.1262   0.8435   111.3943
 41      0.0000     0.0000E+00    0.0000E+00    1.434000E+09  0.05000  7.827E-05    0   0.5847   age139_m72            0.0000     2.4498E+01     2.8676   0.4440   108.9495
 42      3.0059     2.2093E+00    2.3492E+00    2.500000E+09  0.05000  3.759E-05    0   0.5583   age150_m72            0.0000     3.2400E+01     3.4382   0.0940   109.8543
 43      7.2728     1.2980E+01    1.3152E+01    5.000000E+09  0.05000  1.548E-05    0   0.5320   age161_m72            0.0000     9.9871E+01     5.0594  -0.3750   112.6203
 44      0.4858     2.0546E+00    1.9840E+00    1.100000E+10  0.05000  6.532E-06    0   0.5070   age185_m72            0.0000     1.9421E+02     7.4789  -0.8421   117.2946
 45      0.3328     1.7297E+00    1.6531E+00    1.300000E+10  0.05000  5.316E-06    0   0.5018   age193_m72            0.0000     2.3780E+02     8.5286  -1.0000   119.5498


## Synthesis Results - Average & Chains ##

# j      x_j: min, <> & last-chain-values for 1 ...  7 chains
  1      0.0000      0.0356      0.0000      0.0000      0.0000      0.1200      0.0545      0.0000      0.0094
  2      0.0000      0.2847      0.2696      0.4293      0.4891      0.3734      0.2436      0.3432      0.4201
  3      0.0000      0.0529      0.1762      0.0298      0.0050      0.0000      0.0000      0.0000      0.0000
  4      2.8287      2.0047      2.1607      2.0132      1.8863      2.0698      1.9145      2.0148      1.9613
  5      0.0000      0.0379      0.0000      0.0000      0.0000      0.1358      0.1271      0.0000      0.0000
  6      0.0000      0.0194      0.0000      0.0000      0.0383      0.0108      0.0000      0.0019      0.0000
  7      0.0000      0.0106      0.0407      0.0000      0.0000      0.0137      0.0000      0.0000      0.0000
  8      0.0000      0.0041      0.0000      0.0000      0.0000      0.0000      0.0000      0.0000      0.0000
  9      0.0000      0.0096      0.0000      0.0000      0.0000      0.0000      0.0000      0.0187      0.0000
 10      0.0000      0.0181      0.0000      0.0000      0.0000      0.0000      0.0145      0.0000      0.0000
 11      0.0000      0.0365      0.0398      0.0000      0.0000      0.0000      0.0000      0.0000      0.0000
 12      9.2252     11.7713     11.4564     11.8689     11.9553     12.0053     12.2665     11.5367     11.0968
 13     18.5546     10.9921     11.5048     11.4651     11.2688     10.9710     11.8119     11.7430     12.1516
 14     18.0450     20.8904     20.8343     20.8066     21.1054     20.5935     20.3051     20.9749     20.5101
 15      0.0000      0.3834      0.1157      0.2949      0.4294      0.0000      0.1907      0.0000      0.3480
 16      0.0000      0.0136      0.0000      0.0000      0.0000      0.0000      0.0212      0.0000      0.0000
 17      0.0000      0.0513      0.0913      0.0259      0.0287      0.0471      0.0000      0.0000      0.0000
 18      0.0000      0.2320      0.2120      0.3474      0.3068      0.2675      0.2735      0.3095      0.4848
 19      0.0000      0.0444      0.0000      0.0000      0.0065      0.0000      0.0859      0.0757      0.1534
 20      0.0000      0.0125      0.0000      0.0000      0.0000      0.0000      0.0084      0.0000      0.0000
 21      0.0000      0.0088      0.0000      0.0027      0.0000      0.0000      0.0000      0.0000      0.0000
 22      0.0000      0.0048      0.0000      0.0000      0.0000      0.0000      0.0000      0.0000      0.0000
 23      0.0000      0.0024      0.0000      0.0000      0.0000      0.0000      0.0000      0.0000      0.0000
 24      0.0000      0.0064      0.0000      0.0000      0.0000      0.0000      0.0000      0.0000      0.0000
 25      0.0000      0.0270      0.0000      0.0000      0.0000      0.0000      0.0000      0.0000      0.0000
 26      0.0000      0.0678      0.2678      0.0000      0.0063      0.0687      0.0000      0.0000      0.0000
 27      2.4810      0.7639      0.8526      1.3160      1.0894      0.7154      0.7943      0.7838      1.4407
 28     41.0638     50.5196     47.6141     48.4345     48.9366     48.5409     49.4555     49.0681     48.6924
 29      0.0000      0.0739      0.0000      0.0000      0.0000      0.0000      0.0000      0.0000      0.0679
 30      0.0000      0.0527      0.0000      0.0000      0.0000      0.0000      0.0090      0.2896      0.0000
 31      0.0000      0.0117      0.0000      0.0000      0.0000      0.0107      0.0000      0.0000      0.0054
 32      0.0000      0.0594      0.1389      0.1275      0.1845      0.0000      0.1568      0.1802      0.0704
 33      0.0000      0.1058      0.0206      0.0583      0.1253      0.1019      0.0559      0.1261      0.0000
 34      0.0000      0.0082      0.0000      0.0000      0.0000      0.0000      0.0000      0.0000      0.0000
 35      0.0000      0.0084      0.0065      0.0000      0.0000      0.0000      0.0000      0.0000      0.0000
 36      0.0000      0.0073      0.0000      0.0000      0.0000      0.0000      0.0000      0.0000      0.0000
 37      0.0000      0.0075      0.0034      0.0000      0.0000      0.0000      0.0000      0.0000      0.0000
 38      0.0000      0.0041      0.0000      0.0000      0.0000      0.0000      0.0000      0.0000      0.0000
 39      0.0000      0.0212      0.0000      0.0000      0.0000      0.0000      0.0000      0.0000      0.0000
 40      0.0000      0.0643      0.0000      0.0181      0.0000      0.0000      0.0000      0.0000      0.0000
 41      0.0000      0.7210      1.1588      0.6799      0.7006      1.8315      1.0177      1.2864      0.9383
 42      3.0059      0.8862      2.4756      1.0158      1.0289      0.8374      0.3033      1.1876      1.2488
 43      7.2728      1.6672      2.8340      2.8293      2.0522      3.2666      2.2452      1.8926      2.4023
 44      0.4858      0.7274      0.6084      0.7648      1.0716      0.7720      0.8956      0.7732      0.6157
 45      0.3328      0.6682      0.4613      0.8490      0.5922      0.6586      1.1585      0.7645      0.7156

# j      m_j: min, <> & last-chain-values for 1 ...  7 chains
  1  0.0000E+00  1.6617E-04  0.0000E+00  0.0000E+00  0.0000E+00  5.6006E-04  2.4979E-04  0.0000E+00  4.4152E-05
  2  0.0000E+00  3.6379E-04  3.5009E-04  5.4321E-04  6.2223E-04  4.7681E-04  3.0518E-04  4.3713E-04  5.3888E-04
  3  0.0000E+00  1.0307E-04  3.4904E-04  5.7482E-05  9.6517E-06  0.0000E+00  0.0000E+00  0.0000E+00  0.0000E+00
  4  1.0378E-02  7.2759E-03  7.9688E-03  7.2355E-03  6.8152E-03  7.5060E-03  6.8125E-03  7.2880E-03  7.1447E-03
  5  0.0000E+00  3.1832E-04  0.0000E+00  0.0000E+00  0.0000E+00  1.1387E-03  1.0455E-03  0.0000E+00  0.0000E+00
  6  0.0000E+00  2.2628E-04  0.0000E+00  0.0000E+00  4.4504E-04  1.2615E-04  0.0000E+00  2.1773E-05  0.0000E+00
  7  0.0000E+00  1.7551E-04  6.8341E-04  0.0000E+00  0.0000E+00  2.2718E-04  0.0000E+00  0.0000E+00  0.0000E+00
  8  0.0000E+00  1.3020E-04  0.0000E+00  0.0000E+00  0.0000E+00  0.0000E+00  0.0000E+00  0.0000E+00  0.0000E+00
  9  0.0000E+00  6.0958E-04  0.0000E+00  0.0000E+00  0.0000E+00  0.0000E+00  0.0000E+00  1.1817E-03  0.0000E+00
 10  0.0000E+00  1.6036E-03  0.0000E+00  0.0000E+00  0.0000E+00  0.0000E+00  1.2635E-03  0.0000E+00  0.0000E+00
 11  0.0000E+00  5.6911E-03  6.2975E-03  0.0000E+00  0.0000E+00  0.0000E+00  0.0000E+00  0.0000E+00  0.0000E+00
 12  2.7011E+00  3.4094E+00  3.3719E+00  3.4042E+00  3.4471E+00  3.4743E+00  3.4834E+00  3.3303E+00  3.2259E+00
 13  1.0819E+01  6.3403E+00  6.7432E+00  6.5487E+00  6.4705E+00  6.3228E+00  6.6799E+00  6.7507E+00  7.0349E+00
 14  2.1445E+01  2.4559E+01  2.4889E+01  2.4223E+01  2.4700E+01  2.4190E+01  2.3404E+01  2.4576E+01  2.4201E+01
 15  0.0000E+00  5.2219E-01  1.6015E-01  3.9773E-01  5.8228E-01  0.0000E+00  2.5469E-01  0.0000E+00  4.7569E-01
 16  0.0000E+00  3.5583E-05  0.0000E+00  0.0000E+00  0.0000E+00  0.0000E+00  5.4413E-05  0.0000E+00  0.0000E+00
 17  0.0000E+00  6.9732E-05  1.2620E-04  3.4922E-05  3.8807E-05  6.4089E-05  0.0000E+00  0.0000E+00  0.0000E+00
 18  0.0000E+00  3.4958E-04  3.2462E-04  5.1833E-04  4.6030E-04  4.0276E-04  4.0409E-04  4.6490E-04  7.3321E-04
 19  0.0000E+00  1.9987E-04  0.0000E+00  0.0000E+00  2.9268E-05  0.0000E+00  3.7932E-04  3.3980E-04  6.9354E-04
 20  0.0000E+00  1.2548E-04  0.0000E+00  0.0000E+00  0.0000E+00  0.0000E+00  8.2823E-05  0.0000E+00  0.0000E+00
 21  0.0000E+00  1.0587E-04  0.0000E+00  3.2676E-05  0.0000E+00  0.0000E+00  0.0000E+00  0.0000E+00  0.0000E+00
 22  0.0000E+00  9.6754E-05  0.0000E+00  0.0000E+00  0.0000E+00  0.0000E+00  0.0000E+00  0.0000E+00  0.0000E+00
 23  0.0000E+00  9.4146E-05  0.0000E+00  0.0000E+00  0.0000E+00  0.0000E+00  0.0000E+00  0.0000E+00  0.0000E+00
 24  0.0000E+00  5.7285E-04  0.0000E+00  0.0000E+00  0.0000E+00  0.0000E+00  0.0000E+00  0.0000E+00  0.0000E+00
 25  0.0000E+00  3.7462E-03  0.0000E+00  0.0000E+00  0.0000E+00  0.0000E+00  0.0000E+00  0.0000E+00  0.0000E+00
 26  0.0000E+00  1.7731E-02  7.1132E-02  0.0000E+00  1.6462E-03  1.7948E-02  0.0000E+00  0.0000E+00  0.0000E+00
 27  1.3304E+00  4.0521E-01  4.5957E-01  6.9129E-01  5.7528E-01  3.7918E-01  4.1310E-01  4.1436E-01  7.6707E-01
 28  4.4556E+01  5.4225E+01  5.1933E+01  5.1481E+01  5.2289E+01  5.2058E+01  5.2045E+01  5.2491E+01  5.2457E+01
 29  0.0000E+00  1.6800E-01  0.0000E+00  0.0000E+00  0.0000E+00  0.0000E+00  0.0000E+00  0.0000E+00  1.5476E-01
 30  0.0000E+00  1.4292E-01  0.0000E+00  0.0000E+00  0.0000E+00  0.0000E+00  2.3949E-02  7.8233E-01  0.0000E+00
 31  0.0000E+00  2.2991E-05  0.0000E+00  0.0000E+00  0.0000E+00  2.0909E-05  0.0000E+00  0.0000E+00  1.0665E-05
 32  0.0000E+00  6.1430E-05  1.4612E-04  1.3068E-04  1.9013E-04  0.0000E+00  1.5911E-04  1.8590E-04  7.3112E-05
 33  0.0000E+00  1.6248E-04  3.2067E-05  8.8584E-05  1.9156E-04  1.5630E-04  8.4217E-05  1.9290E-04  0.0000E+00
