###################################################################
## OUTPUT of StarlightChains_v04.for    [Cid@UFSC - 01/Apr/2007] ##
###################################################################

## Some input info
NGC6652_a_1.cxt                          [arq_obs]
Base.BC03.N                              [arq_base]
NGC6652_a_1.msk                          [arq_masks]
StCv04.C99.config                        [arq_config]
   45                                    [N_base]
    0                                    [N_YAV_components = # of components with extra extinction!]
    0                                    [i_FitPowerLaw (1/0 = Yes/No)]
-9.99                                    [alpha_PowerLaw]
CCM                                      [red_law_option]
 1.458241                                [q_norm = A(l_norm)/A(V)]

## (Re)Sampling Parameters
 3359.00                                 [l_ini (A)]
 6428.00                                 [l_fin (A)]
    1.00                                 [dl    (A)]     (OBS: dl_cushion =    50.00 A)

## Normalization info
 4020.00                                 [l_norm (A) - for base]
 4010.00                                 [llow_norm (A) - window for f_obs]
 4060.00                                 [lupp_norm (A) - window for f_obs]
1.310531E-14                             [fobs_norm (in input units)]

## S/N
 4730.00                                 [llow_SN (A) - window for S/N]
 4780.00                                 [lupp_SN (A) - window for S/N]
  53.684                                 [S/N in S/N window]
  42.801                                 [S/N in norm. window]
  62.234                                 [S/N_err in S/N window]
  49.617                                 [S/N_err in norm. window]
  1.0000                                 [fscale_chi2]

## etc...
  2147483592                             [idum_orig]
  3067                                   [NOl_eff]
  2079                                   [Nl_eff]
   988    NSIGMA                         [Ntot_cliped & clip_method]
  1790320                                [Nglobal_steps]
   7                                     [N_chains]
  11                                     [NEX0s_base = N_base in EX0s-fits]
 0   0   1      386   2.0   9.034E+02    [Clip-Bug, RC-Crash & Burn-In warning-flags, n_censored_weights, wei_nsig_threshold & wei_limit]
    21     21.054     21.050      0.004  [idt_all, wdt_TotTime, wdt_UsrTime & wdt_SysTime (sec)]

## Synthesis Results - Best model ##

 2.47701E+00                             [chi2/Nl_eff]
     2.07924                             [adev (%)]

   102.40649                             [sum-of-x (%)]
 1.58236E-14                             [Flux_tot (units of input spectrum!)]
 3.69474E-10                             [Mini_tot (???)]
 1.93367E-10                             [Mcor_tot (???)]

 -11.63                                  [v0_min  (km/s)]
  78.66                                  [vd_min  (km/s)]
 0.1226                                  [AV_min  (mag)]
 0.0000                                  [YAV_min (mag)]

# j     x_j(%)      Mini_j(%)     Mcor_j(%)     age_j(yr)     Z_j      (L/M)_j    YAV?  Mstars   component_j        a/Fe...       SSP_chi2r SSP_adev(%)   SSP_AV   SSP_x(%)
  1      0.0000     0.0000E+00    0.0000E+00    1.000000E+06  0.00400  1.114E-02    0   1.0000   age020_m42            0.0000     2.4643E+02    14.4005   4.0000    71.1999
  2      3.8027     3.9046E-03    7.4599E-03    3.160000E+06  0.00400  4.073E-02    0   0.9999   age045_m42            0.0000     1.2730E+02     7.7180   3.2059    86.3508
  3      0.0000     0.0000E+00    0.0000E+00    5.010000E+06  0.00400  2.534E-02    0   0.9488   age055_m42            0.0000     1.3417E+02    10.2533   3.6777    78.6454
  4      0.3240     1.0661E-03    1.8053E-03    1.000000E+07  0.00400  1.271E-02    0   0.8862   age070_m42            0.0000     1.3519E+02    10.7573   2.9024    81.7405
  5      0.0000     0.0000E+00    0.0000E+00    2.512000E+07  0.00400  5.070E-03    0   0.8174   age090_m42            0.0000     1.3343E+02    10.2790   2.7635    83.5249
  6      0.0000     0.0000E+00    0.0000E+00    4.000000E+07  0.00400  3.505E-03    0   0.7851   age104_m42            0.0000     1.3442E+02     8.6628   2.4095    87.6047
  7      3.0843     5.6874E-02    7.8319E-02    1.015200E+08  0.00400  2.268E-03    0   0.7207   age116_m42            0.0000     5.8409E+02     6.3314   2.2254   101.6099
  8      0.0000     0.0000E+00    0.0000E+00    2.861200E+08  0.00400  1.079E-03    0   0.6613   age125_m42            0.0000     5.8466E+02     6.4215   1.6992   105.0427
  9      0.0000     0.0000E+00    0.0000E+00    6.405400E+08  0.00400  5.077E-04    0   0.6197   age132_m42            0.0000     5.8870E+02     6.8893   1.3141   109.9959
 10      2.1306     2.5206E-01    2.9013E-01    9.047900E+08  0.00400  3.535E-04    0   0.6024   age135_m42            0.0000     3.8297E+02     5.9339   1.0871   109.2666
 11      0.0000     0.0000E+00    0.0000E+00    1.434000E+09  0.00400  1.910E-04    0   0.5716   age139_m42            0.0000     1.5617E+02     4.0551   0.5595   109.0694
 12     32.8766     1.4004E+01    1.4618E+01    2.500000E+09  0.00400  9.818E-05    0   0.5463   age150_m42            0.0000     1.8426E+01     2.3387   0.3252   103.8458
 13     11.2194     9.9450E+00    9.9344E+00    5.000000E+09  0.00400  4.718E-05    0   0.5228   age161_m42            0.0000     3.6449E+00     2.0055   0.1895    99.7780
 14     22.3656     4.2420E+01    4.0364E+01    1.100000E+10  0.00400  2.205E-05    0   0.4980   age185_m42            0.0000     2.8396E+01     2.7134  -0.0813    98.5143
 15      0.0000     0.0000E+00    0.0000E+00    1.300000E+10  0.00400  1.883E-05    0   0.4927   age193_m42            0.0000     3.6612E+01     2.8587  -0.0970    98.3773
 16      0.0000     0.0000E+00    0.0000E+00    1.000000E+06  0.02000  1.989E-02    0   1.0000   age020_m62            0.0000     2.3689E+02    13.7774   4.0000    71.8311
 17      0.0000     0.0000E+00    0.0000E+00    3.160000E+06  0.02000  3.772E-02    0   0.9858   age045_m62            0.0000     1.9094E+02    12.0378   4.0000    73.5719
 18      0.0000     0.0000E+00    0.0000E+00    5.010000E+06  0.02000  3.227E-02    0   0.9342   age055_m62            0.0000     1.4028E+02     9.0716   3.5062    82.0829
 19      0.0000     0.0000E+00    0.0000E+00    1.000000E+07  0.02000  1.011E-02    0   0.8751   age070_m62            0.0000     1.8883E+02    14.4454   3.0074    76.2554
 20      0.0000     0.0000E+00    0.0000E+00    2.512000E+07  0.02000  4.206E-03    0   0.8099   age090_m62            0.0000     1.6829E+02    12.4465   2.9032    78.3595
 21      0.0000     0.0000E+00    0.0000E+00    4.000000E+07  0.02000  3.373E-03    0   0.7799   age104_m62            0.0000     1.9536E+02     8.3819   2.6105    89.2365
 22      0.0000     0.0000E+00    0.0000E+00    1.015200E+08  0.02000  1.878E-03    0   0.7221   age116_m62            0.0000     5.4271E+02     6.6999   2.2971   100.4069
 23      0.0000     0.0000E+00    0.0000E+00    2.861200E+08  0.02000  8.869E-04    0   0.6700   age125_m62            0.0000     9.1273E+02     7.6909   1.6718   110.9697
 24      0.0000     0.0000E+00    0.0000E+00    6.405400E+08  0.02000  3.657E-04    0   0.6322   age132_m62            0.0000     5.0673E+02     7.0652   0.9126   118.6973
 25      0.0000     0.0000E+00    0.0000E+00    9.047900E+08  0.02000  2.312E-04    0   0.6152   age135_m62            0.0000     2.4004E+02     5.6764   0.5626   117.7471
 26      0.0000     0.0000E+00    0.0000E+00    1.434000E+09  0.02000  1.168E-04    0   0.5865   age139_m62            0.0000     3.2777E+01     3.1496   0.2257   109.7219
 27      0.0000     0.0000E+00    0.0000E+00    2.500000E+09  0.02000  5.505E-05    0   0.5610   age150_m62            0.0000     8.7508E+00     2.8963  -0.1320   106.9292
 28     13.9113     2.2411E+01    2.2922E+01    5.000000E+09  0.02000  2.596E-05    0   0.5353   age161_m62            0.0000     6.5565E+01     4.1668  -0.4884   108.3767
 29      0.0060     2.1620E-02    2.1081E-02    1.100000E+10  0.02000  1.169E-05    0   0.5103   age185_m62            0.0000     1.6124E+02     5.7880  -0.8885   111.6514
 30      0.0000     0.0000E+00    0.0000E+00    1.300000E+10  0.02000  9.691E-06    0   0.5047   age193_m62            0.0000     1.8389E+02     6.0444  -0.9392   112.1450
 31      0.0000     0.0000E+00    0.0000E+00    1.000000E+06  0.05000  2.651E-02    0   0.9998   age020_m72            0.0000     2.2473E+02    13.4016   4.0000    72.7799
 32      0.0000     0.0000E+00    0.0000E+00    3.160000E+06  0.05000  4.817E-02    0   0.9577   age045_m72            0.0000     1.5180E+02    10.6664   3.9306    76.8640
 33      0.0000     0.0000E+00    0.0000E+00    5.010000E+06  0.05000  3.101E-02    0   0.9147   age055_m72            0.0000     1.4367E+02    10.6700   3.5765    79.1671
 34      0.0000     0.0000E+00    0.0000E+00    1.000000E+07  0.05000  8.954E-03    0   0.8524   age070_m72            0.0000     1.4481E+02    10.4231   3.8219    77.9722
 35      0.0000     0.0000E+00    0.0000E+00    2.512000E+07  0.05000  4.207E-03    0   0.7902   age090_m72            0.0000     1.4045E+02     8.3005   3.3290    84.7192
 36      0.0000     0.0000E+00    0.0000E+00    4.000000E+07  0.05000  3.198E-03    0   0.7618   age104_m72            0.0000     3.5300E+02     6.1859   2.7036    95.5039
 37      0.0000     0.0000E+00    0.0000E+00    1.015200E+08  0.05000  1.716E-03    0   0.7092   age116_m72            0.0000     6.1539E+02     6.6297   2.3643   101.2144
 38      0.0000     0.0000E+00    0.0000E+00    2.861200E+08  0.05000  7.047E-04    0   0.6618   age125_m72            0.0000     8.4342E+02     7.4170   1.4256   113.2914
 39      0.0000     0.0000E+00    0.0000E+00    6.405400E+08  0.05000  2.633E-04    0   0.6253   age132_m72            0.0000     3.2497E+02     6.5930   0.5188   119.5695
 40      0.0000     0.0000E+00    0.0000E+00    9.047900E+08  0.05000  1.484E-04    0   0.6088   age135_m72            0.0000     5.5394E+01     4.6098   0.0856   113.6370
 41      5.5839     2.9835E+00    3.3332E+00    1.434000E+09  0.05000  7.827E-05    0   0.5847   age139_m72            0.0000     1.9216E+01     4.0892  -0.2723   109.6203
 42      7.1021     7.9014E+00    8.4290E+00    2.500000E+09  0.05000  3.759E-05    0   0.5583   age150_m72            0.0000     7.4687E+01     4.7063  -0.5874   108.9375
 43      0.0000     0.0000E+00    0.0000E+00    5.000000E+09  0.05000  1.548E-05    0   0.5320   age161_m72            0.0000     1.4994E+02     6.2835  -1.0000   109.9931
 44      0.0000     0.0000E+00    0.0000E+00    1.100000E+10  0.05000  6.532E-06    0   0.5070   age185_m72            0.0000     3.4603E+02    15.8879  -1.0000   108.1538
 45      0.0000     0.0000E+00    0.0000E+00    1.300000E+10  0.05000  5.316E-06    0   0.5018   age193_m72            0.0000     4.7013E+02    19.5404  -1.0000   107.3297


## Synthesis Results - Average & Chains ##

# j      x_j: min, <> & last-chain-values for 1 ...  7 chains
  1      0.0000      0.0026      0.0000      0.0000      0.0000      0.0000      0.0000      0.0000      0.0000
  2      3.8027      1.1073      1.3319      1.3597      1.4686      1.4682      1.6207      1.1937      1.4501
  3      0.0000      0.0160      0.0000      0.0000      0.0000      0.0000      0.0000      0.0329      0.0000
  4      0.3240      1.2023      1.5575      1.3044      1.3319      1.3216      1.0760      1.4251      1.2160
  5      0.0000      0.2926      0.2410      0.2719      0.0000      0.1647      0.2402      0.1529      0.2289
  6      0.0000      0.0149      0.0000      0.0000      0.0000      0.0000      0.0000      0.0000      0.0000
  7      3.0843      4.0708      3.9595      4.1233      4.2601      3.9363      4.0330      3.8779      4.1877
  8      0.0000      0.0237      0.0000      0.0000      0.0748      0.0000      0.0000      0.0000      0.0000
  9      0.0000      0.0675      0.0000      0.1024      0.0411      0.0000      0.1014      0.0780      0.0000
 10      2.1306      0.2799      0.7720      0.3051      0.1126      0.6324      0.5013      0.4849      0.6385
 11      0.0000      0.1177      0.0000      0.0000      0.0000      0.1020      0.1265      0.0000      0.0000
 12     32.8766     33.3407     32.8681     33.6300     33.0850     33.2351     32.8720     34.0035     32.8743
 13     11.2194     10.0511      9.7843     10.0656     10.6531      9.9549     10.2571     10.1577      9.9550
 14     22.3656     25.6701     25.2117     25.6572     25.4233     25.1244     26.5834     25.2414     25.8988
 15      0.0000      0.2774      0.4596      0.0000      0.2313      0.3651      0.0000      0.0000      0.1479
 16      0.0000      0.0025      0.0000      0.0000      0.0000      0.0000      0.0000      0.0000      0.0000
 17      0.0000      0.0033      0.0000      0.0000      0.0000      0.0000      0.0000      0.0000      0.0000
 18      0.0000      0.2647      0.2160      0.2112      0.2410      0.3875      0.0593      0.2737      0.2205
 19      0.0000      0.0094      0.0000      0.0000      0.0000      0.0000      0.0000      0.0000      0.0000
 20      0.0000      0.0027      0.0000      0.0000      0.0000      0.0000      0.0000      0.0000      0.0000
 21      0.0000      0.0075      0.0000      0.0000      0.0000      0.0000      0.0000      0.0000      0.0000
 22      0.0000      0.0150      0.0000      0.0000      0.0298      0.0000      0.0000      0.0000      0.0000
 23      0.0000      0.0069      0.0000      0.0000      0.0000      0.0000      0.0000      0.0000      0.0000
 24      0.0000      0.0086      0.0000      0.0000      0.0000      0.0000      0.0000      0.0000      0.0000
 25      0.0000      0.0252      0.0000      0.0000      0.0000      0.0000      0.0037      0.0000      0.0000
 26      0.0000      0.0676      0.0364      0.0000      0.0000      0.0000      0.0000      0.0000      0.0000
 27      0.0000      0.4826      0.5512      0.0000      0.0000      0.2713      0.8000      0.5278      0.3364
 28     13.9113     11.2284     10.7048     10.4059     11.6809     11.6071     11.8412     11.9524     11.4799
 29      0.0060      0.4415      0.2291      0.2296      0.3111      0.6736      0.3474      0.4135      0.3448
 30      0.0000      0.4310      0.6923      0.4394      0.4740      0.3156      0.3865      0.2218      0.2643
 31      0.0000      0.0044      0.0000      0.0000      0.0000      0.0000      0.0000      0.0000      0.0000
 32      0.0000      0.0115      0.0000      0.0000      0.0000      0.0099      0.0560      0.0000      0.0000
 33      0.0000      0.0282      0.0000      0.0000      0.0000      0.0000      0.0000      0.0000      0.0000
 34      0.0000      0.0055      0.0000      0.0000      0.0000      0.0000      0.0000      0.0012      0.0077
 35      0.0000      0.0061      0.0000      0.0000      0.0000      0.0000      0.0000      0.0000      0.0000
 36      0.0000      0.0117      0.0000      0.0000      0.0000      0.0000      0.0000      0.0000      0.0000
 37      0.0000      0.0170      0.0000      0.0000      0.0000      0.0037      0.0000      0.0045      0.0000
 38      0.0000      0.0087      0.0401      0.0000      0.0122      0.0000      0.0000      0.0000      0.0000
 39      0.0000      0.0136      0.0000      0.0000      0.0000      0.0000      0.0000      0.0000      0.0000
 40      0.0000      0.0457      0.0159      0.0000      0.0000      0.0000      0.0000      0.0765      0.0000
 41      5.5839     10.6822     10.4310     11.0088     10.7264     10.3607      9.7331      9.9897     10.3985
 42      7.1021      1.7589      3.2508      3.0586      2.1802      2.2689      1.6675      1.9918      2.4404
 43      0.0000      0.2472      0.0000      0.2187      0.0007      0.1233      0.0000      0.2952      0.2798
 44      0.0000      0.0181      0.0000      0.0000      0.0000      0.0000      0.0000      0.0000      0.0000
 45      0.0000      0.0085      0.0000      0.0000      0.0144      0.0000      0.0000      0.0000      0.0000

# j      m_j: min, <> & last-chain-values for 1 ...  7 chains
  1  0.0000E+00  1.7887E-05  0.0000E+00  0.0000E+00  0.0000E+00  0.0000E+00  0.0000E+00  0.0000E+00  0.0000E+00
  2  7.4599E-03  2.1208E-03  2.5657E-03  2.6430E-03  2.8229E-03  2.8196E-03  3.0967E-03  2.3070E-03  2.7875E-03
  3  0.0000E+00  4.6694E-05  0.0000E+00  0.0000E+00  0.0000E+00  0.0000E+00  0.0000E+00  9.6946E-05  0.0000E+00
  4  1.8053E-03  6.5404E-03  8.5215E-03  7.2013E-03  7.2709E-03  7.2085E-03  5.8389E-03  7.8223E-03  6.6391E-03
  5  0.0000E+00  3.6807E-03  3.0488E-03  3.4714E-03  0.0000E+00  2.0777E-03  3.0138E-03  1.9406E-03  2.8891E-03
  6  0.0000E+00  2.6075E-04  0.0000E+00  0.0000E+00  0.0000E+00  0.0000E+00  0.0000E+00  0.0000E+00  0.0000E+00
  7  7.8319E-02  1.0092E-01  9.8730E-02  1.0375E-01  1.0599E-01  9.7851E-02  9.9744E-02  9.7010E-02  1.0420E-01
  8  0.0000E+00  1.1350E-03  0.0000E+00  0.0000E+00  3.5887E-03  0.0000E+00  0.0000E+00  0.0000E+00  0.0000E+00
  9  0.0000E+00  6.4303E-03  0.0000E+00  9.8989E-03  3.9264E-03  0.0000E+00  9.6329E-03  7.4989E-03  0.0000E+00
 10  2.9013E-01  3.7216E-02  1.0324E-01  4.1167E-02  1.5030E-02  8.4301E-02  6.6484E-02  6.5049E-02  8.5194E-02
 11  0.0000E+00  2.7477E-02  0.0000E+00  0.0000E+00  0.0000E+00  2.3872E-02  2.9465E-02  0.0000E+00  0.0000E+00
 12  1.4618E+01  1.4473E+01  1.4351E+01  1.4817E+01  1.4414E+01  1.4467E+01  1.4236E+01  1.4895E+01  1.4323E+01
 13  9.9344E+00  8.6892E+00  8.5076E+00  8.8316E+00  9.2426E+00  8.6293E+00  8.8460E+00  8.8609E+00  8.6375E+00
 14  4.0364E+01  4.5231E+01  4.4680E+01  4.5883E+01  4.4957E+01  4.4389E+01  4.6728E+01  4.4879E+01  4.5801E+01
 15  0.0000E+00  5.6619E-01  9.4368E-01  0.0000E+00  4.7388E-01  7.4735E-01  0.0000E+00  0.0000E+00  3.0307E-01
 16  0.0000E+00  9.7913E-06  0.0000E+00  0.0000E+00  0.0000E+00  0.0000E+00  0.0000E+00  0.0000E+00  0.0000E+00
 17  0.0000E+00  6.7518E-06  0.0000E+00  0.0000E+00  0.0000E+00  0.0000E+00  0.0000E+00  0.0000E+00  0.0000E+00
 18  0.0000E+00  5.9795E-04  4.9066E-04  4.8405E-04  5.4621E-04  8.7756E-04  1.3360E-04  6.2388E-04  4.9991E-04
 19  0.0000E+00  6.3573E-05  0.0000E+00  0.0000E+00  0.0000E+00  0.0000E+00  0.0000E+00  0.0000E+00  0.0000E+00
 20  0.0000E+00  4.1264E-05  0.0000E+00  0.0000E+00  0.0000E+00  0.0000E+00  0.0000E+00  0.0000E+00  0.0000E+00
 21  0.0000E+00  1.3597E-04  0.0000E+00  0.0000E+00  0.0000E+00  0.0000E+00  0.0000E+00  0.0000E+00  0.0000E+00
 22  0.0000E+00  4.4962E-04  0.0000E+00  0.0000E+00  8.9690E-04  0.0000E+00  0.0000E+00  0.0000E+00  0.0000E+00
 23  0.0000E+00  4.0523E-04  0.0000E+00  0.0000E+00  0.0000E+00  0.0000E+00  0.0000E+00  0.0000E+00  0.0000E+00
 24  0.0000E+00  1.1639E-03  0.0000E+00  0.0000E+00  0.0000E+00  0.0000E+00  0.0000E+00  0.0000E+00  0.0000E+00
 25  0.0000E+00  5.2218E-03  0.0000E+00  0.0000E+00  0.0000E+00  0.0000E+00  7.7513E-04  0.0000E+00  0.0000E+00
 26  0.0000E+00  2.6479E-02  1.4355E-02  0.0000E+00  0.0000E+00  0.0000E+00  0.0000E+00  0.0000E+00  0.0000E+00
 27  0.0000E+00  3.8367E-01  4.4077E-01  0.0000E+00  0.0000E+00  2.1626E-01  6.3452E-01  4.2345E-01  2.6839E-01
 28  2.2922E+01  1.8063E+01  1.7321E+01  1.6990E+01  1.8859E+01  1.8723E+01  1.9004E+01  1.9402E+01  1.8535E+01
 29  2.1081E-02  1.5036E+00  7.8475E-01  7.9375E-01  1.0632E+00  2.3001E+00  1.1804E+00  1.4208E+00  1.1787E+00
 30  0.0000E+00  1.7513E+00  2.8291E+00  1.8118E+00  1.9330E+00  1.2859E+00  1.5666E+00  9.0937E-01  1.0778E+00
 31  0.0000E+00  1.2868E-05  0.0000E+00  0.0000E+00  0.0000E+00  0.0000E+00  0.0000E+00  0.0000E+00  0.0000E+00
 32  0.0000E+00  1.7866E-05  0.0000E+00  0.0000E+00  0.0000E+00  1.5387E-05  8.6714E-05  0.0000E+00  0.0000E+00
 33  0.0000E+00  6.4958E-05  0.0000E+00  0.0000E+00  0.0000E+00  0.0000E+00  0.0000E+00  0.0000E+00  0.0000E+00
