###################################################################
## OUTPUT of StarlightChains_v04.for    [Cid@UFSC - 01/Apr/2007] ##
###################################################################

## Some input info
NGC6235_a_1.cxt                          [arq_obs]
Base.BC03.N                              [arq_base]
NGC6235_a_1.msk                          [arq_masks]
StCv04.C99.config                        [arq_config]
   45                                    [N_base]
    0                                    [N_YAV_components = # of components with extra extinction!]
    0                                    [i_FitPowerLaw (1/0 = Yes/No)]
-9.99                                    [alpha_PowerLaw]
CCM                                      [red_law_option]
 1.458241                                [q_norm = A(l_norm)/A(V)]

## (Re)Sampling Parameters
 3359.00                                 [l_ini (A)]
 6428.00                                 [l_fin (A)]
    1.00                                 [dl    (A)]     (OBS: dl_cushion =    50.00 A)

## Normalization info
 4020.00                                 [l_norm (A) - for base]
 4010.00                                 [llow_norm (A) - window for f_obs]
 4060.00                                 [lupp_norm (A) - window for f_obs]
2.685576E-15                             [fobs_norm (in input units)]

## S/N
 4730.00                                 [llow_SN (A) - window for S/N]
 4780.00                                 [lupp_SN (A) - window for S/N]
  64.240                                 [S/N in S/N window]
  49.525                                 [S/N in norm. window]
 131.570                                 [S/N_err in S/N window]
 101.432                                 [S/N_err in norm. window]
  1.0000                                 [fscale_chi2]

## etc...
  2147483624                             [idum_orig]
  3066                                   [NOl_eff]
  1516                                   [Nl_eff]
  1550    NSIGMA                         [Ntot_cliped & clip_method]
  1740760                                [Nglobal_steps]
   7                                     [N_chains]
  11                                     [NEX0s_base = N_base in EX0s-fits]
 0   0   1      144   2.0   2.368E+02    [Clip-Bug, RC-Crash & Burn-In warning-flags, n_censored_weights, wei_nsig_threshold & wei_limit]
    23     23.379     23.371      0.008  [idt_all, wdt_TotTime, wdt_UsrTime & wdt_SysTime (sec)]

## Synthesis Results - Best model ##

 2.42571E+00                             [chi2/Nl_eff]
     1.56647                             [adev (%)]

    99.50816                             [sum-of-x (%)]
 1.64127E-14                             [Flux_tot (units of input spectrum!)]
 1.67020E-10                             [Mini_tot (???)]
 8.89249E-11                             [Mcor_tot (???)]

 -10.21                                  [v0_min  (km/s)]
 128.77                                  [vd_min  (km/s)]
 1.3514                                  [AV_min  (mag)]
 0.0000                                  [YAV_min (mag)]

# j     x_j(%)      Mini_j(%)     Mcor_j(%)     age_j(yr)     Z_j      (L/M)_j    YAV?  Mstars   component_j        a/Fe...       SSP_chi2r SSP_adev(%)   SSP_AV   SSP_x(%)
  1      0.0000     0.0000E+00    0.0000E+00    1.000000E+06  0.00400  1.114E-02    0   1.0000   age020_m42            0.0000     2.5027E+02    12.3065   4.0000    89.1581
  2      5.3456     1.2961E-02    2.4341E-02    3.160000E+06  0.00400  4.073E-02    0   0.9999   age045_m42            0.0000     4.6043E+01     5.6000   3.4870    91.1782
  3      0.0000     0.0000E+00    0.0000E+00    5.010000E+06  0.00400  2.534E-02    0   0.9488   age055_m42            0.0000     9.0842E+01     7.8263   3.8301    86.7327
  4     10.7624     8.3621E-02    1.3918E-01    1.000000E+07  0.00400  1.271E-02    0   0.8862   age070_m42            0.0000     8.1946E+01     7.5842   3.0481    90.9651
  5      0.0000     0.0000E+00    0.0000E+00    2.512000E+07  0.00400  5.070E-03    0   0.8174   age090_m42            0.0000     6.9350E+01     7.0810   2.9275    92.3145
  6      0.0000     0.0000E+00    0.0000E+00    4.000000E+07  0.00400  3.505E-03    0   0.7851   age104_m42            0.0000     4.1877E+01     5.6074   2.6475    94.1955
  7      4.9347     2.1487E-01    2.9085E-01    1.015200E+08  0.00400  2.268E-03    0   0.7207   age116_m42            0.0000     4.9217E+01     4.1668   2.7872    98.6628
  8      0.0000     0.0000E+00    0.0000E+00    2.861200E+08  0.00400  1.079E-03    0   0.6613   age125_m42            0.0000     5.5285E+01     4.4784   2.3126    99.9260
  9     10.0252     1.9500E+00    2.2697E+00    6.405400E+08  0.00400  5.077E-04    0   0.6197   age132_m42            0.0000     6.0675E+01     4.9148   1.9535   103.8148
 10     18.7816     5.2468E+00    5.9364E+00    9.047900E+08  0.00400  3.535E-04    0   0.6024   age135_m42            0.0000     3.7048E+01     3.9272   1.7020   103.5185
 11      0.0000     0.0000E+00    0.0000E+00    1.434000E+09  0.00400  1.910E-04    0   0.5716   age139_m42            0.0000     1.9317E+01     3.0960   1.1761   102.3244
 12     23.7216     2.3860E+01    2.4482E+01    2.500000E+09  0.00400  9.818E-05    0   0.5463   age150_m42            0.0000     1.8125E+01     3.0357   0.8723    98.7653
 13     23.5579     4.9310E+01    4.8419E+01    5.000000E+09  0.00400  4.718E-05    0   0.5228   age161_m42            0.0000     2.7254E+01     3.5100   0.6800    96.3719
 14      0.0000     0.0000E+00    0.0000E+00    1.100000E+10  0.00400  2.205E-05    0   0.4980   age185_m42            0.0000     6.0599E+01     4.8718   0.4208    94.2537
 15      0.0000     0.0000E+00    0.0000E+00    1.300000E+10  0.00400  1.883E-05    0   0.4927   age193_m42            0.0000     6.5520E+01     5.0601   0.4019    94.1555
 16      0.0000     0.0000E+00    0.0000E+00    1.000000E+06  0.02000  1.989E-02    0   1.0000   age020_m62            0.0000     2.2642E+02    11.6592   4.0000    89.0525
 17      0.0000     0.0000E+00    0.0000E+00    3.160000E+06  0.02000  3.772E-02    0   0.9858   age045_m62            0.0000     1.6775E+02    10.2244   4.0000    87.7546
 18      0.8536     2.6122E-03    4.5834E-03    5.010000E+06  0.02000  3.227E-02    0   0.9342   age055_m62            0.0000     6.8015E+01     6.8209   3.7140    88.9956
 19      0.0766     7.4865E-04    1.2305E-03    1.000000E+07  0.02000  1.011E-02    0   0.8751   age070_m62            0.0000     1.9087E+02    11.4757   3.0002    89.5554
 20      0.0000     0.0000E+00    0.0000E+00    2.512000E+07  0.02000  4.206E-03    0   0.8099   age090_m62            0.0000     1.3617E+02     9.7413   2.9690    89.3038
 21      0.0000     0.0000E+00    0.0000E+00    4.000000E+07  0.02000  3.373E-03    0   0.7799   age104_m62            0.0000     4.1295E+01     5.3245   2.8772    95.0795
 22      0.0000     0.0000E+00    0.0000E+00    1.015200E+08  0.02000  1.878E-03    0   0.7221   age116_m62            0.0000     4.3440E+01     3.8659   2.7945    99.7515
 23      0.0000     0.0000E+00    0.0000E+00    2.861200E+08  0.02000  8.869E-04    0   0.6700   age125_m62            0.0000     9.7539E+01     5.9044   2.3519   103.9427
 24      0.0000     0.0000E+00    0.0000E+00    6.405400E+08  0.02000  3.657E-04    0   0.6322   age132_m62            0.0000     7.3087E+01     5.5811   1.6983   106.1917
 25      0.0000     0.0000E+00    0.0000E+00    9.047900E+08  0.02000  2.312E-04    0   0.6152   age135_m62            0.0000     4.7312E+01     4.7348   1.3118   105.7275
 26      0.0000     0.0000E+00    0.0000E+00    1.434000E+09  0.02000  1.168E-04    0   0.5865   age139_m62            0.0000     3.1388E+01     3.9557   0.8531   101.5199
 27      0.0000     0.0000E+00    0.0000E+00    2.500000E+09  0.02000  5.505E-05    0   0.5610   age150_m62            0.0000     5.7155E+01     5.0468   0.4705    99.1627
 28      0.0000     0.0000E+00    0.0000E+00    5.000000E+09  0.02000  2.596E-05    0   0.5353   age161_m62            0.0000     1.1600E+02     6.7746   0.1563    98.6053
 29      0.0000     0.0000E+00    0.0000E+00    1.100000E+10  0.02000  1.169E-05    0   0.5103   age185_m62            0.0000     1.8933E+02     8.4349  -0.1818    99.0639
 30      0.0000     0.0000E+00    0.0000E+00    1.300000E+10  0.02000  9.691E-06    0   0.5047   age193_m62            0.0000     2.0350E+02     8.7077  -0.2239    99.1352
 31      0.0000     0.0000E+00    0.0000E+00    1.000000E+06  0.05000  2.651E-02    0   0.9998   age020_m72            0.0000     2.2279E+02    11.5880   4.0000    90.0448
 32      0.0000     0.0000E+00    0.0000E+00    3.160000E+06  0.05000  4.817E-02    0   0.9577   age045_m72            0.0000     1.1722E+02     8.7921   4.0000    87.1025
 33      0.0000     0.0000E+00    0.0000E+00    5.010000E+06  0.05000  3.101E-02    0   0.9147   age055_m72            0.0000     1.0483E+02     8.3020   3.6890    88.4472
 34      0.0000     0.0000E+00    0.0000E+00    1.000000E+07  0.05000  8.954E-03    0   0.8524   age070_m72            0.0000     1.0741E+02     8.3579   3.9224    87.0731
 35      0.0000     0.0000E+00    0.0000E+00    2.512000E+07  0.05000  4.207E-03    0   0.7902   age090_m72            0.0000     5.5444E+01     6.1686   3.5432    91.2069
 36      0.0000     0.0000E+00    0.0000E+00    4.000000E+07  0.05000  3.198E-03    0   0.7618   age104_m72            0.0000     3.2895E+01     3.6624   3.1332    96.4789
 37      0.0000     0.0000E+00    0.0000E+00    1.015200E+08  0.05000  1.716E-03    0   0.7092   age116_m72            0.0000     5.4719E+01     4.3267   2.8900    99.5224
 38      0.0000     0.0000E+00    0.0000E+00    2.861200E+08  0.05000  7.047E-04    0   0.6618   age125_m72            0.0000     9.5090E+01     6.0094   2.1619   103.8609
 39      0.0000     0.0000E+00    0.0000E+00    6.405400E+08  0.05000  2.633E-04    0   0.6253   age132_m72            0.0000     6.2559E+01     5.3727   1.3291   105.3601
 40      0.0000     0.0000E+00    0.0000E+00    9.047900E+08  0.05000  1.484E-04    0   0.6088   age135_m72            0.0000     5.1574E+01     4.9944   0.8209   101.3476
 41      0.0000     0.0000E+00    0.0000E+00    1.434000E+09  0.05000  7.827E-05    0   0.5847   age139_m72            0.0000     8.3553E+01     5.9941   0.4159    98.5250
 42      0.0000     0.0000E+00    0.0000E+00    2.500000E+09  0.05000  3.759E-05    0   0.5583   age150_m72            0.0000     1.2855E+02     7.1338   0.0861    98.0328
 43      0.6229     3.9736E+00    3.9704E+00    5.000000E+09  0.05000  1.548E-05    0   0.5320   age161_m72            0.0000     2.0052E+02     8.5769  -0.3134    97.1954
 44      0.0000     0.0000E+00    0.0000E+00    1.100000E+10  0.05000  6.532E-06    0   0.5070   age185_m72            0.0000     2.9492E+02    10.4396  -0.6347    95.2064
 45      0.8260     1.5345E+01    1.4462E+01    1.300000E+10  0.05000  5.316E-06    0   0.5018   age193_m72            0.0000     3.3382E+02    11.1919  -0.7276    94.4987


## Synthesis Results - Average & Chains ##

# j      x_j: min, <> & last-chain-values for 1 ...  7 chains
  1      0.0000      0.0209      0.0000      0.0000      0.0000      0.0000      0.0000      0.0000      0.0000
  2      5.3456      4.3521      4.3974      4.4221      4.5935      4.2631      4.2320      4.4666      4.3860
  3      0.0000      0.0750      0.0000      0.1039      0.0972      0.0735      0.0489      0.0000      0.4095
  4     10.7624      9.8323     10.5891      9.5697      9.9880     10.0474      9.9017     10.0305      9.8016
  5      0.0000      0.1918      0.2385      0.3890      0.1935      0.1343      0.2083      0.0938      0.0995
  6      0.0000      0.0581      0.0000      0.0000      0.1082      0.0571      0.0844      0.4094      0.0327
  7      4.9347      5.7342      5.8827      5.5815      5.4086      5.5803      5.7986      5.9042      5.6484
  8      0.0000      0.0506      0.2663      0.1188      0.0000      0.0000      0.0000      0.0000      0.0000
  9     10.0252      9.2899      9.2800      9.3582      9.0825      9.8085      9.4805      9.3143      9.5162
 10     18.7816     17.1880     17.3104     17.5735     17.8223     17.7660     17.3500     17.6279     17.7971
 11      0.0000      0.2486      0.0000      0.0000      0.1602      0.0420      0.1901      0.1086      0.3103
 12     23.7216     24.6324     24.7891     24.5784     24.7066     24.1878     24.5808     24.4724     24.3257
 13     23.5579     24.2921     24.3679     24.2697     24.0386     24.2224     24.3685     23.9815     24.4683
 14      0.0000      0.0513      0.0000      0.0000      0.0000      0.0000      0.0000      0.0000      0.0000
 15      0.0000      0.0300      0.0000      0.0000      0.0000      0.0000      0.0000      0.0000      0.0000
 16      0.0000      0.0238      0.0000      0.0000      0.0000      0.0035      0.0000      0.0000      0.0000
 17      0.0000      0.0208      0.0000      0.0283      0.0000      0.0000      0.0000      0.0000      0.0000
 18      0.8536      0.3636      0.2565      0.6503      0.2980      0.3602      0.6741      0.4519      0.3858
 19      0.0766      0.6555      0.6367      0.7357      0.7289      0.6429      0.6353      0.4961      0.7210
 20      0.0000      0.0496      0.0000      0.0000      0.0000      0.0000      0.0000      0.0313      0.0000
 21      0.0000      0.0378      0.0000      0.0000      0.0000      0.0000      0.0145      0.0000      0.0486
 22      0.0000      0.0951      0.0344      0.0492      0.0000      0.0000      0.0000      0.0000      0.0243
 23      0.0000      0.0459      0.0000      0.0000      0.0000      0.1349      0.0000      0.1288      0.0368
 24      0.0000      0.0279      0.0000      0.0000      0.0000      0.0000      0.0000      0.0080      0.0000
 25      0.0000      0.0331      0.0000      0.0000      0.0000      0.0088      0.0000      0.0000      0.0000
 26      0.0000      0.0500      0.0000      0.0000      0.0440      0.0000      0.0000      0.0000      0.0000
 27      0.0000      0.0311      0.0000      0.0785      0.0349      0.0000      0.0000      0.0000      0.0000
 28      0.0000      0.0989      0.0000      0.1016      0.1242      0.1738      0.0266      0.1372      0.0000
 29      0.0000      0.0533      0.0000      0.1208      0.0000      0.1832      0.0437      0.0000      0.0000
 30      0.0000      0.0447      0.0000      0.0000      0.0000      0.0000      0.0000      0.0000      0.0000
 31      0.0000      0.0171      0.0000      0.0000      0.0000      0.0115      0.0602      0.0000      0.0000
 32      0.0000      0.0293      0.0000      0.0053      0.0000      0.2620      0.0000      0.0000      0.0000
 33      0.0000      0.1712      0.0890      0.2212      0.1659      0.1356      0.1484      0.3602      0.0823
 34      0.0000      0.0216      0.0000      0.0000      0.0000      0.0432      0.0000      0.0085      0.0000
 35      0.0000      0.0210      0.0000      0.0000      0.0000      0.0000      0.0000      0.0000      0.0000
 36      0.0000      0.0263      0.0000      0.0000      0.1742      0.0000      0.1580      0.0107      0.0569
 37      0.0000      0.2043      0.0000      0.2525      0.3189      0.0631      0.2102      0.0000      0.0000
 38      0.0000      0.0284      0.0375      0.0000      0.0000      0.0000      0.0000      0.0000      0.1066
 39      0.0000      0.0282      0.0000      0.0000      0.0000      0.0000      0.0000      0.0000      0.0000
 40      0.0000      0.0368      0.0000      0.0000      0.0000      0.0000      0.0000      0.0853      0.0000
 41      0.0000      0.0350      0.0203      0.0302      0.0000      0.1440      0.0000      0.0373      0.0243
 42      0.0000      0.0201      0.0000      0.0000      0.1522      0.0000      0.0000      0.0000      0.0000
 43      0.6229      0.3512      0.3636      0.4106      0.4041      0.3778      0.4384      0.4195      0.3778
 44      0.0000      0.3580      0.4103      0.3766      0.3930      0.3334      0.3524      0.3739      0.3854
 45      0.8260      0.4546      0.4645      0.4557      0.4478      0.4525      0.4542      0.4778      0.4415

# j      m_j: min, <> & last-chain-values for 1 ...  7 chains
  1  0.0000E+00  3.4445E-04  0.0000E+00  0.0000E+00  0.0000E+00  0.0000E+00  0.0000E+00  0.0000E+00  0.0000E+00
  2  2.4341E-02  1.9659E-02  1.9986E-02  1.9930E-02  2.0857E-02  1.9294E-02  1.9269E-02  2.0358E-02  2.0052E-02
  3  0.0000E+00  5.1672E-04  0.0000E+00  7.1391E-04  6.7301E-04  5.0721E-04  3.3992E-04  0.0000E+00  2.8551E-03
  4  1.3918E-01  1.2614E-01  1.3669E-01  1.2250E-01  1.2881E-01  1.2915E-01  1.2805E-01  1.2985E-01  1.2727E-01
  5  0.0000E+00  5.6911E-03  7.1200E-03  1.1514E-02  5.7713E-03  3.9916E-03  6.2288E-03  2.8072E-03  2.9883E-03
  6  0.0000E+00  2.3961E-03  0.0000E+00  0.0000E+00  4.4844E-03  2.3559E-03  3.5075E-03  1.7026E-02  1.3621E-03
  7  2.9085E-01  3.3528E-01  3.4608E-01  3.2561E-01  3.1788E-01  3.2689E-01  3.4176E-01  3.4833E-01  3.3425E-01
  8  0.0000E+00  5.7085E-03  3.0214E-02  1.3371E-02  0.0000E+00  0.0000E+00  0.0000E+00  0.0000E+00  0.0000E+00
  9  2.2697E+00  2.0864E+00  2.0971E+00  2.0970E+00  2.0504E+00  2.2071E+00  2.1463E+00  2.1108E+00  2.1631E+00
 10  5.9364E+00  5.3893E+00  5.4612E+00  5.4978E+00  5.6173E+00  5.5812E+00  5.4837E+00  5.5772E+00  5.6479E+00
 11  0.0000E+00  1.3687E-01  0.0000E+00  0.0000E+00  8.8651E-02  2.3189E-02  1.0550E-01  6.0327E-02  1.7293E-01
 12  2.4482E+01  2.5219E+01  2.5536E+01  2.5107E+01  2.5427E+01  2.4811E+01  2.5368E+01  2.5282E+01  2.5207E+01
 13  4.8419E+01  4.9529E+01  4.9990E+01  4.9371E+01  4.9267E+01  4.9481E+01  5.0083E+01  4.9337E+01  5.0492E+01
 14  0.0000E+00  2.1316E-01  0.0000E+00  0.0000E+00  0.0000E+00  0.0000E+00  0.0000E+00  0.0000E+00  0.0000E+00
 15  0.0000E+00  1.4435E-01  0.0000E+00  0.0000E+00  0.0000E+00  0.0000E+00  0.0000E+00  0.0000E+00  0.0000E+00
 16  0.0000E+00  2.2055E-04  0.0000E+00  0.0000E+00  0.0000E+00  3.2532E-05  0.0000E+00  0.0000E+00  0.0000E+00
 17  0.0000E+00  1.0010E-04  0.0000E+00  1.3565E-04  0.0000E+00  0.0000E+00  0.0000E+00  0.0000E+00  0.0000E+00
 18  4.5834E-03  1.9367E-03  1.3749E-03  3.4560E-03  1.5958E-03  1.9226E-03  3.6195E-03  2.4287E-03  2.0800E-03
 19  1.2305E-03  1.0440E-02  1.0203E-02  1.1690E-02  1.1670E-02  1.0259E-02  1.0198E-02  7.9725E-03  1.1622E-02
 20  0.0000E+00  1.7591E-03  0.0000E+00  0.0000E+00  0.0000E+00  0.0000E+00  0.0000E+00  1.1201E-03  0.0000E+00
 21  0.0000E+00  1.6077E-03  0.0000E+00  0.0000E+00  0.0000E+00  0.0000E+00  6.2096E-04  0.0000E+00  2.0919E-03
 22  0.0000E+00  6.7295E-03  2.4518E-03  3.4720E-03  0.0000E+00  0.0000E+00  0.0000E+00  0.0000E+00  1.7398E-03
 23  0.0000E+00  6.3827E-03  0.0000E+00  0.0000E+00  0.0000E+00  1.8787E-02  0.0000E+00  1.8066E-02  5.1794E-03
 24  0.0000E+00  8.8714E-03  0.0000E+00  0.0000E+00  0.0000E+00  0.0000E+00  0.0000E+00  2.5542E-03  0.0000E+00
 25  0.0000E+00  1.6214E-02  0.0000E+00  0.0000E+00  0.0000E+00  4.3233E-03  0.0000E+00  0.0000E+00  0.0000E+00
 26  0.0000E+00  4.6177E-02  0.0000E+00  0.0000E+00  4.0830E-02  0.0000E+00  0.0000E+00  0.0000E+00  0.0000E+00
 27  0.0000E+00  5.8249E-02  0.0000E+00  1.4687E-01  6.5826E-02  0.0000E+00  0.0000E+00  0.0000E+00  0.0000E+00
 28  0.0000E+00  3.7507E-01  0.0000E+00  3.8451E-01  4.7353E-01  6.6060E-01  1.0176E-01  5.2539E-01  0.0000E+00
 29  0.0000E+00  4.2800E-01  0.0000E+00  9.6829E-01  0.0000E+00  1.4742E+00  3.5412E-01  0.0000E+00  0.0000E+00
 30  0.0000E+00  4.2868E-01  0.0000E+00  0.0000E+00  0.0000E+00  0.0000E+00  0.0000E+00  0.0000E+00  0.0000E+00
 31  0.0000E+00  1.1867E-04  0.0000E+00  0.0000E+00  0.0000E+00  8.0152E-05  4.2124E-04  0.0000E+00  0.0000E+00
 32  0.0000E+00  1.0705E-04  0.0000E+00  1.9362E-05  0.0000E+00  9.6026E-04  0.0000E+00  0.0000E+00  0.0000E+00
 33  0.0000E+00  9.2921E-04  4.8620E-04  1.1981E-03  9.0490E-04  7.3751E-04  8.1188E-04  1.9728E-03  4.5195E-04
