###################################################################
## OUTPUT of StarlightChains_v04.for    [Cid@UFSC - 01/Apr/2007] ##
###################################################################

## Some input info
NGC6362_a_1.cxt                          [arq_obs]
Base.BC03.N                              [arq_base]
NGC6362_a_1.msk                          [arq_masks]
StCv04.C99.config                        [arq_config]
   45                                    [N_base]
    0                                    [N_YAV_components = # of components with extra extinction!]
    0                                    [i_FitPowerLaw (1/0 = Yes/No)]
-9.99                                    [alpha_PowerLaw]
CCM                                      [red_law_option]
 1.458241                                [q_norm = A(l_norm)/A(V)]

## (Re)Sampling Parameters
 3359.00                                 [l_ini (A)]
 6428.00                                 [l_fin (A)]
    1.00                                 [dl    (A)]     (OBS: dl_cushion =    50.00 A)

## Normalization info
 4020.00                                 [l_norm (A) - for base]
 4010.00                                 [llow_norm (A) - window for f_obs]
 4060.00                                 [lupp_norm (A) - window for f_obs]
1.238399E-14                             [fobs_norm (in input units)]

## S/N
 4730.00                                 [llow_SN (A) - window for S/N]
 4780.00                                 [lupp_SN (A) - window for S/N]
  69.165                                 [S/N in S/N window]
  59.492                                 [S/N in norm. window]
  54.471                                 [S/N_err in S/N window]
  46.853                                 [S/N_err in norm. window]
  1.0000                                 [fscale_chi2]

## etc...
  2147483611                             [idum_orig]
  3061                                   [NOl_eff]
  2294                                   [Nl_eff]
   767    NSIGMA                         [Ntot_cliped & clip_method]
  1011360                                [Nglobal_steps]
   7                                     [N_chains]
   5                                     [NEX0s_base = N_base in EX0s-fits]
 0   0   1      376   2.0   8.432E+02    [Clip-Bug, RC-Crash & Burn-In warning-flags, n_censored_weights, wei_nsig_threshold & wei_limit]
    19     18.840     18.836      0.004  [idt_all, wdt_TotTime, wdt_UsrTime & wdt_SysTime (sec)]

## Synthesis Results - Best model ##

 1.46023E+00                             [chi2/Nl_eff]
     1.73410                             [adev (%)]

   103.55611                             [sum-of-x (%)]
 2.03545E-14                             [Flux_tot (units of input spectrum!)]
 2.25823E-10                             [Mini_tot (???)]
 1.20720E-10                             [Mcor_tot (???)]

  -7.61                                  [v0_min  (km/s)]
  83.32                                  [vd_min  (km/s)]
 0.3439                                  [AV_min  (mag)]
 0.0000                                  [YAV_min (mag)]

# j     x_j(%)      Mini_j(%)     Mcor_j(%)     age_j(yr)     Z_j      (L/M)_j    YAV?  Mstars   component_j        a/Fe...       SSP_chi2r SSP_adev(%)   SSP_AV   SSP_x(%)
  1      0.0000     0.0000E+00    0.0000E+00    1.000000E+06  0.00400  1.114E-02    0   1.0000   age020_m42            0.0000     1.5128E+02    11.5008   4.0000    71.6790
  2     11.9939     2.5631E-02    4.7941E-02    3.160000E+06  0.00400  4.073E-02    0   0.9999   age045_m42            0.0000     3.3988E+01     6.0449   2.8832    89.7057
  3      0.0000     0.0000E+00    0.0000E+00    5.010000E+06  0.00400  2.534E-02    0   0.9488   age055_m42            0.0000     6.4351E+01     8.8811   3.3710    80.9835
  4      0.2636     1.8048E-03    2.9920E-03    1.000000E+07  0.00400  1.271E-02    0   0.8862   age070_m42            0.0000     5.1068E+01     9.2071   2.5803    84.7048
  5      0.0000     0.0000E+00    0.0000E+00    2.512000E+07  0.00400  5.070E-03    0   0.8174   age090_m42            0.0000     4.6118E+01     8.6923   2.4369    86.7818
  6      0.0000     0.0000E+00    0.0000E+00    4.000000E+07  0.00400  3.505E-03    0   0.7851   age104_m42            0.0000     3.4867E+01     6.9410   2.0783    91.3203
  7     10.2102     3.9184E-01    5.2826E-01    1.015200E+08  0.00400  2.268E-03    0   0.7207   age116_m42            0.0000     2.6981E+02     6.0615   1.7695   111.0819
  8      0.0000     0.0000E+00    0.0000E+00    2.861200E+08  0.00400  1.079E-03    0   0.6613   age125_m42            0.0000     2.7390E+02     6.9005   1.2337   115.2640
  9      0.0000     0.0000E+00    0.0000E+00    6.405400E+08  0.00400  5.077E-04    0   0.6197   age132_m42            0.0000     2.8732E+02     7.3817   0.8395   121.0788
 10      0.0000     0.0000E+00    0.0000E+00    9.047900E+08  0.00400  3.535E-04    0   0.6024   age135_m42            0.0000     1.6952E+02     5.9900   0.6558   118.3537
 11      0.0000     0.0000E+00    0.0000E+00    1.434000E+09  0.00400  1.910E-04    0   0.5716   age139_m42            0.0000     5.1199E+01     4.9462   0.1678   116.3000
 12     52.1902     4.6268E+01    4.7283E+01    2.500000E+09  0.00400  9.818E-05    0   0.5463   age150_m42            0.0000     6.1153E+00     2.9207  -0.0164   108.3871
 13     28.8983     5.3313E+01    5.2138E+01    5.000000E+09  0.00400  4.718E-05    0   0.5228   age161_m42            0.0000     2.1263E+01     2.4833  -0.1358   103.3588
 14      0.0000     0.0000E+00    0.0000E+00    1.100000E+10  0.00400  2.205E-05    0   0.4980   age185_m42            0.0000     7.0876E+01     3.4673  -0.3939   101.4369
 15      0.0000     0.0000E+00    0.0000E+00    1.300000E+10  0.00400  1.883E-05    0   0.4927   age193_m42            0.0000     8.0504E+01     3.6091  -0.4078   101.2225
 16      0.0000     0.0000E+00    0.0000E+00    1.000000E+06  0.02000  1.989E-02    0   1.0000   age020_m62            0.0000     1.5771E+02    11.5012   3.9593    72.4306
 17      0.0000     0.0000E+00    0.0000E+00    3.160000E+06  0.02000  3.772E-02    0   0.9858   age045_m62            0.0000     1.3013E+02    11.0929   3.8086    74.7599
 18      0.0000     0.0000E+00    0.0000E+00    5.010000E+06  0.02000  3.227E-02    0   0.9342   age055_m62            0.0000     4.1837E+01     7.4080   3.1829    85.2298
 19      0.0000     0.0000E+00    0.0000E+00    1.000000E+07  0.02000  1.011E-02    0   0.8751   age070_m62            0.0000     1.2676E+02    13.4966   2.6940    78.1985
 20      0.0000     0.0000E+00    0.0000E+00    2.512000E+07  0.02000  4.206E-03    0   0.8099   age090_m62            0.0000     1.0099E+02    11.3705   2.5935    80.5213
 21      0.0000     0.0000E+00    0.0000E+00    4.000000E+07  0.02000  3.373E-03    0   0.7799   age104_m62            0.0000     4.7633E+01     6.4557   2.2550    93.9126
 22      0.0000     0.0000E+00    0.0000E+00    1.015200E+08  0.02000  1.878E-03    0   0.7221   age116_m62            0.0000     2.2092E+02     5.5254   1.8485   109.7422
 23      0.0000     0.0000E+00    0.0000E+00    2.861200E+08  0.02000  8.869E-04    0   0.6700   age125_m62            0.0000     4.7125E+02     9.3242   1.1351   125.0204
 24      0.0000     0.0000E+00    0.0000E+00    6.405400E+08  0.02000  3.657E-04    0   0.6322   age132_m62            0.0000     2.2802E+02     9.2493   0.4449   130.4439
 25      0.0000     0.0000E+00    0.0000E+00    9.047900E+08  0.02000  2.312E-04    0   0.6152   age135_m62            0.0000     1.0052E+02     7.3325   0.1599   126.0593
 26      0.0000     0.0000E+00    0.0000E+00    1.434000E+09  0.02000  1.168E-04    0   0.5865   age139_m62            0.0000     1.2675E+01     4.2708  -0.1220   114.8709
 27      0.0000     0.0000E+00    0.0000E+00    2.500000E+09  0.02000  5.505E-05    0   0.5610   age150_m62            0.0000     4.2915E+01     4.3613  -0.4585   110.9229
 28      0.0000     0.0000E+00    0.0000E+00    5.000000E+09  0.02000  2.596E-05    0   0.5353   age161_m62            0.0000     1.5709E+02     6.1369  -0.8273   113.0572
 29      0.0000     0.0000E+00    0.0000E+00    1.100000E+10  0.02000  1.169E-05    0   0.5103   age185_m62            0.0000     3.3842E+02    10.9317  -1.0000   115.0219
 30      0.0000     0.0000E+00    0.0000E+00    1.300000E+10  0.02000  9.691E-06    0   0.5047   age193_m62            0.0000     3.8461E+02    12.3989  -1.0000   115.0123
 31      0.0000     0.0000E+00    0.0000E+00    1.000000E+06  0.05000  2.651E-02    0   0.9998   age020_m72            0.0000     1.5132E+02    10.9774   3.9521    73.5459
 32      0.0000     0.0000E+00    0.0000E+00    3.160000E+06  0.05000  4.817E-02    0   0.9577   age045_m72            0.0000     8.4032E+01     9.3852   3.6245    79.0898
 33      0.0000     0.0000E+00    0.0000E+00    5.010000E+06  0.05000  3.101E-02    0   0.9147   age055_m72            0.0000     7.2657E+01     9.3451   3.2597    81.6537
 34      0.0000     0.0000E+00    0.0000E+00    1.000000E+07  0.05000  8.954E-03    0   0.8524   age070_m72            0.0000     9.5894E+01     9.1969   3.4966    80.5471
 35      0.0000     0.0000E+00    0.0000E+00    2.512000E+07  0.05000  4.207E-03    0   0.7902   age090_m72            0.0000     4.5333E+01     6.6443   2.9837    88.5655
 36      0.0000     0.0000E+00    0.0000E+00    4.000000E+07  0.05000  3.198E-03    0   0.7618   age104_m72            0.0000     1.1179E+02     4.2895   2.2971   102.5722
 37      0.0000     0.0000E+00    0.0000E+00    1.015200E+08  0.05000  1.716E-03    0   0.7092   age116_m72            0.0000     2.7248E+02     6.0444   1.9024   110.9877
 38      0.0000     0.0000E+00    0.0000E+00    2.861200E+08  0.05000  7.047E-04    0   0.6618   age125_m72            0.0000     4.5194E+02     9.7567   0.9067   126.5207
 39      0.0000     0.0000E+00    0.0000E+00    6.405400E+08  0.05000  2.633E-04    0   0.6253   age132_m72            0.0000     1.6252E+02     8.6198   0.0976   128.6224
 40      0.0000     0.0000E+00    0.0000E+00    9.047900E+08  0.05000  1.484E-04    0   0.6088   age135_m72            0.0000     2.7489E+01     6.3553  -0.2739   119.4564
 41      0.0000     0.0000E+00    0.0000E+00    1.434000E+09  0.05000  7.827E-05    0   0.5847   age139_m72            0.0000     5.9075E+01     6.1295  -0.6135   114.2582
 42      0.0000     0.0000E+00    0.0000E+00    2.500000E+09  0.05000  3.759E-05    0   0.5583   age150_m72            0.0000     1.6632E+02     6.7230  -0.9242   113.4483
 43      0.0000     0.0000E+00    0.0000E+00    5.000000E+09  0.05000  1.548E-05    0   0.5320   age161_m72            0.0000     3.5841E+02    14.3872  -1.0000   111.5703
 44      0.0000     0.0000E+00    0.0000E+00    1.100000E+10  0.05000  6.532E-06    0   0.5070   age185_m72            0.0000     7.2969E+02    25.9069  -1.0000   107.7480
 45      0.0000     0.0000E+00    0.0000E+00    1.300000E+10  0.05000  5.316E-06    0   0.5018   age193_m72            0.0000     9.0259E+02    29.2277  -1.0000   106.1296


## Synthesis Results - Average & Chains ##

# j      x_j: min, <> & last-chain-values for 1 ...  7 chains
  1      0.0000      0.0094      0.0000      0.0000      0.0000      0.0000      0.0000      0.0000      0.0036
  2     11.9939      9.7901     10.3071     10.6180     10.0196     10.3627     10.3658      9.8173      9.7790
  3      0.0000      0.1117      0.0000      0.0000      0.2161      0.0000      0.0000      0.0000      0.2209
  4      0.2636      0.6120      0.8149      0.5988      0.8471      0.6508      0.6351      0.7431      0.6145
  5      0.0000      0.2144      0.0000      0.0633      0.2110      0.3429      0.1220      0.1843      0.5277
  6      0.0000      0.0355      0.0000      0.0000      0.0000      0.0000      0.0298      0.0000      0.0000
  7     10.2102     10.4779     10.4698     10.1073     10.7606     10.2356     10.6132     10.2093     10.5224
  8      0.0000      0.0346      0.0082      0.0840      0.0000      0.0000      0.0000      0.0000      0.0000
  9      0.0000      0.0668      0.0000      0.0000      0.0000      0.0000      0.0000      0.0000      0.0000
 10      0.0000      0.1863      0.1855      0.3269      0.1313      1.0492      0.1387      0.5501      0.4682
 11      0.0000      0.0935      0.0735      0.0000      0.0000      0.0000      0.0243      0.0753      0.0000
 12     52.1902     50.9667     51.1368     51.0508     51.0897     50.0355     50.9628     51.0373     51.0731
 13     28.8983     30.0563     30.0657     29.9198     29.8921     30.1804     29.8042     30.2187     30.0511
 14      0.0000      0.0513      0.0000      0.0000      0.0000      0.0000      0.0000      0.0000      0.0000
 15      0.0000      0.0432      0.0003      0.0584      0.0000      0.2451      0.0000      0.0153      0.0329
 16      0.0000      0.0069      0.0000      0.0000      0.0000      0.0000      0.0000      0.0000      0.0000
 17      0.0000      0.0161      0.0000      0.0000      0.0000      0.0000      0.0894      0.0000      0.0000
 18      0.0000      0.2538      0.2939      0.2082      0.1431      0.2331      0.2535      0.6846      0.3654
 19      0.0000      0.0257      0.0000      0.0000      0.0000      0.0000      0.0000      0.0000      0.0000
 20      0.0000      0.0058      0.0000      0.0000      0.0000      0.0000      0.0000      0.0000      0.0000
 21      0.0000      0.0259      0.0000      0.0000      0.0000      0.0000      0.0000      0.0581      0.0000
 22      0.0000      0.0281      0.0000      0.0000      0.0000      0.0000      0.0000      0.0000      0.0000
 23      0.0000      0.0109      0.0000      0.0000      0.0000      0.0000      0.0000      0.0063      0.0000
 24      0.0000      0.0121      0.0000      0.0000      0.0000      0.0000      0.0000      0.0000      0.0000
 25      0.0000      0.0297      0.0000      0.0000      0.0000      0.0000      0.0000      0.0000      0.0000
 26      0.0000      0.1116      0.2028      0.0000      0.0768      0.0215      0.0000      0.0000      0.0000
 27      0.0000      0.1053      0.0000      0.3240      0.3195      0.0000      0.0729      0.1139      0.0000
 28      0.0000      0.0283      0.0000      0.0000      0.0000      0.0000      0.0000      0.0000      0.0000
 29      0.0000      0.0079      0.0000      0.0000      0.0000      0.0000      0.0000      0.0000      0.0000
 30      0.0000      0.0094      0.0000      0.0000      0.0000      0.0000      0.0079      0.0000      0.0000
 31      0.0000      0.0046      0.0000      0.0000      0.0000      0.0000      0.0000      0.0000      0.0000
 32      0.0000      0.0142      0.0000      0.0000      0.0000      0.0000      0.0000      0.0000      0.0046
 33      0.0000      0.0564      0.0000      0.0000      0.0000      0.0000      0.0000      0.0000      0.0000
 34      0.0000      0.0079      0.0000      0.0000      0.0040      0.0000      0.0249      0.0000      0.0000
 35      0.0000      0.0125      0.0000      0.0000      0.0000      0.0000      0.0000      0.0000      0.0000
 36      0.0000      0.0419      0.0064      0.2973      0.0000      0.0000      0.0000      0.0000      0.0213
 37      0.0000      0.0333      0.0000      0.0000      0.0000      0.0021      0.0000      0.0000      0.0000
 38      0.0000      0.0128      0.0240      0.0000      0.0000      0.0000      0.0000      0.0000      0.0000
 39      0.0000      0.0178      0.0000      0.0000      0.0000      0.0000      0.0000      0.0000      0.0000
 40      0.0000      0.0381      0.0000      0.0700      0.0000      0.0000      0.0000      0.0087      0.0000
 41      0.0000      0.0816      0.1663      0.0000      0.0000      0.4104      0.5519      0.0000      0.0000
 42      0.0000      0.0327      0.0000      0.0000      0.0000      0.0000      0.0000      0.0000      0.0000
 43      0.0000      0.0142      0.0053      0.0000      0.0000      0.0048      0.0000      0.0000      0.0000
 44      0.0000      0.0086      0.0000      0.0000      0.0000      0.0000      0.0000      0.0000      0.0000
 45      0.0000      0.0032      0.0000      0.0000      0.0000      0.0000      0.0000      0.0000      0.0000

# j      m_j: min, <> & last-chain-values for 1 ...  7 chains
  1  0.0000E+00  1.3466E-04  0.0000E+00  0.0000E+00  0.0000E+00  0.0000E+00  0.0000E+00  0.0000E+00  5.1727E-05
  2  4.7941E-02  3.8194E-02  4.0527E-02  4.1711E-02  3.9473E-02  4.0510E-02  4.0838E-02  3.8549E-02  3.8561E-02
  3  0.0000E+00  6.6450E-04  0.0000E+00  0.0000E+00  1.2983E-03  0.0000E+00  0.0000E+00  0.0000E+00  1.3285E-03
  4  2.9920E-03  6.7810E-03  9.1008E-03  6.6805E-03  9.4781E-03  7.2262E-03  7.1066E-03  8.2871E-03  6.8816E-03
  5  0.0000E+00  5.4940E-03  0.0000E+00  1.6339E-03  5.4594E-03  8.8034E-03  3.1566E-03  4.7535E-03  1.3666E-02
  6  0.0000E+00  1.2627E-03  0.0000E+00  0.0000E+00  0.0000E+00  0.0000E+00  1.0705E-03  0.0000E+00  0.0000E+00
  7  5.2826E-01  5.2911E-01  5.3286E-01  5.1395E-01  5.4873E-01  5.1793E-01  5.4123E-01  5.1890E-01  5.3707E-01
  8  0.0000E+00  3.3733E-03  8.0142E-04  8.2420E-03  0.0000E+00  0.0000E+00  0.0000E+00  0.0000E+00  0.0000E+00
  9  0.0000E+00  1.2965E-02  0.0000E+00  0.0000E+00  0.0000E+00  0.0000E+00  0.0000E+00  0.0000E+00  0.0000E+00
 10  0.0000E+00  5.0461E-02  5.0628E-02  8.9147E-02  3.5899E-02  2.8471E-01  3.7918E-02  1.4994E-01  1.2814E-01
 11  0.0000E+00  4.4446E-02  3.5254E-02  0.0000E+00  0.0000E+00  0.0000E+00  1.1666E-02  3.6036E-02  0.0000E+00
 12  4.7283E+01  4.5067E+01  4.5573E+01  4.5455E+01  4.5620E+01  4.4333E+01  4.5508E+01  4.5423E+01  4.5647E+01
 13  5.2138E+01  5.2927E+01  5.3360E+01  5.3053E+01  5.3155E+01  5.3254E+01  5.3000E+01  5.3559E+01  5.3487E+01
 14  0.0000E+00  1.8400E-01  0.0000E+00  0.0000E+00  0.0000E+00  0.0000E+00  0.0000E+00  0.0000E+00  0.0000E+00
 15  0.0000E+00  1.7955E-01  1.2062E-03  2.4432E-01  0.0000E+00  1.0211E+00  0.0000E+00  6.3861E-02  1.3832E-01
 16  0.0000E+00  5.4966E-05  0.0000E+00  0.0000E+00  0.0000E+00  0.0000E+00  0.0000E+00  0.0000E+00  0.0000E+00
 17  0.0000E+00  6.6989E-05  0.0000E+00  0.0000E+00  0.0000E+00  0.0000E+00  3.7498E-04  0.0000E+00  0.0000E+00
 18  0.0000E+00  1.1677E-03  1.3627E-03  9.6460E-04  6.6488E-04  1.0743E-03  1.1776E-03  3.1701E-03  1.6991E-03
 19  0.0000E+00  3.5377E-04  0.0000E+00  0.0000E+00  0.0000E+00  0.0000E+00  0.0000E+00  0.0000E+00  0.0000E+00
 20  0.0000E+00  1.7733E-04  0.0000E+00  0.0000E+00  0.0000E+00  0.0000E+00  0.0000E+00  0.0000E+00  0.0000E+00
 21  0.0000E+00  9.5245E-04  0.0000E+00  0.0000E+00  0.0000E+00  0.0000E+00  0.0000E+00  2.1491E-03  0.0000E+00
 22  0.0000E+00  1.7161E-03  0.0000E+00  0.0000E+00  0.0000E+00  0.0000E+00  0.0000E+00  0.0000E+00  0.0000E+00
 23  0.0000E+00  1.3138E-03  0.0000E+00  0.0000E+00  0.0000E+00  0.0000E+00  0.0000E+00  7.6428E-04  0.0000E+00
 24  0.0000E+00  3.3355E-03  0.0000E+00  0.0000E+00  0.0000E+00  0.0000E+00  0.0000E+00  0.0000E+00  0.0000E+00
 25  0.0000E+00  1.2556E-02  0.0000E+00  0.0000E+00  0.0000E+00  0.0000E+00  0.0000E+00  0.0000E+00  0.0000E+00
 26  0.0000E+00  8.9063E-02  1.6311E-01  0.0000E+00  6.1908E-02  1.7211E-02  0.0000E+00  0.0000E+00  0.0000E+00
 27  0.0000E+00  1.7059E-01  0.0000E+00  5.2830E-01  5.2244E-01  0.0000E+00  1.1927E-01  1.8561E-01  0.0000E+00
 28  0.0000E+00  9.2843E-02  0.0000E+00  0.0000E+00  0.0000E+00  0.0000E+00  0.0000E+00  0.0000E+00  0.0000E+00
 29  0.0000E+00  5.4709E-02  0.0000E+00  0.0000E+00  0.0000E+00  0.0000E+00  0.0000E+00  0.0000E+00  0.0000E+00
 30  0.0000E+00  7.7770E-02  0.0000E+00  0.0000E+00  0.0000E+00  0.0000E+00  6.6168E-02  0.0000E+00  0.0000E+00
 31  0.0000E+00  2.7309E-05  0.0000E+00  0.0000E+00  0.0000E+00  0.0000E+00  0.0000E+00  0.0000E+00  0.0000E+00
 32  0.0000E+00  4.4807E-05  0.0000E+00  0.0000E+00  0.0000E+00  0.0000E+00  0.0000E+00  0.0000E+00  1.4808E-05
 33  0.0000E+00  2.6451E-04  0.0000E+00  0.0000E+00  0.0000E+00  0.0000E+00  0.0000E+00  0.0000E+00  0.0000E+00
