###################################################################
## OUTPUT of StarlightChains_v04.for    [Cid@UFSC - 01/Apr/2007] ##
###################################################################

## Some input info
NGC6528_b_1.cxt                          [arq_obs]
Base.BC03.N                              [arq_base]
NGC6528_b_1.msk                          [arq_masks]
StCv04.C99.config                        [arq_config]
   45                                    [N_base]
    0                                    [N_YAV_components = # of components with extra extinction!]
    0                                    [i_FitPowerLaw (1/0 = Yes/No)]
-9.99                                    [alpha_PowerLaw]
CCM                                      [red_law_option]
 1.458241                                [q_norm = A(l_norm)/A(V)]

## (Re)Sampling Parameters
 3359.00                                 [l_ini (A)]
 6428.00                                 [l_fin (A)]
    1.00                                 [dl    (A)]     (OBS: dl_cushion =    50.00 A)

## Normalization info
 4020.00                                 [l_norm (A) - for base]
 4010.00                                 [llow_norm (A) - window for f_obs]
 4060.00                                 [lupp_norm (A) - window for f_obs]
2.920007E-15                             [fobs_norm (in input units)]

## S/N
 4730.00                                 [llow_SN (A) - window for S/N]
 4780.00                                 [lupp_SN (A) - window for S/N]
  27.543                                 [S/N in S/N window]
  15.038                                 [S/N in norm. window]
 201.971                                 [S/N_err in S/N window]
 110.275                                 [S/N_err in norm. window]
  1.0000                                 [fscale_chi2]

## etc...
  2147483604                             [idum_orig]
  3069                                   [NOl_eff]
   822                                   [Nl_eff]
  2247    NSIGMA                         [Ntot_cliped & clip_method]
  2029160                                [Nglobal_steps]
   7                                     [N_chains]
  10                                     [NEX0s_base = N_base in EX0s-fits]
 0   0   1      129   2.0   2.622E+02    [Clip-Bug, RC-Crash & Burn-In warning-flags, n_censored_weights, wei_nsig_threshold & wei_limit]
    25     25.165     25.165      0.000  [idt_all, wdt_TotTime, wdt_UsrTime & wdt_SysTime (sec)]

## Synthesis Results - Best model ##

 2.47874E+00                             [chi2/Nl_eff]
     1.67896                             [adev (%)]

    96.24998                             [sum-of-x (%)]
 2.40618E-14                             [Flux_tot (units of input spectrum!)]
 1.66853E-09                             [Mini_tot (???)]
 8.43283E-10                             [Mcor_tot (???)]

 -32.24                                  [v0_min  (km/s)]
  81.69                                  [vd_min  (km/s)]
 1.5987                                  [AV_min  (mag)]
 0.0000                                  [YAV_min (mag)]

# j     x_j(%)      Mini_j(%)     Mcor_j(%)     age_j(yr)     Z_j      (L/M)_j    YAV?  Mstars   component_j        a/Fe...       SSP_chi2r SSP_adev(%)   SSP_AV   SSP_x(%)
  1      0.0000     0.0000E+00    0.0000E+00    1.000000E+06  0.00400  1.114E-02    0   1.0000   age020_m42            0.0000     6.6347E+03    59.4014   4.0000   119.5065
  2      5.5394     2.0377E-03    4.0314E-03    3.160000E+06  0.00400  4.073E-02    0   0.9999   age045_m42            0.0000     1.6011E+03    29.5426   4.0000   116.1747
  3      0.0000     0.0000E+00    0.0000E+00    5.010000E+06  0.00400  2.534E-02    0   0.9488   age055_m42            0.0000     3.1666E+03    42.8234   4.0000   119.4417
  4      5.8048     6.8428E-03    1.1998E-02    1.000000E+07  0.00400  1.271E-02    0   0.8862   age070_m42            0.0000     6.4711E+02    21.5423   4.0000    99.7307
  5      4.0045     1.1834E-02    1.9139E-02    2.512000E+07  0.00400  5.070E-03    0   0.8174   age090_m42            0.0000     4.9807E+02    18.2713   4.0000    97.0897
  6      0.0000     0.0000E+00    0.0000E+00    4.000000E+07  0.00400  3.505E-03    0   0.7851   age104_m42            0.0000     3.6145E+02    14.0994   3.8588    94.3830
  7      0.0000     0.0000E+00    0.0000E+00    1.015200E+08  0.00400  2.268E-03    0   0.7207   age116_m42            0.0000     4.6456E+02    14.6068   4.0000    99.9969
  8      0.0000     0.0000E+00    0.0000E+00    2.861200E+08  0.00400  1.079E-03    0   0.6613   age125_m42            0.0000     4.4267E+02    14.3520   3.5514   100.2927
  9      0.0000     0.0000E+00    0.0000E+00    6.405400E+08  0.00400  5.077E-04    0   0.6197   age132_m42            0.0000     4.5446E+02    14.7417   3.1793   104.6275
 10      0.0000     0.0000E+00    0.0000E+00    9.047900E+08  0.00400  3.535E-04    0   0.6024   age135_m42            0.0000     3.5169E+02    12.6417   2.9343   104.1232
 11      0.0000     0.0000E+00    0.0000E+00    1.434000E+09  0.00400  1.910E-04    0   0.5716   age139_m42            0.0000     1.8475E+02     9.0436   2.4397   102.0566
 12      0.0000     0.0000E+00    0.0000E+00    2.500000E+09  0.00400  9.818E-05    0   0.5463   age150_m42            0.0000     8.4018E+01     5.5788   2.1655    97.6598
 13      1.4347     4.5563E-01    4.7131E-01    5.000000E+09  0.00400  4.718E-05    0   0.5228   age161_m42            0.0000     4.4674E+01     3.9502   1.9851    94.9044
 14     10.8132     7.3475E+00    7.2398E+00    1.100000E+10  0.00400  2.205E-05    0   0.4980   age185_m42            0.0000     2.2275E+01     3.4099   1.7525    92.1586
 15      6.4912     5.1650E+00    5.0351E+00    1.300000E+10  0.00400  1.883E-05    0   0.4927   age193_m42            0.0000     2.1248E+01     3.4435   1.7362    91.9897
 16      0.0000     0.0000E+00    0.0000E+00    1.000000E+06  0.02000  1.989E-02    0   1.0000   age020_m62            0.0000     6.3358E+03    58.1620   4.0000   120.0337
 17      0.0000     0.0000E+00    0.0000E+00    3.160000E+06  0.02000  3.772E-02    0   0.9858   age045_m62            0.0000     5.3753E+03    54.7954   4.0000   121.0570
 18      2.4791     1.1511E-03    2.1276E-03    5.010000E+06  0.02000  3.227E-02    0   0.9342   age055_m62            0.0000     2.5292E+03    38.1590   4.0000   119.7091
 19      0.0000     0.0000E+00    0.0000E+00    1.000000E+07  0.02000  1.011E-02    0   0.8751   age070_m62            0.0000     8.3391E+02    24.8512   4.0000    95.5091
 20      0.0000     0.0000E+00    0.0000E+00    2.512000E+07  0.02000  4.206E-03    0   0.8099   age090_m62            0.0000     6.4829E+02    22.1808   4.0000    94.8692
 21      0.0000     0.0000E+00    0.0000E+00    4.000000E+07  0.02000  3.373E-03    0   0.7799   age104_m62            0.0000     4.1164E+02    15.0474   4.0000    98.6412
 22      0.0000     0.0000E+00    0.0000E+00    1.015200E+08  0.02000  1.878E-03    0   0.7221   age116_m62            0.0000     4.5077E+02    13.9001   4.0000   101.0305
 23      0.0000     0.0000E+00    0.0000E+00    2.861200E+08  0.02000  8.869E-04    0   0.6700   age125_m62            0.0000     5.6452E+02    16.7348   3.5816   104.7395
 24      0.0000     0.0000E+00    0.0000E+00    6.405400E+08  0.02000  3.657E-04    0   0.6322   age132_m62            0.0000     3.8362E+02    13.3497   2.9535   106.3205
 25      0.0000     0.0000E+00    0.0000E+00    9.047900E+08  0.02000  2.312E-04    0   0.6152   age135_m62            0.0000     2.4788E+02    10.4612   2.5794   105.4897
 26      0.0000     0.0000E+00    0.0000E+00    1.434000E+09  0.02000  1.168E-04    0   0.5865   age139_m62            0.0000     9.1249E+01     6.1028   2.1523   100.5284
 27      0.0000     0.0000E+00    0.0000E+00    2.500000E+09  0.02000  5.505E-05    0   0.5610   age150_m62            0.0000     3.6168E+01     4.4229   1.7983    97.5930
 28      0.0000     0.0000E+00    0.0000E+00    5.000000E+09  0.02000  2.596E-05    0   0.5353   age161_m62            0.0000     4.0490E+01     5.7053   1.5137    96.3742
 29     15.2694     1.9571E+01    1.9760E+01    1.100000E+10  0.02000  1.169E-05    0   0.5103   age185_m62            0.0000     9.1019E+01     8.3096   1.2031    96.2688
 30     42.2923     6.5386E+01    6.5295E+01    1.300000E+10  0.02000  9.691E-06    0   0.5047   age193_m62            0.0000     1.0334E+02     8.7583   1.1656    96.2221
 31      0.0000     0.0000E+00    0.0000E+00    1.000000E+06  0.05000  2.651E-02    0   0.9998   age020_m72            0.0000     6.3565E+03    57.9396   4.0000   121.5338
 32      0.0000     0.0000E+00    0.0000E+00    3.160000E+06  0.05000  4.817E-02    0   0.9577   age045_m72            0.0000     4.4791E+03    49.8551   4.0000   123.1324
 33      0.0000     0.0000E+00    0.0000E+00    5.010000E+06  0.05000  3.101E-02    0   0.9147   age055_m72            0.0000     2.5199E+03    39.8805   4.0000   117.8603
 34      0.0000     0.0000E+00    0.0000E+00    1.000000E+07  0.05000  8.954E-03    0   0.8524   age070_m72            0.0000     3.6499E+03    45.9413   4.0000   122.2296
 35      0.0000     0.0000E+00    0.0000E+00    2.512000E+07  0.05000  4.207E-03    0   0.7902   age090_m72            0.0000     1.7344E+03    32.1745   4.0000   117.8356
 36      0.0000     0.0000E+00    0.0000E+00    4.000000E+07  0.05000  3.198E-03    0   0.7618   age104_m72            0.0000     6.6028E+02    16.4359   4.0000   110.8386
 37      0.0000     0.0000E+00    0.0000E+00    1.015200E+08  0.05000  1.716E-03    0   0.7092   age116_m72            0.0000     5.0763E+02    14.6227   4.0000   105.0301
 38      0.0000     0.0000E+00    0.0000E+00    2.861200E+08  0.05000  7.047E-04    0   0.6618   age125_m72            0.0000     5.1110E+02    15.8668   3.4190   104.1395
 39      0.0000     0.0000E+00    0.0000E+00    6.405400E+08  0.05000  2.633E-04    0   0.6253   age132_m72            0.0000     2.7786E+02    11.2900   2.6127   104.8946
 40      0.0000     0.0000E+00    0.0000E+00    9.047900E+08  0.05000  1.484E-04    0   0.6088   age135_m72            0.0000     1.1850E+02     7.4488   2.1382   100.0194
 41      0.0000     0.0000E+00    0.0000E+00    1.434000E+09  0.05000  7.827E-05    0   0.5847   age139_m72            0.0000     5.5893E+01     5.8769   1.7717    96.3817
 42      0.0000     0.0000E+00    0.0000E+00    2.500000E+09  0.05000  3.759E-05    0   0.5583   age150_m72            0.0000     5.2301E+01     6.4433   1.4626    95.4891
 43      2.1213     2.0532E+00    2.1613E+00    5.000000E+09  0.05000  1.548E-05    0   0.5320   age161_m72            0.0000     1.2433E+02     8.8927   1.1054    93.6538
 44      0.0000     0.0000E+00    0.0000E+00    1.100000E+10  0.05000  6.532E-06    0   0.5070   age185_m72            0.0000     2.5927E+02    12.4390   0.8226    90.8458
 45      0.0000     0.0000E+00    0.0000E+00    1.300000E+10  0.05000  5.316E-06    0   0.5018   age193_m72            0.0000     3.2271E+02    13.8253   0.7436    89.8535


## Synthesis Results - Average & Chains ##

# j      x_j: min, <> & last-chain-values for 1 ...  7 chains
  1      0.0000      0.0356      0.0000      0.0189      0.0000      0.0174      0.0000      0.0000      0.0000
  2      5.5394      5.0213      5.0740      5.2860      5.0740      5.2883      5.0250      5.1388      5.0516
  3      0.0000      0.5181      0.5612      0.5011      0.5101      0.5103      0.5441      0.5028      0.5520
  4      5.8048      5.4560      5.4749      5.6703      5.5399      5.5495      5.5191      5.4196      5.4014
  5      4.0045      4.0559      4.0045      3.9991      4.0594      4.1617      4.0600      4.0372      3.9915
  6      0.0000      0.0178      0.0000      0.0000      0.0000      0.0061      0.0427      0.0701      0.0091
  7      0.0000      0.0241      0.0352      0.0000      0.0000      0.0000      0.0000      0.0000      0.0000
  8      0.0000      0.0287      0.0000      0.0000      0.0000      0.0000      0.0140      0.0000      0.0005
  9      0.0000      0.0171      0.0000      0.0592      0.0062      0.0000      0.1446      0.0000      0.0000
 10      0.0000      0.0487      0.0000      0.0000      0.0000      0.0176      0.0128      0.2036      0.0000
 11      0.0000      0.0597      0.0182      0.0000      0.0000      0.1628      0.1649      0.0000      0.0000
 12      0.0000      0.1330      0.2096      0.2377      0.2963      0.0065      0.1569      0.1762      0.0358
 13      1.4347      0.9101      1.6531      1.0794      0.8566      0.9872      1.1887      1.5056      1.1388
 14     10.8132      8.9270      9.5231      9.3270      9.8105      8.4858      9.3799      9.1125      9.7145
 15      6.4912      7.8425      7.0091      7.6247      7.4858      8.3820      7.6803      7.7459      7.8310
 16      0.0000      0.0296      0.0000      0.0000      0.0000      0.0000      0.1220      0.0648      0.0000
 17      0.0000      0.0096      0.0060      0.0000      0.0000      0.0000      0.0000      0.0000      0.0330
 18      2.4791      2.3490      2.4116      2.3301      2.4065      2.3562      2.3126      2.3682      2.3137
 19      0.0000      0.0518      0.1167      0.0000      0.0265      0.0000      0.0000      0.0000      0.1433
 20      0.0000      0.0191      0.0000      0.0436      0.0000      0.0016      0.0000      0.0000      0.0000
 21      0.0000      0.0234      0.0000      0.0267      0.0978      0.0000      0.0000      0.0000      0.0213
 22      0.0000      0.0188      0.0000      0.0000      0.0000      0.0000      0.0000      0.0000      0.0000
 23      0.0000      0.0112      0.0000      0.1120      0.0000      0.0000      0.0000      0.0000      0.0000
 24      0.0000      0.0159      0.0000      0.0000      0.0000      0.0468      0.0000      0.0000      0.0025
 25      0.0000      0.0311      0.0000      0.0000      0.0000      0.0000      0.0000      0.0000      0.0202
 26      0.0000      0.0962      0.0570      0.0000      0.2067      0.0000      0.0000      0.0000      0.2163
 27      0.0000      0.1285      0.0000      0.0000      0.0150      0.0198      0.0000      0.0080      0.0000
 28      0.0000      0.2619      0.1656      0.0000      0.1434      0.1091      0.3643      0.1304      0.5581
 29     15.2694     15.4988     15.6503     15.4691     15.6800     15.3836     15.0504     15.0400     15.3642
 30     42.2923     42.8085     42.6463     43.0865     42.4102     43.2552     42.9738     43.0473     42.0067
 31      0.0000      0.0160      0.0000      0.0000      0.0132      0.0000      0.0000      0.0000      0.0000
 32      0.0000      0.0181      0.0060      0.0000      0.0423      0.0000      0.0000      0.0000      0.0000
 33      0.0000      0.0161      0.0000      0.0000      0.0000      0.0000      0.0000      0.0295      0.0000
 34      0.0000      0.0187      0.0373      0.0000      0.0000      0.0000      0.0028      0.0000      0.0917
 35      0.0000      0.0223      0.0000      0.0000      0.0000      0.0000      0.0000      0.0000      0.0000
 36      0.0000      0.0175      0.0000      0.0000      0.0000      0.0000      0.0000      0.0376      0.0000
 37      0.0000      0.0137      0.0000      0.0000      0.0148      0.0000      0.0000      0.0000      0.0006
 38      0.0000      0.0150      0.0000      0.0000      0.0000      0.0000      0.0000      0.0000      0.0000
 39      0.0000      0.0226      0.1677      0.0000      0.2208      0.0876      0.0000      0.0000      0.0000
 40      0.0000      0.0482      0.0000      0.0220      0.0000      0.0252      0.0000      0.0000      0.0785
 41      0.0000      0.1302      0.0000      0.0346      0.0056      0.0473      0.0000      0.0000      0.1486
 42      0.0000      0.2381      0.1459      0.0579      0.0115      0.0000      0.2266      0.2031      0.0000
 43      2.1213      0.5591      0.4511      0.5380      0.6559      0.8617      0.6331      0.5763      0.7295
 44      0.0000      0.3004      0.4588      0.3548      0.2553      0.1507      0.2755      0.4810      0.1907
 45      0.0000      0.4308      0.4202      0.4145      0.4442      0.3972      0.3736      0.3733      0.5832

# j      m_j: min, <> & last-chain-values for 1 ...  7 chains
  1  0.0000E+00  9.3340E-05  0.0000E+00  4.9327E-05  0.0000E+00  4.5564E-05  0.0000E+00  0.0000E+00  0.0000E+00
  2  4.0314E-03  3.6039E-03  3.6417E-03  3.7829E-03  3.6505E-03  3.7850E-03  3.6143E-03  3.6841E-03  3.6413E-03
  3  0.0000E+00  5.6711E-04  6.1434E-04  5.4699E-04  5.5973E-04  5.5706E-04  5.9694E-04  5.4974E-04  6.0688E-04
  4  1.1998E-02  1.1122E-02  1.1160E-02  1.1525E-02  1.1320E-02  1.1281E-02  1.1275E-02  1.1035E-02  1.1058E-02
  5  1.9139E-02  1.9117E-02  1.8875E-02  1.8795E-02  1.9180E-02  1.9562E-02  1.9178E-02  1.9008E-02  1.8895E-02
  6  0.0000E+00  1.1630E-04  0.0000E+00  0.0000E+00  0.0000E+00  4.0033E-05  2.8006E-04  4.5865E-04  5.9817E-05
  7  0.0000E+00  2.2375E-04  3.2673E-04  0.0000E+00  0.0000E+00  0.0000E+00  0.0000E+00  0.0000E+00  0.0000E+00
  8  0.0000E+00  5.1377E-04  0.0000E+00  0.0000E+00  0.0000E+00  0.0000E+00  2.5111E-04  0.0000E+00  8.2392E-06
  9  0.0000E+00  6.0970E-04  0.0000E+00  2.1063E-03  2.2078E-04  0.0000E+00  5.1712E-03  0.0000E+00  0.0000E+00
 10  0.0000E+00  2.4267E-03  0.0000E+00  0.0000E+00  0.0000E+00  8.7671E-04  6.4090E-04  1.0132E-02  0.0000E+00
 11  0.0000E+00  5.2252E-03  1.5963E-03  0.0000E+00  0.0000E+00  1.4201E-02  1.4457E-02  0.0000E+00  0.0000E+00
 12  0.0000E+00  2.1637E-02  3.4092E-02  3.8556E-02  4.8314E-02  1.0525E-03  2.5583E-02  2.8632E-02  5.8422E-03
 13  4.7131E-01  2.9484E-01  5.3555E-01  3.4866E-01  2.7817E-01  3.1891E-01  3.8591E-01  4.8720E-01  3.7051E-01
 14  7.2398E+00  5.8943E+00  6.2880E+00  6.1407E+00  6.4935E+00  5.5876E+00  6.2068E+00  6.0101E+00  6.4421E+00
 15  5.0351E+00  5.9992E+00  5.3618E+00  5.8158E+00  5.7403E+00  6.3942E+00  5.8879E+00  5.9187E+00  6.0164E+00
 16  0.0000E+00  4.3495E-05  0.0000E+00  0.0000E+00  0.0000E+00  0.0000E+00  1.7968E-04  9.5088E-05  0.0000E+00
 17  0.0000E+00  7.3424E-06  4.5647E-06  0.0000E+00  0.0000E+00  0.0000E+00  0.0000E+00  0.0000E+00  2.5361E-05
 18  2.1276E-03  1.9881E-03  2.0411E-03  1.9664E-03  2.0417E-03  1.9887E-03  1.9615E-03  2.0021E-03  1.9666E-03
 19  0.0000E+00  1.3097E-04  2.9540E-04  0.0000E+00  6.7326E-05  0.0000E+00  0.0000E+00  0.0000E+00  3.6427E-04
 20  0.0000E+00  1.0780E-04  0.0000E+00  2.4478E-04  0.0000E+00  8.9231E-06  0.0000E+00  0.0000E+00  0.0000E+00
 21  0.0000E+00  1.5789E-04  0.0000E+00  1.7997E-04  6.6278E-04  0.0000E+00  0.0000E+00  0.0000E+00  1.4436E-04
 22  0.0000E+00  2.1183E-04  0.0000E+00  0.0000E+00  0.0000E+00  0.0000E+00  0.0000E+00  0.0000E+00  0.0000E+00
 23  0.0000E+00  2.4733E-04  0.0000E+00  2.4658E-03  0.0000E+00  0.0000E+00  0.0000E+00  0.0000E+00  0.0000E+00
 24  0.0000E+00  8.0157E-04  0.0000E+00  0.0000E+00  0.0000E+00  2.3572E-03  0.0000E+00  0.0000E+00  1.2704E-04
 25  0.0000E+00  2.4178E-03  0.0000E+00  0.0000E+00  0.0000E+00  0.0000E+00  0.0000E+00  0.0000E+00  1.5815E-03
 26  0.0000E+00  1.4123E-02  8.3622E-03  0.0000E+00  3.0416E-02  0.0000E+00  0.0000E+00  0.0000E+00  3.1889E-02
 27  0.0000E+00  3.8292E-02  0.0000E+00  0.0000E+00  4.4840E-03  5.8889E-03  0.0000E+00  2.3883E-03  0.0000E+00
 28  0.0000E+00  1.5789E-01  9.9827E-02  0.0000E+00  8.6676E-02  6.5598E-02  2.2006E-01  7.8509E-02  3.3793E-01
 29  1.9760E+01  1.9779E+01  1.9973E+01  1.9685E+01  2.0060E+01  1.9578E+01  1.9249E+01  1.9173E+01  1.9693E+01
 30  6.5295E+01  6.5178E+01  6.4932E+01  6.5412E+01  6.4729E+01  6.5677E+01  6.5571E+01  6.5469E+01  6.4235E+01
 31  0.0000E+00  1.7603E-05  0.0000E+00  0.0000E+00  1.4642E-05  0.0000E+00  0.0000E+00  0.0000E+00  0.0000E+00
 32  0.0000E+00  1.0515E-05  3.4958E-06  0.0000E+00  2.4626E-05  0.0000E+00  0.0000E+00  0.0000E+00  0.0000E+00
 33  0.0000E+00  1.3859E-05  0.0000E+00  0.0000E+00  0.0000E+00  0.0000E+00  0.0000E+00  2.5425E-05  0.0000E+00
