###################################################################
## OUTPUT of StarlightChains_v04.for    [Cid@UFSC - 01/Apr/2007] ##
###################################################################

## Some input info
NGC6569_a_1.cxt                          [arq_obs]
Base.BC03.N                              [arq_base]
NGC6569_a_1.msk                          [arq_masks]
StCv04.C99.config                        [arq_config]
   45                                    [N_base]
    0                                    [N_YAV_components = # of components with extra extinction!]
    0                                    [i_FitPowerLaw (1/0 = Yes/No)]
-9.99                                    [alpha_PowerLaw]
CCM                                      [red_law_option]
 1.458241                                [q_norm = A(l_norm)/A(V)]

## (Re)Sampling Parameters
 3359.00                                 [l_ini (A)]
 6428.00                                 [l_fin (A)]
    1.00                                 [dl    (A)]     (OBS: dl_cushion =    50.00 A)

## Normalization info
 4020.00                                 [l_norm (A) - for base]
 4010.00                                 [llow_norm (A) - window for f_obs]
 4060.00                                 [lupp_norm (A) - window for f_obs]
3.450800E-15                             [fobs_norm (in input units)]

## S/N
 4730.00                                 [llow_SN (A) - window for S/N]
 4780.00                                 [lupp_SN (A) - window for S/N]
  49.160                                 [S/N in S/N window]
  30.918                                 [S/N in norm. window]
 207.538                                 [S/N_err in S/N window]
 130.528                                 [S/N_err in norm. window]
  1.0000                                 [fscale_chi2]

## etc...
  2147483598                             [idum_orig]
  3069                                   [NOl_eff]
   720                                   [Nl_eff]
  2349    NSIGMA                         [Ntot_cliped & clip_method]
  1967280                                [Nglobal_steps]
   7                                     [N_chains]
  10                                     [NEX0s_base = N_base in EX0s-fits]
 0   0   1       50   2.0   3.259E+02    [Clip-Bug, RC-Crash & Burn-In warning-flags, n_censored_weights, wei_nsig_threshold & wei_limit]
    26     25.600     25.600      0.000  [idt_all, wdt_TotTime, wdt_UsrTime & wdt_SysTime (sec)]

## Synthesis Results - Best model ##

 2.93034E+00                             [chi2/Nl_eff]
     1.54390                             [adev (%)]

    98.38394                             [sum-of-x (%)]
 4.40487E-14                             [Flux_tot (units of input spectrum!)]
 9.49815E-10                             [Mini_tot (???)]
 4.87381E-10                             [Mcor_tot (???)]

 -13.70                                  [v0_min  (km/s)]
  23.29                                  [vd_min  (km/s)]
 1.9083                                  [AV_min  (mag)]
 0.0000                                  [YAV_min (mag)]

# j     x_j(%)      Mini_j(%)     Mcor_j(%)     age_j(yr)     Z_j      (L/M)_j    YAV?  Mstars   component_j        a/Fe...       SSP_chi2r SSP_adev(%)   SSP_AV   SSP_x(%)
  1      0.0000     0.0000E+00    0.0000E+00    1.000000E+06  0.00400  1.114E-02    0   1.0000   age020_m42            0.0000     3.5997E+03    32.1636   4.0000   104.5473
  2     12.7729     1.4782E-02    2.8805E-02    3.160000E+06  0.00400  4.073E-02    0   0.9999   age045_m42            0.0000     3.6368E+02     9.7133   4.0000   101.2142
  3      1.0969     2.0404E-03    3.7728E-03    5.010000E+06  0.00400  2.534E-02    0   0.9488   age055_m42            0.0000     1.1811E+03    19.1615   4.0000   104.0940
  4     10.3057     3.8221E-02    6.6009E-02    1.000000E+07  0.00400  1.271E-02    0   0.8862   age070_m42            0.0000     1.7626E+02     8.0629   3.8552    92.1559
  5      1.2073     1.1225E-02    1.7881E-02    2.512000E+07  0.00400  5.070E-03    0   0.8174   age090_m42            0.0000     1.5125E+02     7.4192   3.7296    93.7446
  6      0.0000     0.0000E+00    0.0000E+00    4.000000E+07  0.00400  3.505E-03    0   0.7851   age104_m42            0.0000     1.0584E+02     5.8039   3.4413    96.1485
  7      0.0000     0.0000E+00    0.0000E+00    1.015200E+08  0.00400  2.268E-03    0   0.7207   age116_m42            0.0000     4.8257E+02    10.9443   3.5683   101.3940
  8      0.0000     0.0000E+00    0.0000E+00    2.861200E+08  0.00400  1.079E-03    0   0.6613   age125_m42            0.0000     5.2739E+02    11.7663   3.0853   103.0335
  9      0.0000     0.0000E+00    0.0000E+00    6.405400E+08  0.00400  5.077E-04    0   0.6197   age132_m42            0.0000     5.5306E+02    12.4297   2.7214   107.0161
 10      0.0000     0.0000E+00    0.0000E+00    9.047900E+08  0.00400  3.535E-04    0   0.6024   age135_m42            0.0000     3.9969E+02    10.7423   2.4716   106.7668
 11      0.0000     0.0000E+00    0.0000E+00    1.434000E+09  0.00400  1.910E-04    0   0.5716   age139_m42            0.0000     2.3814E+02     8.6389   1.9431   106.2015
 12      1.3428     6.4471E-01    6.8638E-01    2.500000E+09  0.00400  9.818E-05    0   0.5463   age150_m42            0.0000     1.2207E+02     6.5352   1.6444   102.6032
 13     55.5476     5.5498E+01    5.6544E+01    5.000000E+09  0.00400  4.718E-05    0   0.5228   age161_m42            0.0000     8.5865E+01     5.6213   1.4561   100.1407
 14      7.2401     1.5478E+01    1.5021E+01    1.100000E+10  0.00400  2.205E-05    0   0.4980   age185_m42            0.0000     1.4653E+02     6.8581   1.1907    98.5267
 15      1.3867     3.4714E+00    3.3332E+00    1.300000E+10  0.00400  1.883E-05    0   0.4927   age193_m42            0.0000     1.5600E+02     7.0424   1.1715    98.4942
 16      0.0000     0.0000E+00    0.0000E+00    1.000000E+06  0.02000  1.989E-02    0   1.0000   age020_m62            0.0000     3.3857E+03    31.2199   4.0000   105.0117
 17      0.0000     0.0000E+00    0.0000E+00    3.160000E+06  0.02000  3.772E-02    0   0.9858   age045_m62            0.0000     2.6775E+03    28.4125   4.0000   105.7270
 18      4.6831     6.8407E-03    1.2454E-02    5.010000E+06  0.02000  3.227E-02    0   0.9342   age055_m62            0.0000     8.1408E+02    15.7166   4.0000   104.1633
 19      0.0000     0.0000E+00    0.0000E+00    1.000000E+07  0.02000  1.011E-02    0   0.8751   age070_m62            0.0000     4.1623E+02    12.9974   3.8004    90.3164
 20      0.0000     0.0000E+00    0.0000E+00    2.512000E+07  0.02000  4.206E-03    0   0.8099   age090_m62            0.0000     2.6879E+02    10.6937   3.7597    90.5826
 21      0.0000     0.0000E+00    0.0000E+00    4.000000E+07  0.02000  3.373E-03    0   0.7799   age104_m62            0.0000     1.5180E+02     6.2035   3.6594    97.1982
 22      0.0000     0.0000E+00    0.0000E+00    1.015200E+08  0.02000  1.878E-03    0   0.7221   age116_m62            0.0000     4.1809E+02    10.1654   3.5683   102.6084
 23      0.0000     0.0000E+00    0.0000E+00    2.861200E+08  0.02000  8.869E-04    0   0.6700   age125_m62            0.0000     7.7895E+02    14.3430   3.1190   107.4614
 24      0.0000     0.0000E+00    0.0000E+00    6.405400E+08  0.02000  3.657E-04    0   0.6322   age132_m62            0.0000     6.1119E+02    13.1561   2.4538   110.4571
 25      0.0000     0.0000E+00    0.0000E+00    9.047900E+08  0.02000  2.312E-04    0   0.6152   age135_m62            0.0000     4.1744E+02    11.0376   2.0687   110.0820
 26      0.0000     0.0000E+00    0.0000E+00    1.434000E+09  0.02000  1.168E-04    0   0.5865   age139_m62            0.0000     2.0686E+02     8.0645   1.6156   105.9779
 27      0.0000     0.0000E+00    0.0000E+00    2.500000E+09  0.02000  5.505E-05    0   0.5610   age150_m62            0.0000     2.1628E+02     8.3304   1.2342   103.9109
 28      0.0000     0.0000E+00    0.0000E+00    5.000000E+09  0.02000  2.596E-05    0   0.5353   age161_m62            0.0000     3.8189E+02    10.5878   0.9095   104.1728
 29      0.0000     0.0000E+00    0.0000E+00    1.100000E+10  0.02000  1.169E-05    0   0.5103   age185_m62            0.0000     6.1428E+02    13.0157   0.5593   105.6512
 30      0.0000     0.0000E+00    0.0000E+00    1.300000E+10  0.02000  9.691E-06    0   0.5047   age193_m62            0.0000     6.5720E+02    13.4128   0.5152   105.9102
 31      0.0000     0.0000E+00    0.0000E+00    1.000000E+06  0.05000  2.651E-02    0   0.9998   age020_m72            0.0000     3.3784E+03    30.9254   4.0000   106.1578
 32      0.0000     0.0000E+00    0.0000E+00    3.160000E+06  0.05000  4.817E-02    0   0.9577   age045_m72            0.0000     2.0243E+03    24.4334   4.0000   107.1440
 33      0.0000     0.0000E+00    0.0000E+00    5.010000E+06  0.05000  3.101E-02    0   0.9147   age055_m72            0.0000     7.9502E+02    16.6882   4.0000   102.5914
 34      0.0000     0.0000E+00    0.0000E+00    1.000000E+07  0.05000  8.954E-03    0   0.8524   age070_m72            0.0000     1.4551E+03    21.4288   4.0000   106.2924
 35      0.0000     0.0000E+00    0.0000E+00    2.512000E+07  0.05000  4.207E-03    0   0.7902   age090_m72            0.0000     3.9683E+02    11.3141   4.0000   102.3593
 36      0.0000     0.0000E+00    0.0000E+00    4.000000E+07  0.05000  3.198E-03    0   0.7618   age104_m72            0.0000     2.8862E+02     8.0993   3.9105    99.1382
 37      0.0000     0.0000E+00    0.0000E+00    1.015200E+08  0.05000  1.716E-03    0   0.7092   age116_m72            0.0000     4.9060E+02    10.9731   3.6642   102.4185
 38      0.0000     0.0000E+00    0.0000E+00    2.861200E+08  0.05000  7.047E-04    0   0.6618   age125_m72            0.0000     7.6067E+02    14.3085   2.9284   107.6241
 39      0.0000     0.0000E+00    0.0000E+00    6.405400E+08  0.05000  2.633E-04    0   0.6253   age132_m72            0.0000     5.0809E+02    12.1610   2.0916   109.8174
 40      0.0000     0.0000E+00    0.0000E+00    9.047900E+08  0.05000  1.484E-04    0   0.6088   age135_m72            0.0000     3.1911E+02    10.1821   1.5859   105.9986
 41      0.0000     0.0000E+00    0.0000E+00    1.434000E+09  0.05000  7.827E-05    0   0.5847   age139_m72            0.0000     3.2099E+02    10.2131   1.1794   103.5052
 42      0.0000     0.0000E+00    0.0000E+00    2.500000E+09  0.05000  3.759E-05    0   0.5583   age150_m72            0.0000     4.2455E+02    11.2403   0.8449   103.4927
 43      0.0000     0.0000E+00    0.0000E+00    5.000000E+09  0.05000  1.548E-05    0   0.5320   age161_m72            0.0000     6.2274E+02    12.8591   0.4356   103.6043
 44      0.0000     0.0000E+00    0.0000E+00    1.100000E+10  0.05000  6.532E-06    0   0.5070   age185_m72            0.0000     9.2515E+02    15.4622   0.0880   103.0719
 45      2.8008     2.4835E+01    2.4286E+01    1.300000E+10  0.05000  5.316E-06    0   0.5018   age193_m72            0.0000     1.0574E+03    16.5790  -0.0135   102.8383


## Synthesis Results - Average & Chains ##

# j      x_j: min, <> & last-chain-values for 1 ...  7 chains
  1      0.0000      0.0348      0.0188      0.0210      0.0000      0.1382      0.0000      0.0000      0.0474
  2     12.7729     12.2647     12.4412     12.4365     12.2917     12.5545     12.3427     12.4303     12.1573
  3      1.0969      0.9133      0.9371      0.9601      0.8892      0.9471      0.9037      1.0725      0.9544
  4     10.3057     10.1258     10.1405     10.2506     10.1405      9.9500     10.2385     10.2239     10.2276
  5      1.2073      1.6446      1.6444      1.7496      1.6394      1.4624      1.7569      1.3303      1.6121
  6      0.0000      0.0283      0.0000      0.0000      0.0000      0.0000      0.0000      0.0000      0.0000
  7      0.0000      0.0130      0.0000      0.0000      0.0000      0.0000      0.0000      0.0000      0.0000
  8      0.0000      0.0135      0.0000      0.0000      0.0097      0.0171      0.0000      0.0000      0.0000
  9      0.0000      0.0273      0.0416      0.0000      0.0784      0.0782      0.0000      0.0000      0.0000
 10      0.0000      0.0496      0.0000      0.0000      0.0000      0.1750      0.0000      0.0000      0.1261
 11      0.0000      0.0750      0.0000      0.0000      0.0000      0.0000      0.0499      0.0000      0.0000
 12      1.3428      1.9456      2.0462      1.9680      1.9511      2.2052      2.0380      2.0367      2.4580
 13     55.5476     52.2040     52.6595     52.7064     53.0790     52.4086     52.2552     52.2496     52.1461
 14      7.2401      7.5628      7.5610      7.5376      7.6916      7.0511      7.4103      7.7387      7.5937
 15      1.3867      2.6063      2.1886      1.9233      2.3614      2.5994      2.4486      2.1147      2.4381
 16      0.0000      0.0161      0.0000      0.0050      0.0000      0.0000      0.0000      0.0000      0.0000
 17      0.0000      0.0266      0.0000      0.0000      0.0679      0.1388      0.0538      0.0000      0.0000
 18      4.6831      4.6966      4.7236      4.6249      4.7113      4.7841      4.7206      4.7349      4.6514
 19      0.0000      0.0762      0.1017      0.0116      0.2192      0.0000      0.0675      0.0000      0.1608
 20      0.0000      0.0309      0.0000      0.0000      0.0000      0.0000      0.0000      0.0110      0.0618
 21      0.0000      0.0257      0.0000      0.0000      0.0000      0.0000      0.0000      0.0000      0.0000
 22      0.0000      0.0159      0.0000      0.0000      0.0000      0.0000      0.0000      0.0221      0.0000
 23      0.0000      0.0111      0.0000      0.0000      0.0000      0.0000      0.0000      0.0000      0.0000
 24      0.0000      0.0181      0.0000      0.0000      0.0000      0.0000      0.0000      0.0000      0.0000
 25      0.0000      0.0352      0.0000      0.0333      0.0226      0.0000      0.0000      0.0000      0.0000
 26      0.0000      0.1175      0.1241      0.0000      0.0000      0.0000      0.1369      0.3189      0.0181
 27      0.0000      0.2329      0.3523      0.3564      0.1602      0.3161      0.5448      0.5696      0.4160
 28      0.0000      0.2112      0.2771      0.1824      0.1658      0.4275      0.3087      0.1662      0.2477
 29      0.0000      0.0635      0.0922      0.0000      0.0000      0.1175      0.0000      0.0553      0.0000
 30      0.0000      0.0235      0.1327      0.0133      0.0000      0.0000      0.0986      0.0000      0.0000
 31      0.0000      0.0269      0.0000      0.0000      0.0000      0.0000      0.0000      0.0000      0.0000
 32      0.0000      0.0381      0.1446      0.0202      0.0000      0.0386      0.0000      0.0439      0.0000
 33      0.0000      0.0780      0.0000      0.1689      0.1187      0.0735      0.1618      0.2765      0.0000
 34      0.0000      0.0350      0.0000      0.0000      0.0000      0.0000      0.0000      0.0000      0.1668
 35      0.0000      0.0197      0.0000      0.0000      0.0000      0.0000      0.0000      0.0000      0.0000
 36      0.0000      0.0151      0.0000      0.0000      0.0000      0.0000      0.0000      0.0000      0.0000
 37      0.0000      0.0127      0.0000      0.0000      0.0000      0.0000      0.0507      0.0000      0.0508
 38      0.0000      0.0123      0.0000      0.0115      0.0000      0.0097      0.0000      0.0398      0.0000
 39      0.0000      0.0293      0.0000      0.0506      0.0000      0.0000      0.0177      0.0000      0.0148
 40      0.0000      0.0553      0.0000      0.0000      0.0000      0.0000      0.0000      0.0000      0.0076
 41      0.0000      0.1060      0.0456      0.1696      0.0000      0.0000      0.0819      0.0000      0.1325
 42      0.0000      0.0885      0.0000      0.4514      0.0000      0.0837      0.0000      0.2208      0.0000
 43      0.0000      0.0203      0.0311      0.0000      0.0000      0.0911      0.0000      0.0000      0.0586
 44      0.0000      0.0331      0.0000      0.0000      0.1347      0.0000      0.0000      0.0000      0.0000
 45      2.8008      2.7864      2.7653      2.8146      2.6832      2.7739      2.7737      2.7964      2.6906

# j      m_j: min, <> & last-chain-values for 1 ...  7 chains
  1  0.0000E+00  2.8096E-04  1.5255E-04  1.7155E-04  0.0000E+00  1.1220E-03  0.0000E+00  0.0000E+00  3.8835E-04
  2  2.8805E-02  2.7118E-02  2.7572E-02  2.7781E-02  2.7310E-02  2.7880E-02  2.7454E-02  2.7682E-02  2.7256E-02
  3  3.7728E-03  3.0798E-03  3.1674E-03  3.2710E-03  3.0131E-03  3.2079E-03  3.0657E-03  3.6427E-03  3.2633E-03
  4  6.6009E-02  6.3589E-02  6.3827E-02  6.5034E-02  6.3989E-02  6.2756E-02  6.4681E-02  6.4665E-02  6.5124E-02
  5  1.7881E-02  2.3881E-02  2.3933E-02  2.5666E-02  2.3920E-02  2.1327E-02  2.5664E-02  1.9456E-02  2.3735E-02
  6  0.0000E+00  5.7044E-04  0.0000E+00  0.0000E+00  0.0000E+00  0.0000E+00  0.0000E+00  0.0000E+00  0.0000E+00
  7  0.0000E+00  3.7174E-04  0.0000E+00  0.0000E+00  0.0000E+00  0.0000E+00  0.0000E+00  0.0000E+00  0.0000E+00
  8  0.0000E+00  7.4399E-04  0.0000E+00  0.0000E+00  5.3621E-04  9.4961E-04  0.0000E+00  0.0000E+00  0.0000E+00
  9  0.0000E+00  3.0005E-03  4.5854E-03  0.0000E+00  8.6592E-03  8.6346E-03  0.0000E+00  0.0000E+00  0.0000E+00
 10  0.0000E+00  7.6110E-03  0.0000E+00  0.0000E+00  0.0000E+00  2.6980E-02  0.0000E+00  0.0000E+00  1.9628E-02
 11  0.0000E+00  2.0225E-02  0.0000E+00  0.0000E+00  0.0000E+00  0.0000E+00  1.3535E-02  0.0000E+00  0.0000E+00
 12  6.8638E-01  9.7506E-01  1.0278E+00  9.9644E-01  9.8256E-01  1.1099E+00  1.0275E+00  1.0280E+00  1.2490E+00
 13  5.6544E+01  5.2101E+01  5.2676E+01  5.3143E+01  5.3231E+01  5.2532E+01  5.2464E+01  5.2520E+01  5.2769E+01
 14  1.5021E+01  1.5384E+01  1.5416E+01  1.5490E+01  1.5722E+01  1.4405E+01  1.5164E+01  1.5855E+01  1.5662E+01
 15  3.3332E+00  6.1422E+00  5.1696E+00  4.5792E+00  5.5920E+00  6.1523E+00  5.8052E+00  5.0195E+00  5.8260E+00
 16  0.0000E+00  7.2952E-05  0.0000E+00  2.2722E-05  0.0000E+00  0.0000E+00  0.0000E+00  0.0000E+00  0.0000E+00
 17  0.0000E+00  6.2524E-05  0.0000E+00  0.0000E+00  1.6061E-04  3.2804E-04  1.2737E-04  0.0000E+00  0.0000E+00
 18  1.2454E-02  1.2246E-02  1.2344E-02  1.2183E-02  1.2344E-02  1.2528E-02  1.2382E-02  1.2434E-02  1.2297E-02
 19  0.0000E+00  5.9376E-04  7.9494E-04  9.1569E-05  1.7169E-03  0.0000E+00  5.2915E-04  0.0000E+00  1.2713E-03
 20  0.0000E+00  5.3647E-04  0.0000E+00  0.0000E+00  0.0000E+00  0.0000E+00  0.0000E+00  1.9130E-04  1.0875E-03
 21  0.0000E+00  5.3608E-04  0.0000E+00  0.0000E+00  0.0000E+00  0.0000E+00  0.0000E+00  0.0000E+00  0.0000E+00
 22  0.0000E+00  5.4982E-04  0.0000E+00  0.0000E+00  0.0000E+00  0.0000E+00  0.0000E+00  7.6995E-04  0.0000E+00
 23  0.0000E+00  7.5563E-04  0.0000E+00  0.0000E+00  0.0000E+00  0.0000E+00  0.0000E+00  0.0000E+00  0.0000E+00
 24  0.0000E+00  2.8214E-03  0.0000E+00  0.0000E+00  0.0000E+00  0.0000E+00  0.0000E+00  0.0000E+00  0.0000E+00
 25  0.0000E+00  8.4306E-03  0.0000E+00  8.0727E-03  5.4330E-03  0.0000E+00  0.0000E+00  0.0000E+00  0.0000E+00
 26  0.0000E+00  5.3131E-02  5.6233E-02  0.0000E+00  0.0000E+00  0.0000E+00  6.2303E-02  1.4526E-01  8.2940E-03
 27  0.0000E+00  2.1378E-01  3.2406E-01  3.3046E-01  1.4776E-01  2.9140E-01  5.0301E-01  5.2658E-01  3.8711E-01
 28  0.0000E+00  3.9228E-01  5.1585E-01  3.4221E-01  3.0932E-01  7.9743E-01  5.7680E-01  3.1079E-01  4.6640E-01
 29  0.0000E+00  2.4951E-01  3.6348E-01  0.0000E+00  0.0000E+00  4.6417E-01  0.0000E+00  2.1896E-01  0.0000E+00
 30  0.0000E+00  1.1011E-01  6.2376E-01  6.2830E-02  0.0000E+00  0.0000E+00  4.6506E-01  0.0000E+00  0.0000E+00
 31  0.0000E+00  9.1260E-05  0.0000E+00  0.0000E+00  0.0000E+00  0.0000E+00  0.0000E+00  0.0000E+00  0.0000E+00
 32  0.0000E+00  6.8206E-05  2.5944E-04  3.6535E-05  0.0000E+00  6.9460E-05  0.0000E+00  7.9224E-05  0.0000E+00
 33  0.0000E+00  2.0723E-04  0.0000E+00  4.5320E-04  3.1699E-04  1.9614E-04  4.3247E-04  7.3981E-04  0.0000E+00
