###################################################################
## OUTPUT of StarlightChains_v04.for    [Cid@UFSC - 01/Apr/2007] ##
###################################################################

## Some input info
NGC6254_a_1.cxt                          [arq_obs]
Base.BC03.N                              [arq_base]
NGC6254_a_1.msk                          [arq_masks]
StCv04.C99.config                        [arq_config]
   45                                    [N_base]
    0                                    [N_YAV_components = # of components with extra extinction!]
    0                                    [i_FitPowerLaw (1/0 = Yes/No)]
-9.99                                    [alpha_PowerLaw]
CCM                                      [red_law_option]
 1.458241                                [q_norm = A(l_norm)/A(V)]

## (Re)Sampling Parameters
 3359.00                                 [l_ini (A)]
 6428.00                                 [l_fin (A)]
    1.00                                 [dl    (A)]     (OBS: dl_cushion =    50.00 A)

## Normalization info
 4020.00                                 [l_norm (A) - for base]
 4010.00                                 [llow_norm (A) - window for f_obs]
 4060.00                                 [lupp_norm (A) - window for f_obs]
2.492239E-14                             [fobs_norm (in input units)]

## S/N
 4730.00                                 [llow_SN (A) - window for S/N]
 4780.00                                 [lupp_SN (A) - window for S/N]
 102.867                                 [S/N in S/N window]
  85.513                                 [S/N in norm. window]
 113.249                                 [S/N_err in S/N window]
  94.144                                 [S/N_err in norm. window]
  1.0000                                 [fscale_chi2]

## etc...
  2147483623                             [idum_orig]
  3068                                   [NOl_eff]
  1429                                   [Nl_eff]
  1639    NSIGMA                         [Ntot_cliped & clip_method]
  1716680                                [Nglobal_steps]
   7                                     [N_chains]
  10                                     [NEX0s_base = N_base in EX0s-fits]
 0   0   1      142   2.0   2.178E+02    [Clip-Bug, RC-Crash & Burn-In warning-flags, n_censored_weights, wei_nsig_threshold & wei_limit]
    24     23.984     23.984      0.000  [idt_all, wdt_TotTime, wdt_UsrTime & wdt_SysTime (sec)]

## Synthesis Results - Best model ##

 2.53794E+00                             [chi2/Nl_eff]
     1.68704                             [adev (%)]

   102.99325                             [sum-of-x (%)]
 1.04117E-13                             [Flux_tot (units of input spectrum!)]
 7.98231E-10                             [Mini_tot (???)]
 4.34569E-10                             [Mcor_tot (???)]

  -8.86                                  [v0_min  (km/s)]
 112.14                                  [vd_min  (km/s)]
 1.0426                                  [AV_min  (mag)]
 0.0000                                  [YAV_min (mag)]

# j     x_j(%)      Mini_j(%)     Mcor_j(%)     age_j(yr)     Z_j      (L/M)_j    YAV?  Mstars   component_j        a/Fe...       SSP_chi2r SSP_adev(%)   SSP_AV   SSP_x(%)
  1      0.0000     0.0000E+00    0.0000E+00    1.000000E+06  0.00400  1.114E-02    0   1.0000   age020_m42            0.0000     1.7035E+02    10.7185   4.0000    81.0209
  2     15.1403     4.7077E-02    8.6463E-02    3.160000E+06  0.00400  4.073E-02    0   0.9999   age045_m42            0.0000     2.5909E+01     4.4290   3.0587    95.0825
  3      0.0000     0.0000E+00    0.0000E+00    5.010000E+06  0.00400  2.534E-02    0   0.9488   age055_m42            0.0000     7.4395E+01     7.4569   3.4701    88.4265
  4     13.4216     1.3373E-01    2.1769E-01    1.000000E+07  0.00400  1.271E-02    0   0.8862   age070_m42            0.0000     6.3880E+01     7.3330   2.6940    92.1789
  5      0.0000     0.0000E+00    0.0000E+00    2.512000E+07  0.00400  5.070E-03    0   0.8174   age090_m42            0.0000     5.3533E+01     6.7547   2.5647    93.7720
  6      0.0000     0.0000E+00    0.0000E+00    4.000000E+07  0.00400  3.505E-03    0   0.7851   age104_m42            0.0000     2.8334E+01     4.9345   2.2432    96.9651
  7      4.6887     2.6181E-01    3.4659E-01    1.015200E+08  0.00400  2.268E-03    0   0.7207   age116_m42            0.0000     1.5070E+02     7.6378   2.2203   106.8874
  8      0.0000     0.0000E+00    0.0000E+00    2.861200E+08  0.00400  1.079E-03    0   0.6613   age125_m42            0.0000     1.6957E+02     8.5842   1.7280   108.9765
  9      2.4663     6.1520E-01    7.0028E-01    6.405400E+08  0.00400  5.077E-04    0   0.6197   age132_m42            0.0000     1.8252E+02     8.9638   1.3675   113.0833
 10     16.6466     5.9638E+00    6.5990E+00    9.047900E+08  0.00400  3.535E-04    0   0.6024   age135_m42            0.0000     1.1321E+02     7.3531   1.1286   112.2709
 11      0.0000     0.0000E+00    0.0000E+00    1.434000E+09  0.00400  1.910E-04    0   0.5716   age139_m42            0.0000     5.8160E+01     5.9381   0.6013   110.9457
 12     29.6899     3.8297E+01    3.8430E+01    2.500000E+09  0.00400  9.818E-05    0   0.5463   age150_m42            0.0000     3.2766E+01     4.7083   0.3276   106.0480
 13     12.6307     3.3904E+01    3.2558E+01    5.000000E+09  0.00400  4.718E-05    0   0.5228   age161_m42            0.0000     4.2347E+01     4.9048   0.1662   102.4422
 14      0.0000     0.0000E+00    0.0000E+00    1.100000E+10  0.00400  2.205E-05    0   0.4980   age185_m42            0.0000     8.8158E+01     6.6263  -0.0952   100.1807
 15      0.0000     0.0000E+00    0.0000E+00    1.300000E+10  0.00400  1.883E-05    0   0.4927   age193_m42            0.0000     9.5652E+01     6.8733  -0.1115    99.9962
 16      0.0000     0.0000E+00    0.0000E+00    1.000000E+06  0.02000  1.989E-02    0   1.0000   age020_m62            0.0000     1.7306E+02    10.7115   3.9923    81.1525
 17      0.0000     0.0000E+00    0.0000E+00    3.160000E+06  0.02000  3.772E-02    0   0.9858   age045_m62            0.0000     1.5191E+02    10.2446   3.8515    83.4018
 18      1.9122     7.5044E-03    1.2877E-02    5.010000E+06  0.02000  3.227E-02    0   0.9342   age055_m62            0.0000     4.7923E+01     5.9981   3.3244    91.4318
 19      0.0000     0.0000E+00    0.0000E+00    1.000000E+07  0.02000  1.011E-02    0   0.8751   age070_m62            0.0000     1.8172E+02    12.0416   2.7324    88.0171
 20      0.0000     0.0000E+00    0.0000E+00    2.512000E+07  0.02000  4.206E-03    0   0.8099   age090_m62            0.0000     1.2348E+02     9.9760   2.6534    89.2225
 21      0.0000     0.0000E+00    0.0000E+00    4.000000E+07  0.02000  3.373E-03    0   0.7799   age104_m62            0.0000     3.2496E+01     4.6950   2.4524    98.4592
 22      0.0000     0.0000E+00    0.0000E+00    1.015200E+08  0.02000  1.878E-03    0   0.7221   age116_m62            0.0000     1.2426E+02     6.5681   2.2542   107.0476
 23      0.0000     0.0000E+00    0.0000E+00    2.861200E+08  0.02000  8.869E-04    0   0.6700   age125_m62            0.0000     2.9477E+02    11.1834   1.7353   114.2254
 24      0.0000     0.0000E+00    0.0000E+00    6.405400E+08  0.02000  3.657E-04    0   0.6322   age132_m62            0.0000     1.9901E+02    10.1676   1.0423   118.0585
 25      0.0000     0.0000E+00    0.0000E+00    9.047900E+08  0.02000  2.312E-04    0   0.6152   age135_m62            0.0000     1.1438E+02     8.1768   0.6684   117.0022
 26      0.0000     0.0000E+00    0.0000E+00    1.434000E+09  0.02000  1.168E-04    0   0.5865   age139_m62            0.0000     5.0011E+01     5.7334   0.2598   110.6390
 27      0.0000     0.0000E+00    0.0000E+00    2.500000E+09  0.02000  5.505E-05    0   0.5610   age150_m62            0.0000     7.6350E+01     6.6691  -0.1102   107.4595
 28      0.0000     0.0000E+00    0.0000E+00    5.000000E+09  0.02000  2.596E-05    0   0.5353   age161_m62            0.0000     1.4858E+02     8.8282  -0.4448   107.4071
 29      0.0000     0.0000E+00    0.0000E+00    1.100000E+10  0.02000  1.169E-05    0   0.5103   age185_m62            0.0000     2.3721E+02    10.9161  -0.8158   109.0084
 30      0.0000     0.0000E+00    0.0000E+00    1.300000E+10  0.02000  9.691E-06    0   0.5047   age193_m62            0.0000     2.5516E+02    11.2790  -0.8625   109.2603
 31      0.0000     0.0000E+00    0.0000E+00    1.000000E+06  0.05000  2.651E-02    0   0.9998   age020_m72            0.0000     1.6097E+02    10.2266   3.9941    82.0434
 32      0.0000     0.0000E+00    0.0000E+00    3.160000E+06  0.05000  4.817E-02    0   0.9577   age045_m72            0.0000     1.0146E+02     8.4355   3.7055    86.7990
 33      0.0000     0.0000E+00    0.0000E+00    5.010000E+06  0.05000  3.101E-02    0   0.9147   age055_m72            0.0000     8.7629E+01     8.0219   3.3532    89.4206
 34      0.0000     0.0000E+00    0.0000E+00    1.000000E+07  0.05000  8.954E-03    0   0.8524   age070_m72            0.0000     9.7711E+01     8.1129   3.5921    87.9243
 35      0.0000     0.0000E+00    0.0000E+00    2.512000E+07  0.05000  4.207E-03    0   0.7902   age090_m72            0.0000     4.0845E+01     5.3215   3.1515    93.8306
 36      0.0000     0.0000E+00    0.0000E+00    4.000000E+07  0.05000  3.198E-03    0   0.7618   age104_m72            0.0000     6.4847E+01     4.7943   2.6283   102.5739
 37      0.0000     0.0000E+00    0.0000E+00    1.015200E+08  0.05000  1.716E-03    0   0.7092   age116_m72            0.0000     1.5372E+02     7.4805   2.3423   107.2601
 38      0.0000     0.0000E+00    0.0000E+00    2.861200E+08  0.05000  7.047E-04    0   0.6618   age125_m72            0.0000     2.8373E+02    11.3916   1.5219   114.9851
 39      0.0000     0.0000E+00    0.0000E+00    6.405400E+08  0.05000  2.633E-04    0   0.6253   age132_m72            0.0000     1.5429E+02     9.3457   0.6600   117.6432
 40      0.0000     0.0000E+00    0.0000E+00    9.047900E+08  0.05000  1.484E-04    0   0.6088   age135_m72            0.0000     8.3683E+01     7.4526   0.1824   112.0379
 41      4.8094     7.7818E+00    8.3577E+00    1.434000E+09  0.05000  7.827E-05    0   0.5847   age139_m72            0.0000     1.0811E+02     7.9066  -0.2059   108.1885
 42      0.0000     0.0000E+00    0.0000E+00    2.500000E+09  0.05000  3.759E-05    0   0.5583   age150_m72            0.0000     1.6234E+02     9.2439  -0.5252   107.1736
 43      1.5875     1.2988E+01    1.2692E+01    5.000000E+09  0.05000  1.548E-05    0   0.5320   age161_m72            0.0000     2.4347E+02    10.9676  -0.9426   106.9751
 44      0.0000     0.0000E+00    0.0000E+00    1.100000E+10  0.05000  6.532E-06    0   0.5070   age185_m72            0.0000     4.0665E+02    14.0040  -1.0000    99.0144
 45      0.0000     0.0000E+00    0.0000E+00    1.300000E+10  0.05000  5.316E-06    0   0.5018   age193_m72            0.0000     4.9991E+02    15.8661  -1.0000    96.0604


## Synthesis Results - Average & Chains ##

# j      x_j: min, <> & last-chain-values for 1 ...  7 chains
  1      0.0000      0.0110      0.0000      0.0000      0.0000      0.0000      0.0000      0.0000      0.0000
  2     15.1403      8.0452      8.4916      8.2404      8.2411      8.7425      8.5680      8.1252      8.5931
  3      0.0000      0.0461      0.0000      0.0000      0.0000      0.0000      0.0000      0.0000      0.0000
  4     13.4216     16.2986     16.1560     16.5020     16.3730     16.1891     16.3778     16.3202     16.5963
  5      0.0000      0.0812      0.0000      0.2023      0.3438      0.0801      0.0396      0.0000      0.0000
  6      0.0000      0.0308      0.0000      0.0000      0.0000      0.0000      0.0000      0.0000      0.0000
  7      4.6887      3.3200      4.2203      3.4897      3.4445      3.5625      4.2023      3.4223      3.5235
  8      0.0000      0.1463      0.0000      0.4851      0.4480      0.0000      0.2097      0.0770      0.3058
  9      2.4663      3.8533      3.3637      3.9443      3.5633      3.7791      3.0710      3.9597      3.6589
 10     16.6466     16.2091     16.3871     16.1805     16.7666     16.0843     16.2483     16.2644     15.9321
 11      0.0000      0.1091      0.0000      0.0139      0.0000      0.2001      0.0000      0.0000      0.0401
 12     29.6899     32.2559     31.2013     32.1373     31.9951     32.3748     32.6514     32.2385     30.8996
 13     12.6307     15.6220     15.2570     15.1195     14.9881     15.4777     14.6528     15.5959     15.2737
 14      0.0000      0.0207      0.1320      0.0000      0.0000      0.0000      0.0000      0.0029      0.0000
 15      0.0000      0.0188      0.0000      0.0000      0.0000      0.0000      0.0000      0.0000      0.0000
 16      0.0000      0.0054      0.0000      0.0000      0.0000      0.0000      0.0000      0.0000      0.0000
 17      0.0000      0.0077      0.0000      0.0000      0.0025      0.0000      0.0000      0.0000      0.0000
 18      1.9122      3.7024      3.7531      3.7056      3.7265      3.6274      3.5714      3.9229      3.6357
 19      0.0000      0.0159      0.0161      0.0000      0.0000      0.0000      0.0000      0.0000      0.0000
 20      0.0000      0.0106      0.0000      0.0000      0.0307      0.0000      0.0000      0.0000      0.0000
 21      0.0000      0.0285      0.0000      0.0000      0.0199      0.0000      0.0000      0.0000      0.0000
 22      0.0000      0.0544      0.0000      0.0248      0.0000      0.0000      0.0000      0.0000      0.0000
 23      0.0000      0.0228      0.0000      0.0000      0.0000      0.0000      0.0000      0.0000      0.0000
 24      0.0000      0.0150      0.0000      0.0000      0.0000      0.0000      0.0000      0.0000      0.0000
 25      0.0000      0.0372      0.0000      0.0000      0.1294      0.0000      0.0000      0.0000      0.0066
 26      0.0000      0.0983      0.4323      0.0000      0.0000      0.0000      0.0000      0.0000      0.4226
 27      0.0000      0.1447      0.0000      0.0000      0.0305      0.0000      0.1299      0.0818      0.4862
 28      0.0000      0.0281      0.0000      0.0000      0.0000      0.0276      0.0000      0.0000      0.0000
 29      0.0000      0.0096      0.0000      0.0000      0.0000      0.0000      0.0000      0.0000      0.0000
 30      0.0000      0.0125      0.0000      0.0000      0.0000      0.0000      0.0000      0.0000      0.0000
 31      0.0000      0.0040      0.0000      0.0000      0.0000      0.0000      0.0000      0.0000      0.0000
 32      0.0000      0.0185      0.0000      0.0000      0.0000      0.0000      0.0000      0.0000      0.0000
 33      0.0000      0.0437      0.0212      0.0000      0.0000      0.0142      0.0000      0.1341      0.0000
 34      0.0000      0.0074      0.0000      0.0000      0.0056      0.0000      0.0000      0.0000      0.0000
 35      0.0000      0.0122      0.0000      0.0000      0.0000      0.0000      0.0681      0.0000      0.0000
 36      0.0000      0.0311      0.0173      0.0264      0.0809      0.0000      0.0000      0.0000      0.0000
 37      0.0000      0.1919      0.2000      0.0925      0.0000      0.2784      0.0448      0.0994      0.2145
 38      0.0000      0.0358      0.0000      0.0000      0.0000      0.0107      0.0000      0.0000      0.0000
 39      0.0000      0.0561      0.0000      0.0000      0.0000      0.1195      0.0000      0.0000      0.0000
 40      0.0000      0.1128      0.3917      0.0000      0.0509      0.0000      0.0000      0.3476      1.3054
 41      4.8094      0.4266      1.2016      0.9247      0.5298      0.5524      1.4031      0.8161      0.3902
 42      0.0000      0.2516      0.3953      0.2630      0.5850      0.2985      0.2699      0.2193      0.2471
 43      1.5875      0.9391      0.9217      1.1090      0.9528      0.8885      0.8890      0.9361      0.9557
 44      0.0000      0.2141      0.1645      0.1860      0.2419      0.2472      0.2415      0.0000      0.1433
 45      0.0000      0.3535      0.2765      0.3375      0.3938      0.3949      0.3171      0.3826      0.3449

# j      m_j: min, <> & last-chain-values for 1 ...  7 chains
  1  0.0000E+00  2.0519E-04  0.0000E+00  0.0000E+00  0.0000E+00  0.0000E+00  0.0000E+00  0.0000E+00  0.0000E+00
  2  8.6463E-02  4.0934E-02  4.4379E-02  4.2414E-02  4.1962E-02  4.4399E-02  4.4424E-02  4.2682E-02  4.4756E-02
  3  0.0000E+00  3.5810E-04  0.0000E+00  0.0000E+00  0.0000E+00  0.0000E+00  0.0000E+00  0.0000E+00  0.0000E+00
  4  2.1769E-01  2.3553E-01  2.3981E-01  2.4124E-01  2.3678E-01  2.3351E-01  2.4118E-01  2.4349E-01  2.4550E-01
  5  0.0000E+00  2.7144E-03  0.0000E+00  6.8390E-03  1.1495E-02  2.6716E-03  1.3493E-03  0.0000E+00  0.0000E+00
  6  0.0000E+00  1.4288E-03  0.0000E+00  0.0000E+00  0.0000E+00  0.0000E+00  0.0000E+00  0.0000E+00  0.0000E+00
  7  3.4659E-01  2.1865E-01  2.8550E-01  2.3250E-01  2.2702E-01  2.3419E-01  2.8203E-01  2.3269E-01  2.3754E-01
  8  0.0000E+00  1.8584E-02  0.0000E+00  6.2334E-02  5.6946E-02  0.0000E+00  2.7139E-02  1.0098E-02  3.9758E-02
  9  7.0028E-01  9.7478E-01  8.7404E-01  1.0094E+00  9.0211E-01  9.5423E-01  7.9167E-01  1.0342E+00  9.4751E-01
 10  6.5990E+00  5.7248E+00  5.9449E+00  5.7811E+00  5.9261E+00  5.6701E+00  5.8478E+00  5.9305E+00  5.7601E+00
 11  0.0000E+00  6.7682E-02  0.0000E+00  8.7177E-03  0.0000E+00  1.2391E-01  0.0000E+00  0.0000E+00  2.5447E-02
 12  3.8430E+01  3.7198E+01  3.6960E+01  3.7492E+01  3.6925E+01  3.7266E+01  3.8371E+01  3.8384E+01  3.6477E+01
 13  3.2558E+01  3.5877E+01  3.5991E+01  3.5126E+01  3.4447E+01  3.5479E+01  3.4292E+01  3.6979E+01  3.5907E+01
 14  0.0000E+00  9.6881E-02  6.3486E-01  0.0000E+00  0.0000E+00  0.0000E+00  0.0000E+00  1.4054E-02  0.0000E+00
 15  0.0000E+00  1.0197E-01  0.0000E+00  0.0000E+00  0.0000E+00  0.0000E+00  0.0000E+00  0.0000E+00  0.0000E+00
 16  0.0000E+00  5.6504E-05  0.0000E+00  0.0000E+00  0.0000E+00  0.0000E+00  0.0000E+00  0.0000E+00  0.0000E+00
 17  0.0000E+00  4.1924E-05  0.0000E+00  0.0000E+00  1.3368E-05  0.0000E+00  0.0000E+00  0.0000E+00  0.0000E+00
 18  1.2877E-02  2.2214E-02  2.3130E-02  2.2491E-02  2.2375E-02  2.1724E-02  2.1836E-02  2.4301E-02  2.2330E-02
 19  0.0000E+00  2.8478E-04  2.9628E-04  0.0000E+00  0.0000E+00  0.0000E+00  0.0000E+00  0.0000E+00  0.0000E+00
 20  0.0000E+00  4.2143E-04  0.0000E+00  0.0000E+00  1.2279E-03  0.0000E+00  0.0000E+00  0.0000E+00  0.0000E+00
 21  0.0000E+00  1.3638E-03  0.0000E+00  0.0000E+00  9.5468E-04  0.0000E+00  0.0000E+00  0.0000E+00  0.0000E+00
 22  0.0000E+00  4.3375E-03  0.0000E+00  1.9975E-03  0.0000E+00  0.0000E+00  0.0000E+00  0.0000E+00  0.0000E+00
 23  0.0000E+00  3.5700E-03  0.0000E+00  0.0000E+00  0.0000E+00  0.0000E+00  0.0000E+00  0.0000E+00  0.0000E+00
 24  0.0000E+00  5.3586E-03  0.0000E+00  0.0000E+00  0.0000E+00  0.0000E+00  0.0000E+00  0.0000E+00  0.0000E+00
 25  0.0000E+00  2.0505E-02  0.0000E+00  0.0000E+00  7.1416E-02  0.0000E+00  0.0000E+00  0.0000E+00  3.7386E-03
 26  0.0000E+00  1.0230E-01  4.6211E-01  0.0000E+00  0.0000E+00  0.0000E+00  0.0000E+00  0.0000E+00  4.5018E-01
 27  0.0000E+00  3.0552E-01  0.0000E+00  0.0000E+00  6.4411E-02  0.0000E+00  2.7948E-01  1.7846E-01  1.0512E+00
 28  0.0000E+00  1.1994E-01  0.0000E+00  0.0000E+00  0.0000E+00  1.1774E-01  0.0000E+00  0.0000E+00  0.0000E+00
 29  0.0000E+00  8.6965E-02  0.0000E+00  0.0000E+00  0.0000E+00  0.0000E+00  0.0000E+00  0.0000E+00  0.0000E+00
 30  0.0000E+00  1.3460E-01  0.0000E+00  0.0000E+00  0.0000E+00  0.0000E+00  0.0000E+00  0.0000E+00  0.0000E+00
 31  0.0000E+00  3.1096E-05  0.0000E+00  0.0000E+00  0.0000E+00  0.0000E+00  0.0000E+00  0.0000E+00  0.0000E+00
 32  0.0000E+00  7.6223E-05  0.0000E+00  0.0000E+00  0.0000E+00  0.0000E+00  0.0000E+00  0.0000E+00  0.0000E+00
 33  0.0000E+00  2.6705E-04  1.3299E-04  0.0000E+00  0.0000E+00  8.6404E-05  0.0000E+00  8.4641E-04  0.0000E+00
