###################################################################
## OUTPUT of StarlightChains_v04.for    [Cid@UFSC - 01/Apr/2007] ##
###################################################################

## Some input info
NGC6624_a_2.cxt                          [arq_obs]
Base.BC03.N                              [arq_base]
NGC6624_a_2.msk                          [arq_masks]
StCv04.C99.config                        [arq_config]
   45                                    [N_base]
    0                                    [N_YAV_components = # of components with extra extinction!]
    0                                    [i_FitPowerLaw (1/0 = Yes/No)]
-9.99                                    [alpha_PowerLaw]
CCM                                      [red_law_option]
 1.458241                                [q_norm = A(l_norm)/A(V)]

## (Re)Sampling Parameters
 3359.00                                 [l_ini (A)]
 6428.00                                 [l_fin (A)]
    1.00                                 [dl    (A)]     (OBS: dl_cushion =    50.00 A)

## Normalization info
 4020.00                                 [l_norm (A) - for base]
 4010.00                                 [llow_norm (A) - window for f_obs]
 4060.00                                 [lupp_norm (A) - window for f_obs]
2.206219E-14                             [fobs_norm (in input units)]

## S/N
 4730.00                                 [llow_SN (A) - window for S/N]
 4780.00                                 [lupp_SN (A) - window for S/N]
  40.676                                 [S/N in S/N window]
  27.417                                 [S/N in norm. window]
 123.712                                 [S/N_err in S/N window]
  83.385                                 [S/N_err in norm. window]
  1.0000                                 [fscale_chi2]

## etc...
  2147483596                             [idum_orig]
  3068                                   [NOl_eff]
  1080                                   [Nl_eff]
  1988    NSIGMA                         [Ntot_cliped & clip_method]
  1567440                                [Nglobal_steps]
   7                                     [N_chains]
  11                                     [NEX0s_base = N_base in EX0s-fits]
 0   0   1      121   2.0   9.130E+02    [Clip-Bug, RC-Crash & Burn-In warning-flags, n_censored_weights, wei_nsig_threshold & wei_limit]
    22     21.841     21.837      0.004  [idt_all, wdt_TotTime, wdt_UsrTime & wdt_SysTime (sec)]

## Synthesis Results - Best model ##

 2.72190E+00                             [chi2/Nl_eff]
     1.33239                             [adev (%)]

    97.55384                             [sum-of-x (%)]
 5.50231E-14                             [Flux_tot (units of input spectrum!)]
 1.95385E-09                             [Mini_tot (???)]
 9.91541E-10                             [Mcor_tot (???)]

  23.53                                  [v0_min  (km/s)]
  56.83                                  [vd_min  (km/s)]
 0.6989                                  [AV_min  (mag)]
 0.0000                                  [YAV_min (mag)]

# j     x_j(%)      Mini_j(%)     Mcor_j(%)     age_j(yr)     Z_j      (L/M)_j    YAV?  Mstars   component_j        a/Fe...       SSP_chi2r SSP_adev(%)   SSP_AV   SSP_x(%)
  1      0.0000     0.0000E+00    0.0000E+00    1.000000E+06  0.00400  1.114E-02    0   1.0000   age020_m42            0.0000     1.0968E+03    24.2379   4.0000    86.1141
  2      0.0000     0.0000E+00    0.0000E+00    3.160000E+06  0.00400  4.073E-02    0   0.9999   age045_m42            0.0000     2.0789E+02    12.0075   3.8315    90.1729
  3      0.0000     0.0000E+00    0.0000E+00    5.010000E+06  0.00400  2.534E-02    0   0.9488   age055_m42            0.0000     3.5703E+02    14.6659   4.0000    87.9036
  4      0.0000     0.0000E+00    0.0000E+00    1.000000E+07  0.00400  1.271E-02    0   0.8862   age070_m42            0.0000     2.8912E+02    14.5585   3.4619    87.2742
  5      0.0000     0.0000E+00    0.0000E+00    2.512000E+07  0.00400  5.070E-03    0   0.8174   age090_m42            0.0000     2.6867E+02    13.9868   3.3304    88.8447
  6      0.0000     0.0000E+00    0.0000E+00    4.000000E+07  0.00400  3.505E-03    0   0.7851   age104_m42            0.0000     2.1188E+02    12.2423   3.0133    91.8183
  7      0.0000     0.0000E+00    0.0000E+00    1.015200E+08  0.00400  2.268E-03    0   0.7207   age116_m42            0.0000     3.0191E+02    11.7201   2.8928   105.3890
  8      0.0000     0.0000E+00    0.0000E+00    2.861200E+08  0.00400  1.079E-03    0   0.6613   age125_m42            0.0000     3.0219E+02    11.2939   2.3917   107.8984
  9      0.0000     0.0000E+00    0.0000E+00    6.405400E+08  0.00400  5.077E-04    0   0.6197   age132_m42            0.0000     3.1873E+02    11.1947   1.9993   113.1959
 10      0.0000     0.0000E+00    0.0000E+00    9.047900E+08  0.00400  3.535E-04    0   0.6024   age135_m42            0.0000     2.2116E+02     9.4940   1.7731   111.8327
 11      0.0000     0.0000E+00    0.0000E+00    1.434000E+09  0.00400  1.910E-04    0   0.5716   age139_m42            0.0000     1.0333E+02     6.2419   1.2785   109.1504
 12      0.0001     1.9520E-05    2.1013E-05    2.500000E+09  0.00400  9.818E-05    0   0.5463   age150_m42            0.0000     2.6974E+01     3.2559   1.0395   102.8980
 13     29.3594     1.7964E+01    1.8506E+01    5.000000E+09  0.00400  4.718E-05    0   0.5228   age161_m42            0.0000     8.0866E+00     1.9704   0.8926    98.8239
 14     55.6263     7.2825E+01    7.1465E+01    1.100000E+10  0.00400  2.205E-05    0   0.4980   age185_m42            0.0000     3.8208E+00     1.6430   0.6396    96.3126
 15      0.0633     9.6978E-02    9.4154E-02    1.300000E+10  0.00400  1.883E-05    0   0.4927   age193_m42            0.0000     5.0364E+00     1.8766   0.6239    96.1164
 16      0.0000     0.0000E+00    0.0000E+00    1.000000E+06  0.02000  1.989E-02    0   1.0000   age020_m62            0.0000     1.0335E+03    23.4785   4.0000    86.6258
 17      0.0000     0.0000E+00    0.0000E+00    3.160000E+06  0.02000  3.772E-02    0   0.9858   age045_m62            0.0000     8.1683E+02    21.2275   4.0000    87.6233
 18      0.0000     0.0000E+00    0.0000E+00    5.010000E+06  0.02000  3.227E-02    0   0.9342   age055_m62            0.0000     2.6441E+02    13.6510   4.0000    88.4890
 19      0.0000     0.0000E+00    0.0000E+00    1.000000E+07  0.02000  1.011E-02    0   0.8751   age070_m62            0.0000     4.8529E+02    18.1592   3.5181    82.2450
 20      0.0000     0.0000E+00    0.0000E+00    2.512000E+07  0.02000  4.206E-03    0   0.8099   age090_m62            0.0000     3.9562E+02    16.2672   3.4546    82.9400
 21      0.0000     0.0000E+00    0.0000E+00    4.000000E+07  0.02000  3.373E-03    0   0.7799   age104_m62            0.0000     2.3112E+02    12.7756   3.2041    93.8345
 22      0.0000     0.0000E+00    0.0000E+00    1.015200E+08  0.02000  1.878E-03    0   0.7221   age116_m62            0.0000     2.8406E+02    12.0300   2.9366   105.0961
 23      0.0000     0.0000E+00    0.0000E+00    2.861200E+08  0.02000  8.869E-04    0   0.6700   age125_m62            0.0000     4.4732E+02    12.7622   2.3784   113.8923
 24      0.0000     0.0000E+00    0.0000E+00    6.405400E+08  0.02000  3.657E-04    0   0.6322   age132_m62            0.0000     2.8642E+02     9.8137   1.7014   116.8946
 25      0.0000     0.0000E+00    0.0000E+00    9.047900E+08  0.02000  2.312E-04    0   0.6152   age135_m62            0.0000     1.6407E+02     7.4362   1.3452   115.0452
 26      0.0000     0.0000E+00    0.0000E+00    1.434000E+09  0.02000  1.168E-04    0   0.5865   age139_m62            0.0000     4.4462E+01     4.1741   0.9770   107.1699
 27      2.2931     1.2025E+00    1.3293E+00    2.500000E+09  0.02000  5.505E-05    0   0.5610   age150_m62            0.0000     1.7730E+01     2.8324   0.6197   103.5193
 28      0.0000     0.0000E+00    0.0000E+00    5.000000E+09  0.02000  2.596E-05    0   0.5353   age161_m62            0.0000     3.8318E+01     4.4740   0.2868   103.3347
 29      0.0003     8.2677E-04    8.3136E-04    1.100000E+10  0.02000  1.169E-05    0   0.5103   age185_m62            0.0000     8.7161E+01     6.8153  -0.0783   104.5882
 30      0.0001     1.7838E-04    1.7740E-04    1.300000E+10  0.02000  9.691E-06    0   0.5047   age193_m62            0.0000     9.7716E+01     7.2066  -0.1233   104.7699
 31      0.0000     0.0000E+00    0.0000E+00    1.000000E+06  0.05000  2.651E-02    0   0.9998   age020_m72            0.0000     1.0052E+03    23.1118   4.0000    87.7109
 32      0.0000     0.0000E+00    0.0000E+00    3.160000E+06  0.05000  4.817E-02    0   0.9577   age045_m72            0.0000     5.6131E+02    18.0365   4.0000    89.8222
 33      1.3633     1.2691E-03    2.2875E-03    5.010000E+06  0.05000  3.101E-02    0   0.9147   age055_m72            0.0000     3.3957E+02    14.7973   4.0000    86.6106
 34      0.0000     0.0000E+00    0.0000E+00    1.000000E+07  0.05000  8.954E-03    0   0.8524   age070_m72            0.0000     4.4009E+02    15.9855   4.0000    89.3908
 35      0.0000     0.0000E+00    0.0000E+00    2.512000E+07  0.05000  4.207E-03    0   0.7902   age090_m72            0.0000     2.3371E+02    12.7962   3.9164    88.8743
 36      0.0000     0.0000E+00    0.0000E+00    4.000000E+07  0.05000  3.198E-03    0   0.7618   age104_m72            0.0000     2.2726E+02    11.4367   3.3386    99.5255
 37      0.0000     0.0000E+00    0.0000E+00    1.015200E+08  0.05000  1.716E-03    0   0.7092   age116_m72            0.0000     3.1851E+02    12.2244   3.0133   105.7019
 38      0.0000     0.0000E+00    0.0000E+00    2.861200E+08  0.05000  7.047E-04    0   0.6618   age125_m72            0.0000     4.2494E+02    11.8057   2.1678   114.4078
 39      0.0000     0.0000E+00    0.0000E+00    6.405400E+08  0.05000  2.633E-04    0   0.6253   age132_m72            0.0000     2.1481E+02     8.3120   1.3305   115.9942
 40      0.0000     0.0000E+00    0.0000E+00    9.047900E+08  0.05000  1.484E-04    0   0.6088   age135_m72            0.0000     7.5205E+01     5.2979   0.8875   109.0310
 41      0.0252     9.3007E-03    1.0716E-02    1.434000E+09  0.05000  7.827E-05    0   0.5847   age139_m72            0.0000     3.9766E+01     4.0213   0.5166   104.4974
 42      7.7979     5.9885E+00    6.5881E+00    2.500000E+09  0.05000  3.759E-05    0   0.5583   age150_m72            0.0000     4.9763E+01     5.0150   0.2011   103.2927
 43      1.0250     1.9114E+00    2.0038E+00    5.000000E+09  0.05000  1.548E-05    0   0.5320   age161_m72            0.0000     9.3390E+01     6.8161  -0.2068   102.7589
 44      0.0000     0.0000E+00    0.0000E+00    1.100000E+10  0.05000  6.532E-06    0   0.5070   age185_m72            0.0000     1.7586E+02     9.1972  -0.5905   102.4739
 45      0.0000     0.0000E+00    0.0000E+00    1.300000E+10  0.05000  5.316E-06    0   0.5018   age193_m72            0.0000     2.1613E+02    10.1498  -0.7120   102.5623


## Synthesis Results - Average & Chains ##

# j      x_j: min, <> & last-chain-values for 1 ...  7 chains
  1      0.0000      0.0712      0.0370      0.0000      0.0000      0.2101      0.0134      0.0947      0.0247
  2      0.0000      0.1981      0.1538      0.2196      0.2752      0.1960      0.2754      0.3268      0.2807
  3      0.0000      0.1191      0.2121      0.2156      0.1078      0.2129      0.0000      0.1136      0.0659
  4      0.0000      0.0743      0.0725      0.1022      0.0000      0.0000      0.3055      0.2345      0.0658
  5      0.0000      0.0479      0.0000      0.0000      0.0012      0.1114      0.1444      0.0000      0.1387
  6      0.0000      0.0221      0.0000      0.0000      0.0000      0.0000      0.0000      0.0000      0.0000
  7      0.0000      0.0093      0.0000      0.0000      0.0000      0.0000      0.0000      0.0000      0.0000
  8      0.0000      0.0280      0.0000      0.0000      0.0000      0.0000      0.0000      0.0000      0.0000
  9      0.0000      0.0283      0.0190      0.0000      0.0000      0.0000      0.0000      0.0147      0.0116
 10      0.0000      0.0795      0.0393      0.0000      0.1097      0.1084      0.0000      0.0000      0.0000
 11      0.0000      0.1454      0.0000      0.0926      0.0000      0.2978      0.0000      0.0000      0.0000
 12      0.0001      1.5951      2.0256      1.6105      2.0088      1.9205      1.5662      0.9053      1.6689
 13     29.3594     20.4799     21.2669     21.7893     21.7102     21.2873     21.1763     21.3822     21.6665
 14     55.6263     61.2658     61.1790     60.1823     59.0995     60.8880     61.3351     61.3966     61.2623
 15      0.0633      0.6300      0.3628      0.1918      0.5208      0.0000      0.0000      0.1354      0.0000
 16      0.0000      0.0244      0.0000      0.0001      0.0000      0.0000      0.0000      0.0000      0.0000
 17      0.0000      0.0314      0.0000      0.0000      0.0000      0.0000      0.0000      0.0442      0.0000
 18      0.0000      0.0541      0.0000      0.4557      0.0000      0.0000      0.0872      0.0000      0.0000
 19      0.0000      0.0850      0.0000      0.0000      0.0000      0.3736      0.0000      0.0564      0.0000
 20      0.0000      0.0292      0.0000      0.0000      0.0000      0.0544      0.0000      0.0000      0.0000
 21      0.0000      0.0228      0.0000      0.0158      0.0000      0.0000      0.0000      0.0000      0.0000
 22      0.0000      0.0095      0.0000      0.0000      0.0000      0.0000      0.0000      0.0000      0.0000
 23      0.0000      0.0078      0.0000      0.0000      0.0000      0.0000      0.0000      0.0000      0.0000
 24      0.0000      0.0174      0.0000      0.0000      0.0000      0.0000      0.0000      0.0000      0.0000
 25      0.0000      0.0399      0.0730      0.0146      0.0000      0.0000      0.0000      0.0903      0.0000
 26      0.0000      0.1413      0.0000      0.0000      0.0000      0.0000      0.0000      0.0000      0.0724
 27      2.2931      4.9062      4.8823      4.8829      5.3245      5.6748      4.9647      5.7978      6.4393
 28      0.0000      0.7355      0.3108      0.1774      0.4381      0.7085      0.9087      0.8629      0.6282
 29      0.0003      1.2047      1.1185      0.9876      0.7083      0.5185      1.1031      1.2481      1.3864
 30      0.0001      0.6968      0.0000      0.5379      0.5369      0.7493      0.5671      0.0000      0.0000
 31      0.0000      0.1858      0.3148      0.1917      0.2210      0.0000      0.1800      0.0442      0.1771
 32      0.0000      0.0648      0.1995      0.0399      0.2225      0.0000      0.0000      0.2368      0.0000
 33      1.3633      0.3320      0.2746      0.2930      0.4866      0.2485      0.3701      0.3021      0.5095
 34      0.0000      0.0445      0.0000      0.0000      0.1805      0.0000      0.0000      0.0000      0.0327
 35      0.0000      0.0255      0.0040      0.0000      0.0896      0.0000      0.2494      0.0000      0.0000
 36      0.0000      0.0114      0.0000      0.0000      0.0000      0.0000      0.0000      0.0000      0.0000
 37      0.0000      0.0095      0.0000      0.0000      0.0000      0.0000      0.0000      0.0000      0.0000
 38      0.0000      0.0108      0.0000      0.0000      0.0000      0.0000      0.0000      0.0000      0.0000
 39      0.0000      0.0208      0.0000      0.0000      0.0701      0.0000      0.0000      0.0000      0.0000
 40      0.0000      0.1227      0.6047      0.0000      0.0000      0.0000      0.0095      0.0000      0.0000
 41      0.0252      1.1652      0.7595      1.6375      0.7344      0.6714      1.3516      1.3164      0.1235
 42      7.7979      1.9757      2.1619      3.2410      3.7571      2.1761      2.1438      2.1385      1.8915
 43      1.0250      0.7726      1.5042      0.7064      0.9850      1.1899      0.8241      0.7921      1.1175
 44      0.0000      0.0201      0.0000      0.0000      0.0000      0.0000      0.0000      0.0000      0.0000
 45      0.0000      0.0167      0.0000      0.0000      0.0000      0.0000      0.0000      0.0000      0.0000

# j      m_j: min, <> & last-chain-values for 1 ...  7 chains
  1  0.0000E+00  3.4354E-04  1.8100E-04  0.0000E+00  0.0000E+00  1.0275E-03  6.5324E-05  4.6368E-04  1.2028E-04
  2  0.0000E+00  2.6147E-04  2.0570E-04  2.9558E-04  3.7168E-04  2.6221E-04  3.6618E-04  4.3771E-04  3.7454E-04
  3  0.0000E+00  2.3977E-04  4.3265E-04  4.4244E-04  2.2201E-04  4.3438E-04  0.0000E+00  2.3216E-04  1.3411E-04
  4  0.0000E+00  2.7841E-04  2.7556E-04  3.9071E-04  0.0000E+00  0.0000E+00  1.1537E-03  8.9206E-04  2.4932E-04
  5  0.0000E+00  4.1493E-04  0.0000E+00  0.0000E+00  1.0851E-05  9.7834E-04  1.2613E-03  0.0000E+00  1.2154E-03
  6  0.0000E+00  2.6562E-04  0.0000E+00  0.0000E+00  0.0000E+00  0.0000E+00  0.0000E+00  0.0000E+00  0.0000E+00
  7  0.0000E+00  1.5921E-04  0.0000E+00  0.0000E+00  0.0000E+00  0.0000E+00  0.0000E+00  0.0000E+00  0.0000E+00
  8  0.0000E+00  9.2364E-04  0.0000E+00  0.0000E+00  0.0000E+00  0.0000E+00  0.0000E+00  0.0000E+00  0.0000E+00
  9  0.0000E+00  1.8551E-03  1.2618E-03  0.0000E+00  0.0000E+00  0.0000E+00  0.0000E+00  9.7715E-04  7.6803E-04
 10  0.0000E+00  7.2811E-03  3.6497E-03  0.0000E+00  1.0282E-02  1.0067E-02  0.0000E+00  0.0000E+00  0.0000E+00
 11  0.0000E+00  2.3393E-02  0.0000E+00  1.5190E-02  0.0000E+00  4.8564E-02  0.0000E+00  0.0000E+00  0.0000E+00
 12  2.1013E-05  4.7721E-01  6.1407E-01  4.9124E-01  6.1488E-01  5.8228E-01  4.7207E-01  2.7485E-01  5.0469E-01
 13  1.8506E+01  1.2202E+01  1.2839E+01  1.3236E+01  1.3234E+01  1.2853E+01  1.2711E+01  1.2929E+01  1.3049E+01
 14  7.1465E+01  7.4396E+01  7.5281E+01  7.4510E+01  7.3424E+01  7.4931E+01  7.5038E+01  7.5663E+01  7.5199E+01
 15  9.4154E-02  8.8626E-01  5.1717E-01  2.7511E-01  7.4959E-01  0.0000E+00  0.0000E+00  1.9333E-01  0.0000E+00
 16  0.0000E+00  6.5855E-05  0.0000E+00  1.3976E-07  0.0000E+00  0.0000E+00  0.0000E+00  0.0000E+00  0.0000E+00
 17  0.0000E+00  4.4113E-05  0.0000E+00  0.0000E+00  0.0000E+00  0.0000E+00  0.0000E+00  6.3089E-05  0.0000E+00
 18  0.0000E+00  8.4155E-05  0.0000E+00  7.2325E-04  0.0000E+00  0.0000E+00  1.3671E-04  0.0000E+00  0.0000E+00
 19  0.0000E+00  3.9550E-04  0.0000E+00  0.0000E+00  0.0000E+00  1.7621E-03  0.0000E+00  2.6641E-04  0.0000E+00
 20  0.0000E+00  3.0191E-04  0.0000E+00  0.0000E+00  0.0000E+00  5.7087E-04  0.0000E+00  0.0000E+00  0.0000E+00
 21  0.0000E+00  2.8365E-04  0.0000E+00  2.0048E-04  0.0000E+00  0.0000E+00  0.0000E+00  0.0000E+00  0.0000E+00
 22  0.0000E+00  1.9559E-04  0.0000E+00  0.0000E+00  0.0000E+00  0.0000E+00  0.0000E+00  0.0000E+00  0.0000E+00
 23  0.0000E+00  3.1741E-04  0.0000E+00  0.0000E+00  0.0000E+00  0.0000E+00  0.0000E+00  0.0000E+00  0.0000E+00
 24  0.0000E+00  1.6169E-03  0.0000E+00  0.0000E+00  0.0000E+00  0.0000E+00  0.0000E+00  0.0000E+00  0.0000E+00
 25  0.0000E+00  5.7122E-03  1.0579E-02  2.1277E-03  0.0000E+00  0.0000E+00  0.0000E+00  1.3116E-02  0.0000E+00
 26  0.0000E+00  3.8158E-02  0.0000E+00  0.0000E+00  0.0000E+00  0.0000E+00  0.0000E+00  0.0000E+00  1.9757E-02
 27  1.3293E+00  2.6882E+00  2.7108E+00  2.7278E+00  2.9849E+00  3.1512E+00  2.7406E+00  3.2239E+00  3.5665E+00
 28  0.0000E+00  8.1545E-01  3.4917E-01  2.0055E-01  4.9690E-01  7.9606E-01  1.0150E+00  9.7085E-01  7.0407E-01
 29  8.3136E-04  2.8276E+00  2.6601E+00  2.3632E+00  1.7009E+00  1.2333E+00  2.6085E+00  2.9728E+00  3.2892E+00
 30  1.7740E-04  1.9510E+00  0.0000E+00  1.5358E+00  1.5382E+00  2.1264E+00  1.5998E+00  0.0000E+00  0.0000E+00
 31  0.0000E+00  3.7682E-04  6.4695E-04  3.9641E-04  4.5859E-04  0.0000E+00  3.6766E-04  9.1059E-05  3.6305E-04
 32  0.0000E+00  6.9245E-05  2.1607E-04  4.3488E-05  2.4331E-04  0.0000E+00  0.0000E+00  2.5692E-04  0.0000E+00
 33  2.2875E-03  5.2652E-04  4.4138E-04  4.7369E-04  7.8951E-04  3.9942E-04  5.9139E-04  4.8620E-04  8.1674E-04
