###################################################################
## OUTPUT of StarlightChains_v04.for    [Cid@UFSC - 01/Apr/2007] ##
###################################################################

## Some input info
NGC6528_c_1.cxt                          [arq_obs]
Base.BC03.N                              [arq_base]
NGC6528_c_1.msk                          [arq_masks]
StCv04.C99.config                        [arq_config]
   45                                    [N_base]
    0                                    [N_YAV_components = # of components with extra extinction!]
    0                                    [i_FitPowerLaw (1/0 = Yes/No)]
-9.99                                    [alpha_PowerLaw]
CCM                                      [red_law_option]
 1.458241                                [q_norm = A(l_norm)/A(V)]

## (Re)Sampling Parameters
 3359.00                                 [l_ini (A)]
 6428.00                                 [l_fin (A)]
    1.00                                 [dl    (A)]     (OBS: dl_cushion =    50.00 A)

## Normalization info
 4020.00                                 [l_norm (A) - for base]
 4010.00                                 [llow_norm (A) - window for f_obs]
 4060.00                                 [lupp_norm (A) - window for f_obs]
3.081180E-15                             [fobs_norm (in input units)]

## S/N
 4730.00                                 [llow_SN (A) - window for S/N]
 4780.00                                 [lupp_SN (A) - window for S/N]
  26.871                                 [S/N in S/N window]
  13.196                                 [S/N in norm. window]
 236.951                                 [S/N_err in S/N window]
 116.363                                 [S/N_err in norm. window]
  1.0000                                 [fscale_chi2]

## etc...
  2147483602                             [idum_orig]
  3069                                   [NOl_eff]
  1270                                   [Nl_eff]
  1799    NSIGMA                         [Ntot_cliped & clip_method]
  2186240                                [Nglobal_steps]
   7                                     [N_chains]
  13                                     [NEX0s_base = N_base in EX0s-fits]
 0   0   1       80   2.0   2.880E+02    [Clip-Bug, RC-Crash & Burn-In warning-flags, n_censored_weights, wei_nsig_threshold & wei_limit]
    26     25.677     25.661      0.016  [idt_all, wdt_TotTime, wdt_UsrTime & wdt_SysTime (sec)]

## Synthesis Results - Best model ##

 2.36893E+00                             [chi2/Nl_eff]
     2.41870                             [adev (%)]

   100.24535                             [sum-of-x (%)]
 3.48532E-14                             [Flux_tot (units of input spectrum!)]
 2.46786E-09                             [Mini_tot (???)]
 1.24845E-09                             [Mcor_tot (???)]

 -33.22                                  [v0_min  (km/s)]
 101.46                                  [vd_min  (km/s)]
 1.8043                                  [AV_min  (mag)]
 0.0000                                  [YAV_min (mag)]

# j     x_j(%)      Mini_j(%)     Mcor_j(%)     age_j(yr)     Z_j      (L/M)_j    YAV?  Mstars   component_j        a/Fe...       SSP_chi2r SSP_adev(%)   SSP_AV   SSP_x(%)
  1      4.8532     6.1376E-03    1.2132E-02    1.000000E+06  0.00400  1.114E-02    0   1.0000   age020_m42            0.0000     2.8132E+03    52.5791   4.0000   106.8396
  2      3.2306     1.1174E-03    2.2087E-03    3.160000E+06  0.00400  4.073E-02    0   0.9999   age045_m42            0.0000     8.8127E+02    29.1442   4.0000   115.3998
  3      2.1093     1.1727E-03    2.1995E-03    5.010000E+06  0.00400  2.534E-02    0   0.9488   age055_m42            0.0000     1.5686E+03    39.6826   4.0000   113.3702
  4      5.4559     6.0475E-03    1.0594E-02    1.000000E+07  0.00400  1.271E-02    0   0.8862   age070_m42            0.0000     6.2641E+02    20.4504   4.0000   107.9891
  5      0.0000     0.0000E+00    0.0000E+00    2.512000E+07  0.00400  5.070E-03    0   0.8174   age090_m42            0.0000     4.9198E+02    17.1362   4.0000   107.4743
  6      0.0000     0.0000E+00    0.0000E+00    4.000000E+07  0.00400  3.505E-03    0   0.7851   age104_m42            0.0000     2.7506E+02    11.3139   4.0000   103.9978
  7      0.0000     0.0000E+00    0.0000E+00    1.015200E+08  0.00400  2.268E-03    0   0.7207   age116_m42            0.0000     4.1122E+02    13.9214   4.0000   111.0699
  8      0.0000     0.0000E+00    0.0000E+00    2.861200E+08  0.00400  1.079E-03    0   0.6613   age125_m42            0.0000     3.7623E+02    12.2066   3.7332   107.3811
  9      0.0000     0.0000E+00    0.0000E+00    6.405400E+08  0.00400  5.077E-04    0   0.6197   age132_m42            0.0000     3.8004E+02    12.4153   3.3733   111.7795
 10      0.0000     0.0000E+00    0.0000E+00    9.047900E+08  0.00400  3.535E-04    0   0.6024   age135_m42            0.0000     2.9022E+02    10.9370   3.1361   111.0276
 11      0.0000     0.0000E+00    0.0000E+00    1.434000E+09  0.00400  1.910E-04    0   0.5716   age139_m42            0.0000     1.5459E+02     8.5170   2.6209   108.9107
 12      0.0000     0.0000E+00    0.0000E+00    2.500000E+09  0.00400  9.818E-05    0   0.5463   age150_m42            0.0000     6.6182E+01     6.1087   2.3355   104.2777
 13      0.0000     0.0000E+00    0.0000E+00    5.000000E+09  0.00400  4.718E-05    0   0.5228   age161_m42            0.0000     3.3788E+01     4.7959   2.1751   100.8940
 14     16.6827     1.0659E+01    1.0493E+01    1.100000E+10  0.00400  2.205E-05    0   0.4980   age185_m42            0.0000     1.6584E+01     4.4020   1.9120    98.2758
 15      4.7244     3.5347E+00    3.4426E+00    1.300000E+10  0.00400  1.883E-05    0   0.4927   age193_m42            0.0000     1.5527E+01     4.3481   1.8979    98.0482
 16      1.0891     7.7145E-04    1.5249E-03    1.000000E+06  0.02000  1.989E-02    0   1.0000   age020_m62            0.0000     2.7407E+03    51.6352   4.0000   107.8015
 17      0.0000     0.0000E+00    0.0000E+00    3.160000E+06  0.02000  3.772E-02    0   0.9858   age045_m62            0.0000     2.4339E+03    48.8223   4.0000   110.2293
 18      0.0000     0.0000E+00    0.0000E+00    5.010000E+06  0.02000  3.227E-02    0   0.9342   age055_m62            0.0000     1.2985E+03    36.0938   4.0000   115.5008
 19      0.0000     0.0000E+00    0.0000E+00    1.000000E+07  0.02000  1.011E-02    0   0.8751   age070_m62            0.0000     8.1588E+02    21.2505   4.0000   105.8993
 20      0.0000     0.0000E+00    0.0000E+00    2.512000E+07  0.02000  4.206E-03    0   0.8099   age090_m62            0.0000     6.3890E+02    19.5080   4.0000   105.1383
 21      0.0000     0.0000E+00    0.0000E+00    4.000000E+07  0.02000  3.373E-03    0   0.7799   age104_m62            0.0000     4.0528E+02    14.4905   4.0000   109.8501
 22      0.0000     0.0000E+00    0.0000E+00    1.015200E+08  0.02000  1.878E-03    0   0.7221   age116_m62            0.0000     4.1074E+02    13.0422   4.0000   112.9138
 23      0.0000     0.0000E+00    0.0000E+00    2.861200E+08  0.02000  8.869E-04    0   0.6700   age125_m62            0.0000     4.8951E+02    13.6432   3.7583   112.1530
 24      0.0000     0.0000E+00    0.0000E+00    6.405400E+08  0.02000  3.657E-04    0   0.6322   age132_m62            0.0000     3.2369E+02    11.8336   3.0539   115.2879
 25      0.0000     0.0000E+00    0.0000E+00    9.047900E+08  0.02000  2.312E-04    0   0.6152   age135_m62            0.0000     2.0592E+02     9.7933   2.6895   113.9987
 26      0.0000     0.0000E+00    0.0000E+00    1.434000E+09  0.02000  1.168E-04    0   0.5865   age139_m62            0.0000     7.9221E+01     6.6113   2.2720   108.1780
 27      0.0000     0.0000E+00    0.0000E+00    2.500000E+09  0.02000  5.505E-05    0   0.5610   age150_m62            0.0000     3.1604E+01     5.4412   1.8974   105.0311
 28      0.0000     0.0000E+00    0.0000E+00    5.000000E+09  0.02000  2.596E-05    0   0.5353   age161_m62            0.0000     2.8359E+01     6.5757   1.5625   104.2894
 29     27.2520     3.2843E+01    3.3130E+01    1.100000E+10  0.02000  1.169E-05    0   0.5103   age185_m62            0.0000     5.8808E+01     8.7004   1.2017   104.8729
 30     28.7449     4.1788E+01    4.1690E+01    1.300000E+10  0.02000  9.691E-06    0   0.5047   age193_m62            0.0000     6.6982E+01     9.0196   1.1588   104.9219
 31      0.3386     1.7992E-04    3.5559E-04    1.000000E+06  0.05000  2.651E-02    0   0.9998   age020_m72            0.0000     2.6898E+03    51.5485   4.0000   109.1573
 32      0.0000     0.0000E+00    0.0000E+00    3.160000E+06  0.05000  4.817E-02    0   0.9577   age045_m72            0.0000     2.0101E+03    45.3141   4.0000   113.7809
 33      0.0000     0.0000E+00    0.0000E+00    5.010000E+06  0.05000  3.101E-02    0   0.9147   age055_m72            0.0000     1.4132E+03    37.0453   4.0000   113.9782
 34      0.0000     0.0000E+00    0.0000E+00    1.000000E+07  0.05000  8.954E-03    0   0.8524   age070_m72            0.0000     1.7507E+03    42.2527   4.0000   114.6397
 35      0.0000     0.0000E+00    0.0000E+00    2.512000E+07  0.05000  4.207E-03    0   0.7902   age090_m72            0.0000     9.7659E+02    31.3170   4.0000   116.3920
 36      0.0000     0.0000E+00    0.0000E+00    4.000000E+07  0.05000  3.198E-03    0   0.7618   age104_m72            0.0000     5.0735E+02    18.4557   4.0000   116.2986
 37      0.0000     0.0000E+00    0.0000E+00    1.015200E+08  0.05000  1.716E-03    0   0.7092   age116_m72            0.0000     4.6662E+02    14.8647   4.0000   114.8401
 38      0.0000     0.0000E+00    0.0000E+00    2.861200E+08  0.05000  7.047E-04    0   0.6618   age125_m72            0.0000     4.5031E+02    13.0882   3.5492   112.2579
 39      0.0000     0.0000E+00    0.0000E+00    6.405400E+08  0.05000  2.633E-04    0   0.6253   age132_m72            0.0000     2.3995E+02    10.3170   2.6963   113.8932
 40      0.0000     0.0000E+00    0.0000E+00    9.047900E+08  0.05000  1.484E-04    0   0.6088   age135_m72            0.0000     9.9624E+01     7.8459   2.2011   108.7239
 41      0.0000     0.0000E+00    0.0000E+00    1.434000E+09  0.05000  7.827E-05    0   0.5847   age139_m72            0.0000     4.1363E+01     6.8628   1.7997   104.9991
 42      0.0000     0.0000E+00    0.0000E+00    2.500000E+09  0.05000  3.759E-05    0   0.5583   age150_m72            0.0000     3.3609E+01     7.2164   1.4795   103.8921
 43      1.6344     1.4875E+00    1.5643E+00    5.000000E+09  0.05000  1.548E-05    0   0.5320   age161_m72            0.0000     6.9695E+01     8.6745   1.0962   102.3617
 44      2.5807     5.5660E+00    5.5783E+00    1.100000E+10  0.05000  6.532E-06    0   0.5070   age185_m72            0.0000     1.4854E+02    11.7934   0.7134   101.1779
 45      1.5496     4.1066E+00    4.0734E+00    1.300000E+10  0.05000  5.316E-06    0   0.5018   age193_m72            0.0000     1.8582E+02    13.0402   0.5917   100.9298


## Synthesis Results - Average & Chains ##

# j      x_j: min, <> & last-chain-values for 1 ...  7 chains
  1      4.8532      4.3961      4.2452      4.3997      4.5753      4.3885      4.5621      4.5534      4.4829
  2      3.2306      1.9525      2.0364      1.9558      2.0628      2.1255      2.2349      2.0193      2.2671
  3      2.1093      1.9090      1.9009      1.9352      2.0534      1.8674      1.8296      2.1320      2.0198
  4      5.4559      4.5729      4.7997      4.6711      4.6134      4.6845      4.6038      4.4652      4.6183
  5      0.0000      0.0651      0.2278      0.0342      0.1810      0.2284      0.1538      0.0898      0.0000
  6      0.0000      0.0925      0.0000      0.0817      0.0488      0.1510      0.0746      0.0000      0.1542
  7      0.0000      0.0411      0.0000      0.0000      0.0000      0.1118      0.2011      0.0000      0.0000
  8      0.0000      0.0310      0.0000      0.0000      0.0000      0.0000      0.3405      0.0000      0.0140
  9      0.0000      0.0504      0.0000      0.1337      0.2932      0.0008      0.0000      0.0000      0.0122
 10      0.0000      0.0505      0.0291      0.0000      0.0361      0.1459      0.0000      0.1675      0.1550
 11      0.0000      0.0791      0.0094      0.0000      0.0002      0.0000      0.1555      0.0535      0.0524
 12      0.0000      0.1154      0.1009      0.0000      0.0412      0.0000      0.0000      0.0000      0.0000
 13      0.0000      0.2156      0.0000      0.2390      0.0000      0.1639      0.3150      0.0311      0.0000
 14     16.6827     16.1129     15.2548     16.2147     15.4776     16.3582     16.7412     15.9744     15.8184
 15      4.7244      5.5260      6.8766      5.7665      6.1691      5.8206      4.8198      6.0129      5.5825
 16      1.0891      1.8001      1.7245      1.8424      1.6536      1.6956      1.7966      1.7604      1.8451
 17      0.0000      0.0980      0.0527      0.0000      0.0000      0.0000      0.0000      0.0000      0.0000
 18      0.0000      0.1259      0.5558      0.3051      0.0449      0.0962      0.0000      0.0710      0.0940
 19      0.0000      0.0541      0.0000      0.1668      0.0000      0.0062      0.0000      0.0000      0.0000
 20      0.0000      0.0181      0.0687      0.0000      0.0000      0.0000      0.0000      0.0000      0.0000
 21      0.0000      0.0423      0.0000      0.0000      0.0000      0.0000      0.0000      0.0000      0.0000
 22      0.0000      0.0385      0.0000      0.0897      0.0000      0.0000      0.0000      0.0000      0.0000
 23      0.0000      0.0401      0.1012      0.0718      0.2484      0.0212      0.0000      0.0000      0.3807
 24      0.0000      0.0501      0.2008      0.0000      0.0000      0.0000      0.0000      0.1341      0.0000
 25      0.0000      0.0646      0.0000      0.0000      0.0171      0.0263      0.0000      0.0000      0.0000
 26      0.0000      0.0720      0.0000      0.0463      0.0000      0.0000      0.0806      0.1012      0.0000
 27      0.0000      0.1789      0.0000      0.0000      0.0000      0.4869      0.0000      0.0000      0.1306
 28      0.0000      0.2675      0.5516      0.4622      0.0456      0.1080      0.1723      0.3325      0.1314
 29     27.2520     27.5547     27.9342     26.7301     27.3452     27.4111     27.2140     27.0867     28.1674
 30     28.7449     28.6940     27.9605     28.8457     29.0892     28.7355     29.0982     28.9423     28.6061
 31      0.3386      0.8664      0.6038      0.8080      0.8265      0.8758      0.8360      0.9084      0.8379
 32      0.0000      0.0185      0.0967      0.0000      0.0000      0.0000      0.0000      0.0000      0.0000
 33      0.0000      0.0384      0.1176      0.0000      0.0010      0.1022      0.0000      0.0000      0.0000
 34      0.0000      0.0283      0.0000      0.0000      0.0333      0.0000      0.1272      0.0000      0.0000
 35      0.0000      0.0239      0.0000      0.0000      0.1985      0.0000      0.0000      0.0000      0.0663
 36      0.0000      0.0314      0.0000      0.0000      0.0000      0.0000      0.0000      0.1687      0.0000
 37      0.0000      0.0442      0.0000      0.1630      0.0000      0.0000      0.0000      0.3163      0.0000
 38      0.0000      0.0310      0.0000      0.0000      0.1127      0.0776      0.0000      0.0000      0.0959
 39      0.0000      0.0328      0.0000      0.0000      0.0000      0.0121      0.0000      0.0000      0.0000
 40      0.0000      0.0978      0.0000      0.0000      0.1894      0.0000      0.0000      0.0000      0.0000
 41      0.0000      0.1833      0.0000      0.3794      0.0000      0.0000      0.0000      0.0000      0.0237
 42      0.0000      0.1515      0.3228      0.1044      0.0311      0.0000      0.0000      0.0989      0.0000
 43      1.6344      1.1295      0.7855      0.9672      1.3440      1.1590      1.0585      1.3473      0.7204
 44      2.5807      1.9359      2.2744      2.0036      2.2449      1.8747      2.3393      1.8651      2.5527
 45      1.5496      1.3481      1.4469      1.7865      1.3328      1.5081      1.4752      1.6266      1.4499

# j      m_j: min, <> & last-chain-values for 1 ...  7 chains
  1  1.2132E-02  1.1152E-02  1.0709E-02  1.1089E-02  1.1504E-02  1.1087E-02  1.1458E-02  1.1470E-02  1.1214E-02
  2  2.2087E-03  1.3545E-03  1.4049E-03  1.3480E-03  1.4185E-03  1.4686E-03  1.5351E-03  1.3911E-03  1.5509E-03
  3  2.1995E-03  2.0199E-03  2.0002E-03  2.0344E-03  2.1536E-03  1.9679E-03  1.9168E-03  2.2402E-03  2.1074E-03
  4  1.0594E-02  9.0104E-03  9.4049E-03  9.1442E-03  9.0101E-03  9.1928E-03  8.9815E-03  8.7369E-03  8.9734E-03
  5  0.0000E+00  2.9676E-04  1.0321E-03  1.5488E-04  8.1745E-04  1.0363E-03  6.9358E-04  4.0650E-04  0.0000E+00
  6  0.0000E+00  5.8566E-04  0.0000E+00  5.1361E-04  3.0623E-04  9.5188E-04  4.6732E-04  0.0000E+00  9.6232E-04
  7  0.0000E+00  3.6878E-04  0.0000E+00  0.0000E+00  0.0000E+00  1.0002E-03  1.7882E-03  0.0000E+00  0.0000E+00
  8  0.0000E+00  5.3730E-04  0.0000E+00  0.0000E+00  0.0000E+00  0.0000E+00  5.8383E-03  0.0000E+00  2.3856E-04
  9  0.0000E+00  1.7396E-03  0.0000E+00  4.5827E-03  1.0023E-02  2.6570E-05  0.0000E+00  0.0000E+00  4.1401E-04
 10  0.0000E+00  2.4298E-03  1.3950E-03  0.0000E+00  1.7222E-03  6.9975E-03  0.0000E+00  8.0102E-03  7.3596E-03
 11  0.0000E+00  6.6873E-03  7.8676E-04  0.0000E+00  1.4268E-05  0.0000E+00  1.3020E-02  4.4959E-03  4.3707E-03
 12  0.0000E+00  1.8144E-02  1.5772E-02  0.0000E+00  6.4156E-03  0.0000E+00  0.0000E+00  0.0000E+00  0.0000E+00
 13  0.0000E+00  6.7515E-02  0.0000E+00  7.4358E-02  0.0000E+00  5.1113E-02  9.7672E-02  9.6774E-03  0.0000E+00
 14  1.0493E+01  1.0284E+01  9.6822E+00  1.0282E+01  9.7914E+00  1.0398E+01  1.0579E+01  1.0125E+01  9.9556E+00
 15  3.4426E+00  4.0860E+00  5.0565E+00  4.2363E+00  4.5214E+00  4.2864E+00  3.5286E+00  4.4152E+00  4.0705E+00
 16  1.5249E-03  2.5575E-03  2.4366E-03  2.6007E-03  2.3287E-03  2.3993E-03  2.5274E-03  2.4837E-03  2.5850E-03
 17  0.0000E+00  7.2373E-05  3.8675E-05  0.0000E+00  0.0000E+00  0.0000E+00  0.0000E+00  0.0000E+00  0.0000E+00
 18  0.0000E+00  1.0296E-04  4.5217E-04  2.4795E-04  3.6439E-05  7.8371E-05  0.0000E+00  5.7720E-05  7.5858E-05
 19  0.0000E+00  1.3237E-04  0.0000E+00  4.0528E-04  0.0000E+00  1.5071E-05  0.0000E+00  0.0000E+00  0.0000E+00
 20  0.0000E+00  9.8753E-05  3.7197E-04  0.0000E+00  0.0000E+00  0.0000E+00  0.0000E+00  0.0000E+00  0.0000E+00
 21  0.0000E+00  2.7630E-04  0.0000E+00  0.0000E+00  0.0000E+00  0.0000E+00  0.0000E+00  0.0000E+00  0.0000E+00
 22  0.0000E+00  4.1859E-04  0.0000E+00  9.6790E-04  0.0000E+00  0.0000E+00  0.0000E+00  0.0000E+00  0.0000E+00
 23  0.0000E+00  8.5571E-04  2.1476E-03  1.5226E-03  5.2559E-03  4.5046E-04  0.0000E+00  0.0000E+00  8.0150E-03
 24  0.0000E+00  2.4456E-03  9.7570E-03  0.0000E+00  0.0000E+00  0.0000E+00  0.0000E+00  6.5046E-03  0.0000E+00
 25  0.0000E+00  4.8564E-03  0.0000E+00  0.0000E+00  1.2768E-03  1.9705E-03  0.0000E+00  0.0000E+00  0.0000E+00
 26  0.0000E+00  1.0222E-02  0.0000E+00  6.5318E-03  0.0000E+00  0.0000E+00  1.1328E-02  1.4266E-02  0.0000E+00
 27  0.0000E+00  5.1518E-02  0.0000E+00  0.0000E+00  0.0000E+00  1.3966E-01  0.0000E+00  0.0000E+00  3.7089E-02
 28  0.0000E+00  1.5587E-01  3.1964E-01  2.6760E-01  2.6344E-02  6.2667E-02  9.9393E-02  1.9242E-01  7.5496E-02
 29  3.3130E+01  3.3991E+01  3.4268E+01  3.2761E+01  3.3436E+01  3.3677E+01  3.3239E+01  3.3182E+01  3.4264E+01
 30  4.1690E+01  4.2230E+01  4.0922E+01  4.2178E+01  4.2434E+01  4.2119E+01  4.2401E+01  4.2299E+01  4.1515E+01
 31  3.5559E-04  9.2336E-04  6.3992E-04  8.5558E-04  8.7313E-04  9.2959E-04  8.8222E-04  9.6146E-04  8.8063E-04
 32  0.0000E+00  1.0395E-05  5.4016E-05  0.0000E+00  0.0000E+00  0.0000E+00  0.0000E+00  0.0000E+00  0.0000E+00
 33  0.0000E+00  3.1997E-05  9.7517E-05  0.0000E+00  8.2096E-07  8.4860E-05  0.0000E+00  0.0000E+00  0.0000E+00
