###################################################################
## OUTPUT of StarlightChains_v04.for    [Cid@UFSC - 01/Apr/2007] ##
###################################################################

## Some input info
NGC6522_a_1.cxt                          [arq_obs]
Base.BC03.N                              [arq_base]
NGC6522_a_1.msk                          [arq_masks]
StCv04.C99.config                        [arq_config]
   45                                    [N_base]
    0                                    [N_YAV_components = # of components with extra extinction!]
    0                                    [i_FitPowerLaw (1/0 = Yes/No)]
-9.99                                    [alpha_PowerLaw]
CCM                                      [red_law_option]
 1.458241                                [q_norm = A(l_norm)/A(V)]

## (Re)Sampling Parameters
 3359.00                                 [l_ini (A)]
 6428.00                                 [l_fin (A)]
    1.00                                 [dl    (A)]     (OBS: dl_cushion =    50.00 A)

## Normalization info
 4020.00                                 [l_norm (A) - for base]
 4010.00                                 [llow_norm (A) - window for f_obs]
 4060.00                                 [lupp_norm (A) - window for f_obs]
8.861070E-15                             [fobs_norm (in input units)]

## S/N
 4730.00                                 [llow_SN (A) - window for S/N]
 4780.00                                 [lupp_SN (A) - window for S/N]
  58.057                                 [S/N in S/N window]
  38.566                                 [S/N in norm. window]
  50.435                                 [S/N_err in S/N window]
  33.502                                 [S/N_err in norm. window]
  1.0000                                 [fscale_chi2]

## etc...
  2147483607                             [idum_orig]
  3068                                   [NOl_eff]
  1781                                   [Nl_eff]
  1287    NSIGMA                         [Ntot_cliped & clip_method]
  1649480                                [Nglobal_steps]
   7                                     [N_chains]
  11                                     [NEX0s_base = N_base in EX0s-fits]
 0   0   1      235   2.0   7.149E+02    [Clip-Bug, RC-Crash & Burn-In warning-flags, n_censored_weights, wei_nsig_threshold & wei_limit]
    25     25.564     25.560      0.004  [idt_all, wdt_TotTime, wdt_UsrTime & wdt_SysTime (sec)]

## Synthesis Results - Best model ##

 2.52245E+00                             [chi2/Nl_eff]
     1.96456                             [adev (%)]

    99.79614                             [sum-of-x (%)]
 1.20894E-13                             [Flux_tot (units of input spectrum!)]
 2.02780E-09                             [Mini_tot (???)]
 1.04388E-09                             [Mcor_tot (???)]

  -6.12                                  [v0_min  (km/s)]
  70.80                                  [vd_min  (km/s)]
 1.9472                                  [AV_min  (mag)]
 0.0000                                  [YAV_min (mag)]

# j     x_j(%)      Mini_j(%)     Mcor_j(%)     age_j(yr)     Z_j      (L/M)_j    YAV?  Mstars   component_j        a/Fe...       SSP_chi2r SSP_adev(%)   SSP_AV   SSP_x(%)
  1      0.0000     0.0000E+00    0.0000E+00    1.000000E+06  0.00400  1.114E-02    0   1.0000   age020_m42            0.0000     1.4115E+03    32.8124   4.0000    77.4585
  2     10.1191     1.4842E-02    2.8829E-02    3.160000E+06  0.00400  4.073E-02    0   0.9999   age045_m42            0.0000     9.4802E+01     6.0356   4.0000    92.0627
  3      0.0000     0.0000E+00    0.0000E+00    5.010000E+06  0.00400  2.534E-02    0   0.9488   age055_m42            0.0000     4.5122E+02    17.8180   4.0000    86.3374
  4     13.0712     6.1438E-02    1.0576E-01    1.000000E+07  0.00400  1.271E-02    0   0.8862   age070_m42            0.0000     1.2474E+02     5.6940   3.8699    87.8673
  5      0.0000     0.0000E+00    0.0000E+00    2.512000E+07  0.00400  5.070E-03    0   0.8174   age090_m42            0.0000     1.0747E+02     5.0971   3.7273    89.6477
  6      0.0000     0.0000E+00    0.0000E+00    4.000000E+07  0.00400  3.505E-03    0   0.7851   age104_m42            0.0000     6.7540E+01     3.5523   3.3733    93.0901
  7     19.2633     5.0740E-01    7.1036E-01    1.015200E+08  0.00400  2.268E-03    0   0.7207   age116_m42            0.0000     4.5524E+02     7.6993   3.0814   105.2792
  8      0.0000     0.0000E+00    0.0000E+00    2.861200E+08  0.00400  1.079E-03    0   0.6613   age125_m42            0.0000     4.9653E+02     8.6917   2.5396   108.2196
  9      1.8466     2.1728E-01    2.6156E-01    6.405400E+08  0.00400  5.077E-04    0   0.6197   age132_m42            0.0000     5.3450E+02     9.1361   2.1678   112.4555
 10      4.1594     7.0292E-01    8.2256E-01    9.047900E+08  0.00400  3.535E-04    0   0.6024   age135_m42            0.0000     3.3315E+02     7.5606   1.9851   111.0827
 11      0.0000     0.0000E+00    0.0000E+00    1.434000E+09  0.00400  1.910E-04    0   0.5716   age139_m42            0.0000     1.4678E+02     6.8390   1.5064   109.7365
 12      9.0535     5.5088E+00    5.8461E+00    2.500000E+09  0.00400  9.818E-05    0   0.5463   age150_m42            0.0000     4.9708E+01     5.5386   1.3155   104.4602
 13     26.2164     3.3196E+01    3.3712E+01    5.000000E+09  0.00400  4.718E-05    0   0.5228   age161_m42            0.0000     6.2240E+01     5.0461   1.1989   100.8636
 14     10.7609     2.9154E+01    2.8204E+01    1.100000E+10  0.00400  2.205E-05    0   0.4980   age185_m42            0.0000     1.5148E+02     6.2733   0.9465    99.2080
 15      0.0000     0.0000E+00    0.0000E+00    1.300000E+10  0.00400  1.883E-05    0   0.4927   age193_m42            0.0000     1.6907E+02     6.3802   0.9332    99.0707
 16      0.0000     0.0000E+00    0.0000E+00    1.000000E+06  0.02000  1.989E-02    0   1.0000   age020_m62            0.0000     1.3610E+03    32.0655   4.0000    78.1863
 17      0.0000     0.0000E+00    0.0000E+00    3.160000E+06  0.02000  3.772E-02    0   0.9858   age045_m62            0.0000     1.1029E+03    28.6092   4.0000    80.7395
 18      0.0000     0.0000E+00    0.0000E+00    5.010000E+06  0.02000  3.227E-02    0   0.9342   age055_m62            0.0000     2.5685E+02    13.3237   4.0000    89.4127
 19      0.0000     0.0000E+00    0.0000E+00    1.000000E+07  0.02000  1.011E-02    0   0.8751   age070_m62            0.0000     3.3645E+02     9.3356   3.9799    83.3931
 20      0.0000     0.0000E+00    0.0000E+00    2.512000E+07  0.02000  4.206E-03    0   0.8099   age090_m62            0.0000     2.5383E+02     7.4928   3.8776    84.8909
 21      0.0000     0.0000E+00    0.0000E+00    4.000000E+07  0.02000  3.373E-03    0   0.7799   age104_m62            0.0000     8.7349E+01     3.6768   3.5469    94.7790
 22      0.0000     0.0000E+00    0.0000E+00    1.015200E+08  0.02000  1.878E-03    0   0.7221   age116_m62            0.0000     3.7886E+02     7.0109   3.1472   105.1358
 23      0.0000     0.0000E+00    0.0000E+00    2.861200E+08  0.02000  8.869E-04    0   0.6700   age125_m62            0.0000     8.7223E+02    11.5539   2.4456   114.7063
 24      0.0000     0.0000E+00    0.0000E+00    6.405400E+08  0.02000  3.657E-04    0   0.6322   age132_m62            0.0000     5.7012E+02    11.2797   1.7686   118.3613
 25      0.0000     0.0000E+00    0.0000E+00    9.047900E+08  0.02000  2.312E-04    0   0.6152   age135_m62            0.0000     3.1519E+02     9.6417   1.4798   116.1175
 26      0.0000     0.0000E+00    0.0000E+00    1.434000E+09  0.02000  1.168E-04    0   0.5865   age139_m62            0.0000     1.0027E+02     7.1401   1.1958   109.1180
 27      0.0000     0.0000E+00    0.0000E+00    2.500000E+09  0.02000  5.505E-05    0   0.5610   age150_m62            0.0000     1.3065E+02     7.4341   0.8674   106.2456
 28      1.6801     3.8664E+00    4.0205E+00    5.000000E+09  0.02000  2.596E-05    0   0.5353   age161_m62            0.0000     2.9106E+02     9.2219   0.5225   106.9953
 29      2.2801     1.1652E+01    1.1551E+01    1.100000E+10  0.02000  1.169E-05    0   0.5103   age185_m62            0.0000     5.0219E+02    11.1498   0.1249   109.4145
 30      0.0000     0.0000E+00    0.0000E+00    1.300000E+10  0.02000  9.691E-06    0   0.5047   age193_m62            0.0000     5.4722E+02    11.4447   0.0750   109.7941
 31      0.0000     0.0000E+00    0.0000E+00    1.000000E+06  0.05000  2.651E-02    0   0.9998   age020_m72            0.0000     1.3191E+03    31.7458   4.0000    79.2061
 32      0.0000     0.0000E+00    0.0000E+00    3.160000E+06  0.05000  4.817E-02    0   0.9577   age045_m72            0.0000     7.5669E+02    23.9333   4.0000    84.8171
 33      0.0000     0.0000E+00    0.0000E+00    5.010000E+06  0.05000  3.101E-02    0   0.9147   age055_m72            0.0000     4.0440E+02    14.9340   4.0000    87.2326
 34      0.0000     0.0000E+00    0.0000E+00    1.000000E+07  0.05000  8.954E-03    0   0.8524   age070_m72            0.0000     6.3660E+02    20.6530   4.0000    86.1982
 35      0.0000     0.0000E+00    0.0000E+00    2.512000E+07  0.05000  4.207E-03    0   0.7902   age090_m72            0.0000     1.6772E+02     7.9018   4.0000    91.8091
 36      0.0000     0.0000E+00    0.0000E+00    4.000000E+07  0.05000  3.198E-03    0   0.7618   age104_m72            0.0000     2.0928E+02     4.9016   3.5935   100.3468
 37      0.0000     0.0000E+00    0.0000E+00    1.015200E+08  0.05000  1.716E-03    0   0.7092   age116_m72            0.0000     4.6876E+02     7.8029   3.2001   105.7243
 38      0.0000     0.0000E+00    0.0000E+00    2.861200E+08  0.05000  7.047E-04    0   0.6618   age125_m72            0.0000     8.4045E+02    11.7764   2.2226   115.6003
 39      0.0000     0.0000E+00    0.0000E+00    6.405400E+08  0.05000  2.633E-04    0   0.6253   age132_m72            0.0000     4.2738E+02    11.0090   1.4205   117.3523
 40      0.0000     0.0000E+00    0.0000E+00    9.047900E+08  0.05000  1.484E-04    0   0.6088   age135_m72            0.0000     1.7409E+02     9.0629   1.0532   111.1913
 41      0.0000     0.0000E+00    0.0000E+00    1.434000E+09  0.05000  7.827E-05    0   0.5847   age139_m72            0.0000     1.8685E+02     9.0235   0.7286   107.5507
 42      0.0000     0.0000E+00    0.0000E+00    2.500000E+09  0.05000  3.759E-05    0   0.5583   age150_m72            0.0000     3.0874E+02     9.7199   0.4330   106.9310
 43      0.0000     0.0000E+00    0.0000E+00    5.000000E+09  0.05000  1.548E-05    0   0.5320   age161_m72            0.0000     4.8406E+02    11.2252  -0.0079   107.4257
 44      0.0000     0.0000E+00    0.0000E+00    1.100000E+10  0.05000  6.532E-06    0   0.5070   age185_m72            0.0000     6.8180E+02    14.0579  -0.4872   109.4258
 45      1.3454     1.5119E+01    1.4738E+01    1.300000E+10  0.05000  5.316E-06    0   0.5018   age193_m72            0.0000     7.6650E+02    15.2335  -0.6556   110.4876


## Synthesis Results - Average & Chains ##

# j      x_j: min, <> & last-chain-values for 1 ...  7 chains
  1      0.0000      0.0139      0.0000      0.0000      0.0000      0.0000      0.0000      0.0000      0.0000
  2     10.1191      7.4560      7.9838      8.0126      8.0521      7.5251      7.6585      7.9877      7.7341
  3      0.0000      0.2522      0.2883      0.1882      0.2502      0.5202      0.3176      0.1119      0.2694
  4     13.0712     13.7340     13.7063     13.8945     13.5666     13.8858     14.0499     13.7045     13.7158
  5      0.0000      0.0474      0.0000      0.1033      0.0000      0.0000      0.0000      0.0579      0.2021
  6      0.0000      0.0540      0.0000      0.0000      0.0000      0.0269      0.0000      0.0596      0.0000
  7     19.2633     21.8096     21.6144     21.2865     21.6864     21.6501     21.5391     21.5902     21.6942
  8      0.0000      0.0487      0.0300      0.0000      0.0000      0.0000      0.0000      0.0000      0.0000
  9      1.8466      0.9938      1.1834      1.3472      0.9922      1.2215      1.0638      0.9736      1.1936
 10      4.1594      1.2676      1.3125      1.3675      1.6160      1.6899      1.8958      1.4711      1.4525
 11      0.0000      0.1416      0.1143      0.0366      0.1088      0.0000      0.0718      0.3130      0.3735
 12      9.0535     11.9548     11.9020     11.9636     12.0175     11.8798     11.7060     11.9537     11.2932
 13     26.2164     25.9156     26.0603     26.1167     25.3577     25.6724     25.7691     25.6621     25.9832
 14     10.7609      9.6510      9.4606      9.9548      9.7823      9.7546      9.8228      9.5989      9.4573
 15      0.0000      0.1449      0.2330      0.1476      0.1836      0.0585      0.0000      0.5417      0.3806
 16      0.0000      0.0087      0.0019      0.0000      0.0000      0.0067      0.0000      0.0000      0.0000
 17      0.0000      0.0146      0.0048      0.0000      0.0000      0.0000      0.0000      0.0000      0.0000
 18      0.0000      0.1403      0.0000      0.0000      0.2836      0.1966      0.0000      0.0709      0.1413
 19      0.0000      0.0418      0.0324      0.0000      0.0000      0.0187      0.0034      0.0000      0.0239
 20      0.0000      0.0206      0.0000      0.0166      0.0000      0.0000      0.0000      0.0000      0.0000
 21      0.0000      0.0316      0.0000      0.0431      0.0000      0.0000      0.0000      0.1782      0.0000
 22      0.0000      0.0424      0.0325      0.0000      0.0314      0.0000      0.0000      0.0000      0.0179
 23      0.0000      0.0194      0.0000      0.0000      0.0000      0.0000      0.0000      0.0000      0.0000
 24      0.0000      0.0138      0.0000      0.0000      0.0000      0.0000      0.0000      0.0000      0.0000
 25      0.0000      0.0193      0.0000      0.0000      0.0000      0.0000      0.0000      0.0000      0.0000
 26      0.0000      0.0241      0.0000      0.0000      0.0000      0.0000      0.0191      0.0000      0.0000
 27      0.0000      0.0424      0.0000      0.0000      0.1203      0.0000      0.0000      0.0000      0.0000
 28      1.6801      2.0747      1.9541      1.6463      2.0944      1.9265      2.0460      1.9582      2.1267
 29      2.2801      1.5766      1.6085      1.5036      1.5320      1.8391      1.5989      1.3827      1.5977
 30      0.0000      0.0318      0.0202      0.0000      0.0008      0.0000      0.0000      0.0000      0.0000
 31      0.0000      0.0157      0.0000      0.0000      0.0000      0.0000      0.0000      0.0469      0.0000
 32      0.0000      0.0418      0.0000      0.0000      0.0000      0.0000      0.0622      0.0000      0.0000
 33      0.0000      0.0875      0.1279      0.0000      0.0000      0.0000      0.0565      0.1035      0.1054
 34      0.0000      0.0201      0.0000      0.0000      0.0992      0.0000      0.0000      0.0000      0.0000
 35      0.0000      0.0170      0.0000      0.0000      0.0000      0.0061      0.0531      0.0000      0.0460
 36      0.0000      0.0189      0.0334      0.0000      0.0000      0.0000      0.0000      0.0000      0.0000
 37      0.0000      0.0438      0.0751      0.1434      0.0000      0.0000      0.0093      0.0000      0.0000
 38      0.0000      0.0161      0.0000      0.0000      0.0000      0.0000      0.0000      0.0000      0.0000
 39      0.0000      0.0159      0.0000      0.0000      0.0000      0.0000      0.0000      0.0000      0.0000
 40      0.0000      0.0207      0.0000      0.0000      0.0000      0.0000      0.0000      0.0000      0.0000
 41      0.0000      0.0243      0.0000      0.0000      0.1347      0.0074      0.0440      0.0000      0.0000
 42      0.0000      0.0343      0.0000      0.0000      0.0000      0.0000      0.0065      0.0000      0.0000
 43      0.0000      0.7360      0.8888      0.6997      0.7401      0.7522      0.8420      0.8641      0.8068
 44      0.0000      0.4689      0.3937      0.4996      0.4761      0.5262      0.4803      0.2878      0.4610
 45      1.3454      0.6071      0.6894      0.7700      0.6073      0.5851      0.6388      0.7864      0.6691

# j      m_j: min, <> & last-chain-values for 1 ...  7 chains
  1  0.0000E+00  1.5194E-04  0.0000E+00  0.0000E+00  0.0000E+00  0.0000E+00  0.0000E+00  0.0000E+00  0.0000E+00
  2  2.8829E-02  2.2290E-02  2.3768E-02  2.3647E-02  2.4166E-02  2.2343E-02  2.2808E-02  2.3869E-02  2.2938E-02
  3  0.0000E+00  1.1499E-03  1.3091E-03  8.4720E-04  1.1451E-03  2.3555E-03  1.4424E-03  5.1010E-04  1.2187E-03
  4  1.0576E-01  1.1661E-01  1.1589E-01  1.1646E-01  1.1564E-01  1.1709E-01  1.1884E-01  1.1631E-01  1.1554E-01
  5  0.0000E+00  9.3079E-04  0.0000E+00  2.0022E-03  0.0000E+00  0.0000E+00  0.0000E+00  1.1367E-03  3.9359E-03
  6  0.0000E+00  1.4738E-03  0.0000E+00  0.0000E+00  0.0000E+00  7.2834E-04  0.0000E+00  1.6248E-03  0.0000E+00
  7  7.1036E-01  8.4397E-01  8.3290E-01  8.1314E-01  8.4245E-01  8.3205E-01  8.3029E-01  8.3509E-01  8.3285E-01
  8  0.0000E+00  3.6352E-03  2.2286E-03  0.0000E+00  0.0000E+00  0.0000E+00  0.0000E+00  0.0000E+00  0.0000E+00
  9  2.6156E-01  1.4773E-01  1.7517E-01  1.9768E-01  1.4806E-01  1.8032E-01  1.5752E-01  1.4465E-01  1.7602E-01
 10  8.2256E-01  2.6306E-01  2.7122E-01  2.8015E-01  3.3665E-01  3.4830E-01  3.9191E-01  3.0514E-01  2.9904E-01
 11  0.0000E+00  5.1598E-02  4.1467E-02  1.3184E-02  3.9820E-02  0.0000E+00  2.6082E-02  1.1401E-01  1.3505E-01
 12  5.8461E+00  8.1006E+00  8.0309E+00  8.0024E+00  8.1746E+00  7.9946E+00  7.9015E+00  8.0961E+00  7.5917E+00
 13  3.3712E+01  3.4971E+01  3.5018E+01  3.4790E+01  3.4350E+01  3.4405E+01  3.4639E+01  3.4613E+01  3.4784E+01
 14  2.8204E+01  2.6544E+01  2.5910E+01  2.7027E+01  2.7009E+01  2.6645E+01  2.6912E+01  2.6388E+01  2.5805E+01
 15  0.0000E+00  4.6155E-01  7.3919E-01  4.6422E-01  5.8723E-01  1.8510E-01  0.0000E+00  1.7251E+00  1.2031E+00
 16  0.0000E+00  5.3342E-05  1.1755E-05  0.0000E+00  0.0000E+00  4.0966E-05  0.0000E+00  0.0000E+00  0.0000E+00
 17  0.0000E+00  4.6494E-05  1.5138E-05  0.0000E+00  0.0000E+00  0.0000E+00  0.0000E+00  0.0000E+00  0.0000E+00
 18  0.0000E+00  4.9458E-04  0.0000E+00  0.0000E+00  1.0037E-03  6.8847E-04  0.0000E+00  2.4983E-04  4.9426E-04
 19  0.0000E+00  4.4047E-04  3.4027E-04  0.0000E+00  0.0000E+00  1.9543E-04  3.6136E-05  0.0000E+00  2.5034E-04
 20  0.0000E+00  4.8268E-04  0.0000E+00  3.8348E-04  0.0000E+00  0.0000E+00  0.0000E+00  0.0000E+00  0.0000E+00
 21  0.0000E+00  8.9117E-04  0.0000E+00  1.1980E-03  0.0000E+00  0.0000E+00  0.0000E+00  5.0162E-03  0.0000E+00
 22  0.0000E+00  1.9862E-03  1.5139E-03  0.0000E+00  1.4762E-03  0.0000E+00  0.0000E+00  0.0000E+00  8.3021E-04
 23  0.0000E+00  1.7872E-03  0.0000E+00  0.0000E+00  0.0000E+00  0.0000E+00  0.0000E+00  0.0000E+00  0.0000E+00
 24  0.0000E+00  2.8949E-03  0.0000E+00  0.0000E+00  0.0000E+00  0.0000E+00  0.0000E+00  0.0000E+00  0.0000E+00
 25  0.0000E+00  6.2585E-03  0.0000E+00  0.0000E+00  0.0000E+00  0.0000E+00  0.0000E+00  0.0000E+00  0.0000E+00
 26  0.0000E+00  1.4730E-02  0.0000E+00  0.0000E+00  0.0000E+00  0.0000E+00  1.1625E-02  0.0000E+00  0.0000E+00
 27  0.0000E+00  5.2565E-02  0.0000E+00  0.0000E+00  1.4986E-01  0.0000E+00  0.0000E+00  0.0000E+00  0.0000E+00
 28  4.0205E+00  5.2097E+00  4.8864E+00  4.0808E+00  5.2796E+00  4.8044E+00  5.1178E+00  4.9149E+00  5.2979E+00
 29  1.1551E+01  8.3809E+00  8.5146E+00  7.8902E+00  8.1755E+00  9.7095E+00  8.4669E+00  7.3470E+00  8.4258E+00
 30  0.0000E+00  2.0149E-01  1.2754E-01  0.0000E+00  4.7855E-03  0.0000E+00  0.0000E+00  0.0000E+00  0.0000E+00
 31  0.0000E+00  7.2245E-05  0.0000E+00  0.0000E+00  0.0000E+00  0.0000E+00  0.0000E+00  2.1543E-04  0.0000E+00
 32  0.0000E+00  1.0126E-04  0.0000E+00  0.0000E+00  0.0000E+00  0.0000E+00  1.4996E-04  0.0000E+00  0.0000E+00
 33  0.0000E+00  3.1431E-04  4.5749E-04  0.0000E+00  0.0000E+00  0.0000E+00  2.0218E-04  3.7143E-04  3.7550E-04
