###################################################################
## OUTPUT of StarlightChains_v04.for    [Cid@UFSC - 01/Apr/2007] ##
###################################################################

## Some input info
NGC6316_b_1.cxt                          [arq_obs]
Base.BC03.N                              [arq_base]
NGC6316_b_1.msk                          [arq_masks]
StCv04.C99.config                        [arq_config]
   45                                    [N_base]
    0                                    [N_YAV_components = # of components with extra extinction!]
    0                                    [i_FitPowerLaw (1/0 = Yes/No)]
-9.99                                    [alpha_PowerLaw]
CCM                                      [red_law_option]
 1.458241                                [q_norm = A(l_norm)/A(V)]

## (Re)Sampling Parameters
 3359.00                                 [l_ini (A)]
 6428.00                                 [l_fin (A)]
    1.00                                 [dl    (A)]     (OBS: dl_cushion =    50.00 A)

## Normalization info
 4020.00                                 [l_norm (A) - for base]
 4010.00                                 [llow_norm (A) - window for f_obs]
 4060.00                                 [lupp_norm (A) - window for f_obs]
4.941922E-15                             [fobs_norm (in input units)]

## S/N
 4730.00                                 [llow_SN (A) - window for S/N]
 4780.00                                 [lupp_SN (A) - window for S/N]
  40.026                                 [S/N in S/N window]
  23.956                                 [S/N in norm. window]
 311.877                                 [S/N_err in S/N window]
 186.662                                 [S/N_err in norm. window]
  1.0000                                 [fscale_chi2]

## etc...
  2147483617                             [idum_orig]
  3069                                   [NOl_eff]
  1308                                   [Nl_eff]
  1761    NSIGMA                         [Ntot_cliped & clip_method]
  2377200                                [Nglobal_steps]
   7                                     [N_chains]
  15                                     [NEX0s_base = N_base in EX0s-fits]
 0   0   1      129   2.0   4.321E+02    [Clip-Bug, RC-Crash & Burn-In warning-flags, n_censored_weights, wei_nsig_threshold & wei_limit]
    28     28.013     28.009      0.004  [idt_all, wdt_TotTime, wdt_UsrTime & wdt_SysTime (sec)]

## Synthesis Results - Best model ##

 2.70340E+00                             [chi2/Nl_eff]
     2.08686                             [adev (%)]

    95.08218                             [sum-of-x (%)]
 7.12781E-14                             [Flux_tot (units of input spectrum!)]
 2.06845E-09                             [Mini_tot (???)]
 1.04842E-09                             [Mcor_tot (???)]

 -15.40                                  [v0_min  (km/s)]
  40.20                                  [vd_min  (km/s)]
 2.0246                                  [AV_min  (mag)]
 0.0000                                  [YAV_min (mag)]

# j     x_j(%)      Mini_j(%)     Mcor_j(%)     age_j(yr)     Z_j      (L/M)_j    YAV?  Mstars   component_j        a/Fe...       SSP_chi2r SSP_adev(%)   SSP_AV   SSP_x(%)
  1      7.6189     2.4787E-02    4.8902E-02    1.000000E+06  0.00400  1.114E-02    0   1.0000   age020_m42            0.0000     2.2055E+03    35.1533   4.0000    97.0464
  2      9.3003     8.2755E-03    1.6325E-02    3.160000E+06  0.00400  4.073E-02    0   0.9999   age045_m42            0.0000     3.6106E+02    13.6428   4.0000   101.9289
  3      1.6712     2.3902E-03    4.4742E-03    5.010000E+06  0.00400  2.534E-02    0   0.9488   age055_m42            0.0000     9.1279E+02    22.7592   4.0000   101.2510
  4      3.5367     1.0085E-02    1.7632E-02    1.000000E+07  0.00400  1.271E-02    0   0.8862   age070_m42            0.0000     2.3848E+02     6.8406   4.0000    95.5870
  5      0.0000     0.0000E+00    0.0000E+00    2.512000E+07  0.00400  5.070E-03    0   0.8174   age090_m42            0.0000     1.8369E+02     6.3441   4.0000    94.8152
  6      0.0000     0.0000E+00    0.0000E+00    4.000000E+07  0.00400  3.505E-03    0   0.7851   age104_m42            0.0000     1.3932E+02     5.1987   3.6967    96.4435
  7      0.0000     0.0000E+00    0.0000E+00    1.015200E+08  0.00400  2.268E-03    0   0.7207   age116_m42            0.0000     5.3280E+02    11.2153   3.5254   105.2498
  8      0.0000     0.0000E+00    0.0000E+00    2.861200E+08  0.00400  1.079E-03    0   0.6613   age125_m42            0.0000     5.6582E+02    12.0241   3.0252   106.5443
  9      0.0000     0.0000E+00    0.0000E+00    6.405400E+08  0.00400  5.077E-04    0   0.6197   age132_m42            0.0000     6.0768E+02    12.1487   2.6762   110.8107
 10      1.5670     1.6065E-01    1.9093E-01    9.047900E+08  0.00400  3.535E-04    0   0.6024   age135_m42            0.0000     4.4609E+02    11.0876   2.4428   110.0423
 11      0.0000     0.0000E+00    0.0000E+00    1.434000E+09  0.00400  1.910E-04    0   0.5716   age139_m42            0.0000     2.6260E+02    10.6444   1.9038   108.0151
 12      0.0000     0.0000E+00    0.0000E+00    2.500000E+09  0.00400  9.818E-05    0   0.5463   age150_m42            0.0000     1.1769E+02     9.2896   1.6247   103.2785
 13     28.9397     2.2230E+01    2.2929E+01    5.000000E+09  0.00400  4.718E-05    0   0.5228   age161_m42            0.0000     7.0460E+01     8.2479   1.4716    99.8604
 14     22.6776     3.7273E+01    3.6622E+01    1.100000E+10  0.00400  2.205E-05    0   0.4980   age185_m42            0.0000     9.9046E+01     9.6762   1.1862    97.3816
 15      9.2512     1.7806E+01    1.7308E+01    1.300000E+10  0.00400  1.883E-05    0   0.4927   age193_m42            0.0000     1.0582E+02     9.7582   1.1707    97.1776
 16      3.2373     5.8987E-03    1.1638E-02    1.000000E+06  0.02000  1.989E-02    0   1.0000   age020_m62            0.0000     2.1551E+03    34.3250   4.0000    97.6795
 17      0.0000     0.0000E+00    0.0000E+00    3.160000E+06  0.02000  3.772E-02    0   0.9858   age045_m62            0.0000     1.8254E+03    31.4392   4.0000    99.4973
 18      0.0000     0.0000E+00    0.0000E+00    5.010000E+06  0.02000  3.227E-02    0   0.9342   age055_m62            0.0000     6.7822E+02    19.5064   4.0000   102.6966
 19      0.7287     2.6121E-03    4.5097E-03    1.000000E+07  0.02000  1.011E-02    0   0.8751   age070_m62            0.0000     3.8738E+02     9.9018   4.0000    94.2849
 20      0.0000     0.0000E+00    0.0000E+00    2.512000E+07  0.02000  4.206E-03    0   0.8099   age090_m62            0.0000     2.7503E+02     8.3016   4.0000    92.9800
 21      0.0000     0.0000E+00    0.0000E+00    4.000000E+07  0.02000  3.373E-03    0   0.7799   age104_m62            0.0000     2.0643E+02     5.6161   3.8936    98.0048
 22      0.0000     0.0000E+00    0.0000E+00    1.015200E+08  0.02000  1.878E-03    0   0.7221   age116_m62            0.0000     4.7879E+02     9.6317   3.5957   105.6004
 23      0.0000     0.0000E+00    0.0000E+00    2.861200E+08  0.02000  8.869E-04    0   0.6700   age125_m62            0.0000     8.2866E+02    13.7472   3.0385   111.2418
 24      0.0000     0.0000E+00    0.0000E+00    6.405400E+08  0.02000  3.657E-04    0   0.6322   age132_m62            0.0000     6.2153E+02    14.4369   2.3200   113.9531
 25      0.0000     0.0000E+00    0.0000E+00    9.047900E+08  0.02000  2.312E-04    0   0.6152   age135_m62            0.0000     4.1816E+02    13.4055   1.9445   113.0479
 26      0.0000     0.0000E+00    0.0000E+00    1.434000E+09  0.02000  1.168E-04    0   0.5865   age139_m62            0.0000     1.8866E+02    11.0558   1.5448   107.1562
 27      0.0000     0.0000E+00    0.0000E+00    2.500000E+09  0.02000  5.505E-05    0   0.5610   age150_m62            0.0000     1.5553E+02    11.2040   1.1642   104.1525
 28      0.0013     1.8744E-03    1.9795E-03    5.000000E+09  0.02000  2.596E-05    0   0.5353   age161_m62            0.0000     2.3435E+02    13.5282   0.7924   103.8033
 29      1.7213     5.3366E+00    5.3727E+00    1.100000E+10  0.02000  1.169E-05    0   0.5103   age185_m62            0.0000     3.7280E+02    16.1260   0.3796   105.0635
 30      0.0000     0.0000E+00    0.0000E+00    1.300000E+10  0.02000  9.691E-06    0   0.5047   age193_m62            0.0000     4.0288E+02    16.5435   0.3266   105.2426
 31      0.0000     0.0000E+00    0.0000E+00    1.000000E+06  0.05000  2.651E-02    0   0.9998   age020_m72            0.0000     2.1092E+03    34.2543   4.0000    98.7569
 32      0.0000     0.0000E+00    0.0000E+00    3.160000E+06  0.05000  4.817E-02    0   0.9577   age045_m72            0.0000     1.3741E+03    28.0344   4.0000   102.1572
 33      0.0000     0.0000E+00    0.0000E+00    5.010000E+06  0.05000  3.101E-02    0   0.9147   age055_m72            0.0000     8.1873E+02    19.9109   4.0000   101.7217
 34      0.0000     0.0000E+00    0.0000E+00    1.000000E+07  0.05000  8.954E-03    0   0.8524   age070_m72            0.0000     1.1258E+03    25.0991   4.0000   102.4474
 35      0.0000     0.0000E+00    0.0000E+00    2.512000E+07  0.05000  4.207E-03    0   0.7902   age090_m72            0.0000     4.3703E+02    15.2544   4.0000   102.5606
 36      0.0000     0.0000E+00    0.0000E+00    4.000000E+07  0.05000  3.198E-03    0   0.7618   age104_m72            0.0000     3.4146E+02     8.3949   3.9521   101.8046
 37      0.0000     0.0000E+00    0.0000E+00    1.015200E+08  0.05000  1.716E-03    0   0.7092   age116_m72            0.0000     5.4890E+02    10.4070   3.6653   105.7657
 38      0.0000     0.0000E+00    0.0000E+00    2.861200E+08  0.05000  7.047E-04    0   0.6618   age125_m72            0.0000     8.0090E+02    14.4519   2.8064   111.5782
 39      0.0000     0.0000E+00    0.0000E+00    6.405400E+08  0.05000  2.633E-04    0   0.6253   age132_m72            0.0000     5.1729E+02    14.3955   1.9386   113.0060
 40      0.0000     0.0000E+00    0.0000E+00    9.047900E+08  0.05000  1.484E-04    0   0.6088   age135_m72            0.0000     2.8535E+02    13.1584   1.4516   107.6885
 41      0.0000     0.0000E+00    0.0000E+00    1.434000E+09  0.05000  7.827E-05    0   0.5847   age139_m72            0.0000     2.2947E+02    13.4021   1.0386   104.2305
 42      0.0000     0.0000E+00    0.0000E+00    2.500000E+09  0.05000  3.759E-05    0   0.5583   age150_m72            0.0000     2.6293E+02    14.1813   0.7024   103.3998
 43      3.3153     7.7619E+00    8.1468E+00    5.000000E+09  0.05000  1.548E-05    0   0.5320   age161_m72            0.0000     4.0276E+02    15.9577   0.2749   102.2997
 44      0.7544     4.1855E+00    4.1866E+00    1.100000E+10  0.05000  6.532E-06    0   0.5070   age185_m72            0.0000     6.2275E+02    19.7038  -0.1982   102.0985
 45      0.7613     5.1899E+00    5.1381E+00    1.300000E+10  0.05000  5.316E-06    0   0.5018   age193_m72            0.0000     7.1941E+02    21.1840  -0.3588   102.3307


## Synthesis Results - Average & Chains ##

# j      x_j: min, <> & last-chain-values for 1 ...  7 chains
  1      7.6189      7.2604      7.2332      7.3503      7.5457      7.3464      7.4175      7.4266      7.1783
  2      9.3003      7.9039      8.0204      8.1576      8.2092      7.9270      7.9166      8.3832      8.1110
  3      1.6712      2.0986      2.1585      2.1630      2.0951      2.2493      2.2161      2.1413      2.0977
  4      3.5367      3.7756      3.8941      3.8689      3.7915      3.7917      3.8369      3.7303      3.9835
  5      0.0000      0.1966      0.0547      0.0000      0.0251      0.1137      0.0000      0.0000      0.1600
  6      0.0000      0.0405      0.0846      0.0396      0.0052      0.0000      0.0000      0.0246      0.0138
  7      0.0000      0.0318      0.0000      0.0000      0.1048      0.0000      0.0000      0.0000      0.0553
  8      0.0000      0.0352      0.0000      0.1451      0.0000      0.0463      0.0000      0.0252      0.0000
  9      0.0000      0.2269      0.2720      0.0460      0.3620      0.3770      0.5816      0.2241      0.4099
 10      1.5670      0.3313      0.6260      0.8654      0.4769      0.4981      0.3497      0.5813      0.4085
 11      0.0000      0.1256      0.2381      0.0840      0.0941      0.2590      0.0000      0.0000      0.0714
 12      0.0000      0.1474      0.0000      0.3209      0.2761      0.0245      0.0147      0.0000      0.0000
 13     28.9397     29.7087     29.7213     29.2367     29.7679     29.5360     29.3702     29.8389     29.7736
 14     22.6776     22.1221     22.1763     22.3216     22.3084     22.6654     22.7938     22.0997     21.7444
 15      9.2512      9.3233      9.4490      9.1709      9.3638      9.0016      9.2508      9.4190      9.8150
 16      3.2373      3.1402      3.1211      3.2400      3.0506      3.2289      3.2450      3.0858      3.1308
 17      0.0000      0.0839      0.0543      0.0139      0.0000      0.0000      0.0420      0.0000      0.0032
 18      0.0000      0.3332      0.4001      0.2400      0.1304      0.4138      0.1754      0.3424      0.3981
 19      0.7287      0.7966      0.8568      0.5983      0.7833      0.7912      0.6568      0.8169      0.9714
 20      0.0000      0.0245      0.0000      0.0000      0.0272      0.0000      0.0000      0.0140      0.0000
 21      0.0000      0.0370      0.0000      0.0000      0.0000      0.0000      0.0000      0.0000      0.0000
 22      0.0000      0.0254      0.0000      0.0036      0.0000      0.0000      0.0422      0.0000      0.1174
 23      0.0000      0.0266      0.0125      0.0000      0.0000      0.0000      0.1019      0.0000      0.0000
 24      0.0000      0.0295      0.0000      0.0000      0.0216      0.0000      0.0000      0.0000      0.0000
 25      0.0000      0.0521      0.0486      0.0000      0.0000      0.0852      0.0762      0.2394      0.0000
 26      0.0000      0.0495      0.0000      0.0000      0.0000      0.0214      0.2315      0.0097      0.0000
 27      0.0000      0.0666      0.0324      0.0000      0.0000      0.0000      0.0000      0.0000      0.0000
 28      0.0013      1.1096      0.7475      1.1088      0.6688      0.9526      0.2029      0.8100      0.8464
 29      1.7213      2.0000      1.9984      1.9231      2.0321      1.9650      2.3575      2.0431      2.0266
 30      0.0000      0.4264      0.3439      0.2981      0.3777      0.2459      0.2350      0.4482      0.6380
 31      0.0000      0.0193      0.0000      0.0000      0.0000      0.0000      0.0866      0.0000      0.0000
 32      0.0000      0.0226      0.0000      0.0224      0.0000      0.0000      0.0000      0.0000      0.0000
 33      0.0000      0.0695      0.0000      0.0366      0.0568      0.0000      0.1076      0.0000      0.0071
 34      0.0000      0.0321      0.0542      0.0000      0.0000      0.0000      0.0000      0.0000      0.0000
 35      0.0000      0.0248      0.0000      0.2002      0.0000      0.0000      0.0000      0.0000      0.0000
 36      0.0000      0.0208      0.0000      0.0219      0.0580      0.0050      0.0000      0.0000      0.0000
 37      0.0000      0.0301      0.0000      0.0387      0.0229      0.0000      0.0476      0.0370      0.0000
 38      0.0000      0.0262      0.0000      0.0000      0.0000      0.0061      0.0000      0.0000      0.0000
 39      0.0000      0.0473      0.0000      0.0000      0.1037      0.0000      0.0973      0.0000      0.0000
 40      0.0000      0.0657      0.0000      0.0000      0.0000      0.0125      0.2151      0.0000      0.0000
 41      0.0000      0.0420      0.0000      0.0000      0.0000      0.0000      0.0000      0.0000      0.0000
 42      0.0000      0.0355      0.0000      0.0000      0.0000      0.0000      0.0000      0.0000      0.0000
 43      3.3153      1.3209      1.6896      1.5532      1.3763      1.5904      1.4758      1.5687      1.3709
 44      0.7544      0.7409      0.7624      0.9441      0.8205      0.8681      0.9251      0.7707      0.7153
 45      0.7613      1.0752      1.0436      1.0803      1.1478      1.0482      1.0258      1.0332      1.0542

# j      m_j: min, <> & last-chain-values for 1 ...  7 chains
  1  4.8902E-02  4.6042E-02  4.5796E-02  4.6329E-02  4.7531E-02  4.6505E-02  4.6680E-02  4.6943E-02  4.5312E-02
  2  1.6325E-02  1.3708E-02  1.3887E-02  1.4062E-02  1.4142E-02  1.3723E-02  1.3625E-02  1.4492E-02  1.4002E-02
  3  4.4742E-03  5.5510E-03  5.7003E-03  5.6867E-03  5.5046E-03  5.9393E-03  5.8171E-03  5.6457E-03  5.5231E-03
  4  1.7632E-02  1.8597E-02  1.9150E-02  1.8941E-02  1.8551E-02  1.8644E-02  1.8755E-02  1.8314E-02  1.9531E-02
  5  0.0000E+00  2.2387E-03  6.2228E-04  0.0000E+00  2.8410E-04  1.2929E-03  0.0000E+00  0.0000E+00  1.8140E-03
  6  0.0000E+00  6.4157E-04  1.3362E-03  6.2293E-04  8.1482E-05  0.0000E+00  0.0000E+00  3.8784E-04  2.1814E-04
  7  0.0000E+00  7.1390E-04  0.0000E+00  0.0000E+00  2.3370E-03  0.0000E+00  0.0000E+00  0.0000E+00  1.2355E-03
  8  0.0000E+00  1.5253E-03  0.0000E+00  6.2463E-03  0.0000E+00  2.0023E-03  0.0000E+00  1.0879E-03  0.0000E+00
  9  0.0000E+00  1.9561E-02  2.3413E-02  3.9459E-03  3.1005E-02  3.2448E-02  4.9765E-02  1.9265E-02  3.5183E-02
 10  1.9093E-01  3.9883E-02  7.5239E-02  1.0354E-01  5.7033E-02  5.9861E-02  4.1773E-02  6.9754E-02  4.8945E-02
 11  0.0000E+00  2.6563E-02  5.0265E-02  1.7648E-02  1.9752E-02  5.4658E-02  0.0000E+00  0.0000E+00  1.5022E-02
 12  0.0000E+00  5.7930E-02  0.0000E+00  1.2537E-01  1.0781E-01  9.6137E-03  5.7234E-03  0.0000E+00  0.0000E+00
 13  2.2929E+01  2.3256E+01  2.3229E+01  2.2748E+01  2.3147E+01  2.3080E+01  2.2816E+01  2.3282E+01  2.3200E+01
 14  3.6622E+01  3.5296E+01  3.5326E+01  3.5398E+01  3.5355E+01  3.6099E+01  3.6090E+01  3.5146E+01  3.4534E+01
 15  1.7308E+01  1.7234E+01  1.7438E+01  1.6849E+01  1.7193E+01  1.6610E+01  1.6969E+01  1.7354E+01  1.8059E+01
 16  1.1638E-02  1.1153E-02  1.1068E-02  1.1438E-02  1.0763E-02  1.1448E-02  1.1437E-02  1.0925E-02  1.1069E-02
 17  0.0000E+00  1.5499E-04  1.0002E-04  2.5464E-05  0.0000E+00  0.0000E+00  7.7041E-05  0.0000E+00  5.8202E-06
 18  0.0000E+00  6.8135E-04  8.1688E-04  4.8776E-04  2.6486E-04  8.4480E-04  3.5589E-04  6.9803E-04  8.1045E-04
 19  4.5097E-03  4.8709E-03  5.2307E-03  3.6360E-03  4.7576E-03  4.8295E-03  3.9859E-03  4.9791E-03  5.9124E-03
 20  0.0000E+00  3.3277E-04  0.0000E+00  0.0000E+00  3.6742E-04  0.0000E+00  0.0000E+00  1.8915E-04  0.0000E+00
 21  0.0000E+00  6.0510E-04  0.0000E+00  0.0000E+00  0.0000E+00  0.0000E+00  0.0000E+00  0.0000E+00  0.0000E+00
 22  0.0000E+00  6.8892E-04  0.0000E+00  9.7701E-05  0.0000E+00  0.0000E+00  1.1385E-03  0.0000E+00  3.1736E-03
 23  0.0000E+00  1.4181E-03  6.6455E-04  0.0000E+00  0.0000E+00  0.0000E+00  5.3944E-03  0.0000E+00  0.0000E+00
 24  0.0000E+00  3.6007E-03  0.0000E+00  0.0000E+00  2.6250E-03  0.0000E+00  0.0000E+00  0.0000E+00  0.0000E+00
 25  0.0000E+00  9.8000E-03  9.1176E-03  0.0000E+00  0.0000E+00  1.5993E-02  1.4210E-02  4.4863E-02  0.0000E+00
 26  0.0000E+00  1.7577E-02  0.0000E+00  0.0000E+00  0.0000E+00  7.5683E-03  8.1491E-02  3.4304E-03  0.0000E+00
 27  0.0000E+00  4.7945E-02  2.3292E-02  0.0000E+00  0.0000E+00  0.0000E+00  0.0000E+00  0.0000E+00  0.0000E+00
 28  1.9795E-03  1.6163E+00  1.0872E+00  1.6054E+00  9.6772E-01  1.3852E+00  2.9331E-01  1.1760E+00  1.2272E+00
 29  5.3727E+00  6.1677E+00  6.1530E+00  5.8944E+00  6.2246E+00  6.0491E+00  7.2148E+00  6.2801E+00  6.2209E+00
 30  0.0000E+00  1.5687E+00  1.2632E+00  1.0901E+00  1.3803E+00  9.0306E-01  8.5798E-01  1.6436E+00  2.3366E+00
 31  0.0000E+00  5.1532E-05  0.0000E+00  0.0000E+00  0.0000E+00  0.0000E+00  2.2887E-04  0.0000E+00  0.0000E+00
 32  0.0000E+00  3.1743E-05  0.0000E+00  3.1274E-05  0.0000E+00  0.0000E+00  0.0000E+00  0.0000E+00  0.0000E+00
 33  0.0000E+00  1.4481E-04  0.0000E+00  7.5871E-05  1.1761E-04  0.0000E+00  2.2260E-04  0.0000E+00  1.4788E-05
