###################################################################
## OUTPUT of StarlightChains_v04.for    [Cid@UFSC - 01/Apr/2007] ##
###################################################################

## Some input info
NGC6352_a_1.cxt                          [arq_obs]
Base.BC03.N                              [arq_base]
NGC6352_a_1.msk                          [arq_masks]
StCv04.C99.config                        [arq_config]
   45                                    [N_base]
    0                                    [N_YAV_components = # of components with extra extinction!]
    0                                    [i_FitPowerLaw (1/0 = Yes/No)]
-9.99                                    [alpha_PowerLaw]
CCM                                      [red_law_option]
 1.458241                                [q_norm = A(l_norm)/A(V)]

## (Re)Sampling Parameters
 3359.00                                 [l_ini (A)]
 6428.00                                 [l_fin (A)]
    1.00                                 [dl    (A)]     (OBS: dl_cushion =    50.00 A)

## Normalization info
 4020.00                                 [l_norm (A) - for base]
 4010.00                                 [llow_norm (A) - window for f_obs]
 4060.00                                 [lupp_norm (A) - window for f_obs]
4.889122E-15                             [fobs_norm (in input units)]

## S/N
 4730.00                                 [llow_SN (A) - window for S/N]
 4780.00                                 [lupp_SN (A) - window for S/N]
  33.884                                 [S/N in S/N window]
  22.882                                 [S/N in norm. window]
 274.330                                 [S/N_err in S/N window]
 185.259                                 [S/N_err in norm. window]
  1.0000                                 [fscale_chi2]

## etc...
  2147483613                             [idum_orig]
  3060                                   [NOl_eff]
   625                                   [Nl_eff]
  2435    NSIGMA                         [Ntot_cliped & clip_method]
  1685040                                [Nglobal_steps]
   7                                     [N_chains]
   9                                     [NEX0s_base = N_base in EX0s-fits]
 0   0   1      257   2.0   3.884E+02    [Clip-Bug, RC-Crash & Burn-In warning-flags, n_censored_weights, wei_nsig_threshold & wei_limit]
    23     22.278     22.274      0.004  [idt_all, wdt_TotTime, wdt_UsrTime & wdt_SysTime (sec)]

## Synthesis Results - Best model ##

 2.78665E+00                             [chi2/Nl_eff]
     1.20149                             [adev (%)]

   100.30384                             [sum-of-x (%)]
 1.12985E-14                             [Flux_tot (units of input spectrum!)]
 3.86416E-10                             [Mini_tot (???)]
 1.99779E-10                             [Mcor_tot (???)]

  15.55                                  [v0_min  (km/s)]
  57.87                                  [vd_min  (km/s)]
 0.6214                                  [AV_min  (mag)]
 0.0000                                  [YAV_min (mag)]

# j     x_j(%)      Mini_j(%)     Mcor_j(%)     age_j(yr)     Z_j      (L/M)_j    YAV?  Mstars   component_j        a/Fe...       SSP_chi2r SSP_adev(%)   SSP_AV   SSP_x(%)
  1      1.8153     4.7502E-03    9.1880E-03    1.000000E+06  0.00400  1.114E-02    0   1.0000   age020_m42            0.0000     2.1054E+03    26.4471   4.0000    93.9184
  2      1.8981     1.3585E-03    2.6273E-03    3.160000E+06  0.00400  4.073E-02    0   0.9999   age045_m42            0.0000     6.4831E+02    12.7399   3.7081    93.2260
  3      0.0000     0.0000E+00    0.0000E+00    5.010000E+06  0.00400  2.534E-02    0   0.9488   age055_m42            0.0000     8.5054E+02    16.2271   4.0000    89.9850
  4      2.3695     5.4344E-03    9.3151E-03    1.000000E+07  0.00400  1.271E-02    0   0.8862   age070_m42            0.0000     8.7514E+02    15.8578   3.3016    91.8289
  5      0.0000     0.0000E+00    0.0000E+00    2.512000E+07  0.00400  5.070E-03    0   0.8174   age090_m42            0.0000     7.9266E+02    15.1567   3.1687    93.5663
  6      0.0000     0.0000E+00    0.0000E+00    4.000000E+07  0.00400  3.505E-03    0   0.7851   age104_m42            0.0000     6.1559E+02    13.0926   2.8699    96.0939
  7      0.0000     0.0000E+00    0.0000E+00    1.015200E+08  0.00400  2.268E-03    0   0.7207   age116_m42            0.0000     8.9566E+02    11.8270   2.9704   101.8499
  8      0.0000     0.0000E+00    0.0000E+00    2.861200E+08  0.00400  1.079E-03    0   0.6613   age125_m42            0.0000     8.9003E+02    11.5726   2.4789   103.9776
  9      0.0000     0.0000E+00    0.0000E+00    6.405400E+08  0.00400  5.077E-04    0   0.6197   age132_m42            0.0000     8.9568E+02    11.8184   2.1226   107.8164
 10      0.0000     0.0000E+00    0.0000E+00    9.047900E+08  0.00400  3.535E-04    0   0.6024   age135_m42            0.0000     6.5135E+02    10.0010   1.8728   107.4120
 11      0.0000     0.0000E+00    0.0000E+00    1.434000E+09  0.00400  1.910E-04    0   0.5716   age139_m42            0.0000     3.0889E+02     6.6989   1.3401   106.3745
 12      0.0000     0.0000E+00    0.0000E+00    2.500000E+09  0.00400  9.818E-05    0   0.5463   age150_m42            0.0000     9.0556E+01     3.5487   1.0355   102.6691
 13     22.7772     1.4073E+01    1.4231E+01    5.000000E+09  0.00400  4.718E-05    0   0.5228   age161_m42            0.0000     2.7580E+01     2.2998   0.8486   100.0416
 14     34.7473     4.5937E+01    4.4248E+01    1.100000E+10  0.00400  2.205E-05    0   0.4980   age185_m42            0.0000     1.3659E+01     1.7872   0.5781    98.2265
 15      0.4201     6.5029E-01    6.1972E-01    1.300000E+10  0.00400  1.883E-05    0   0.4927   age193_m42            0.0000     1.7406E+01     1.9830   0.5583    98.1870
 16      0.0000     0.0000E+00    0.0000E+00    1.000000E+06  0.02000  1.989E-02    0   1.0000   age020_m62            0.0000     1.9733E+03    25.3796   4.0000    94.1535
 17      0.0000     0.0000E+00    0.0000E+00    3.160000E+06  0.02000  3.772E-02    0   0.9858   age045_m62            0.0000     1.5785E+03    23.0022   4.0000    93.7022
 18      0.0000     0.0000E+00    0.0000E+00    5.010000E+06  0.02000  3.227E-02    0   0.9342   age055_m62            0.0000     8.0349E+02    14.8983   3.9503    90.5116
 19      0.0000     0.0000E+00    0.0000E+00    1.000000E+07  0.02000  1.011E-02    0   0.8751   age070_m62            0.0000     1.3518E+03    20.3899   3.2468    90.2785
 20      0.0000     0.0000E+00    0.0000E+00    2.512000E+07  0.02000  4.206E-03    0   0.8099   age090_m62            0.0000     1.0417E+03    18.0844   3.1906    90.8652
 21      0.0000     0.0000E+00    0.0000E+00    4.000000E+07  0.02000  3.373E-03    0   0.7799   age104_m62            0.0000     7.2050E+02    13.3516   3.0788    97.3658
 22      0.0000     0.0000E+00    0.0000E+00    1.015200E+08  0.02000  1.878E-03    0   0.7221   age116_m62            0.0000     9.0419E+02    11.9270   2.9727   102.9619
 23      0.0000     0.0000E+00    0.0000E+00    2.861200E+08  0.02000  8.869E-04    0   0.6700   age125_m62            0.0000     1.2314E+03    13.6248   2.4967   108.6015
 24      0.0000     0.0000E+00    0.0000E+00    6.405400E+08  0.02000  3.657E-04    0   0.6322   age132_m62            0.0000     7.9181E+02    10.5166   1.8206   111.6803
 25      0.0000     0.0000E+00    0.0000E+00    9.047900E+08  0.02000  2.312E-04    0   0.6152   age135_m62            0.0000     4.5701E+02     7.8569   1.4369   111.0121
 26      0.0000     0.0000E+00    0.0000E+00    1.434000E+09  0.02000  1.168E-04    0   0.5865   age139_m62            0.0000     1.3301E+02     4.2427   0.9812   106.5162
 27      0.0000     0.0000E+00    0.0000E+00    2.500000E+09  0.02000  5.505E-05    0   0.5610   age150_m62            0.0000     4.0844E+01     2.6959   0.5909   104.1844
 28     25.6130     2.8761E+01    2.9779E+01    5.000000E+09  0.02000  2.596E-05    0   0.5353   age161_m62            0.0000     8.4132E+01     4.2587   0.2583   104.2372
 29      1.3376     3.3354E+00    3.2921E+00    1.100000E+10  0.02000  1.169E-05    0   0.5103   age185_m62            0.0000     2.2182E+02     6.7830  -0.1072   105.7571
 30      0.0000     0.0000E+00    0.0000E+00    1.300000E+10  0.02000  9.691E-06    0   0.5047   age193_m62            0.0000     2.5470E+02     7.2215  -0.1540   106.0422
 31      0.0000     0.0000E+00    0.0000E+00    1.000000E+06  0.05000  2.651E-02    0   0.9998   age020_m72            0.0000     1.9334E+03    25.0190   4.0000    95.1623
 32      0.0000     0.0000E+00    0.0000E+00    3.160000E+06  0.05000  4.817E-02    0   0.9577   age045_m72            0.0000     1.1886E+03    19.8124   4.0000    93.9497
 33      0.0000     0.0000E+00    0.0000E+00    5.010000E+06  0.05000  3.101E-02    0   0.9147   age055_m72            0.0000     9.1239E+02    16.5341   3.9246    89.9422
 34      0.0000     0.0000E+00    0.0000E+00    1.000000E+07  0.05000  8.954E-03    0   0.8524   age070_m72            0.0000     9.1289E+02    17.2769   4.0000    92.5407
 35      0.0000     0.0000E+00    0.0000E+00    2.512000E+07  0.05000  4.207E-03    0   0.7902   age090_m72            0.0000     6.7881E+02    13.5438   3.7501    93.5618
 36      0.0000     0.0000E+00    0.0000E+00    4.000000E+07  0.05000  3.198E-03    0   0.7618   age104_m72            0.0000     7.4381E+02    11.3282   3.3112    99.5344
 37      0.0000     0.0000E+00    0.0000E+00    1.015200E+08  0.05000  1.716E-03    0   0.7092   age116_m72            0.0000     9.8217E+02    12.3087   3.0575   103.0236
 38      0.0000     0.0000E+00    0.0000E+00    2.861200E+08  0.05000  7.047E-04    0   0.6618   age125_m72            0.0000     1.1135E+03    12.6039   2.2920   108.8842
 39      0.0000     0.0000E+00    0.0000E+00    6.405400E+08  0.05000  2.633E-04    0   0.6253   age132_m72            0.0000     5.4502E+02     8.4115   1.4429   111.0918
 40      0.0000     0.0000E+00    0.0000E+00    9.047900E+08  0.05000  1.484E-04    0   0.6088   age135_m72            0.0000     1.8819E+02     5.1311   0.9355   106.8807
 41      0.0000     0.0000E+00    0.0000E+00    1.434000E+09  0.05000  7.827E-05    0   0.5847   age139_m72            0.0000     7.9951E+01     3.8233   0.5208   104.1236
 42      9.3258     7.2321E+00    7.8097E+00    2.500000E+09  0.05000  3.759E-05    0   0.5583   age150_m72            0.0000     1.0590E+02     4.8098   0.1826   103.8373
 43      0.0000     0.0000E+00    0.0000E+00    5.000000E+09  0.05000  1.548E-05    0   0.5320   age161_m72            0.0000     2.3519E+02     6.6645  -0.2447   103.9220
 44      0.0000     0.0000E+00    0.0000E+00    1.100000E+10  0.05000  6.532E-06    0   0.5070   age185_m72            0.0000     4.9503E+02     9.3494  -0.6188   103.6876
 45      0.0000     0.0000E+00    0.0000E+00    1.300000E+10  0.05000  5.316E-06    0   0.5018   age193_m72            0.0000     6.2025E+02    10.4482  -0.7338   103.7025


## Synthesis Results - Average & Chains ##

# j      x_j: min, <> & last-chain-values for 1 ...  7 chains
  1      1.8153      1.4599      1.4899      1.5663      1.4523      1.4650      1.5179      1.5057      1.5316
  2      1.8981      1.3100      1.2679      1.3493      1.3843      1.1344      1.4152      1.6225      1.3300
  3      0.0000      0.5076      0.5060      0.5703      0.4079      0.5179      0.5148      0.4847      0.4658
  4      2.3695      2.6116      2.6348      2.6487      2.6131      2.5352      2.5797      2.3378      2.6138
  5      0.0000      0.0189      0.0000      0.0000      0.0000      0.0438      0.0000      0.0000      0.0000
  6      0.0000      0.0192      0.0000      0.0000      0.0000      0.0000      0.0000      0.0000      0.0000
  7      0.0000      0.0168      0.0000      0.0000      0.0000      0.0000      0.0000      0.0000      0.0097
  8      0.0000      0.0201      0.0000      0.0000      0.0000      0.0000      0.0705      0.0000      0.0000
  9      0.0000      0.0292      0.0000      0.1341      0.0000      0.0000      0.0993      0.0367      0.0000
 10      0.0000      0.0673      0.1688      0.0639      0.1229      0.0000      0.1313      0.1643      0.0000
 11      0.0000      0.0684      0.0752      0.0921      0.0835      0.2338      0.0000      0.3333      0.0233
 12      0.0000      0.2498      1.0289      0.2920      0.3094      0.6436      0.3075      0.0000      1.0327
 13     22.7772     20.5371     20.3642     20.4622     20.8146     20.7895     20.8105     20.4830     20.2467
 14     34.7473     35.0861     35.1081     34.8023     35.6118     35.2125     34.7478     35.5192     35.2431
 15      0.4201      1.0406      1.2991      1.7583      0.8153      0.7992      1.5731      0.7581      0.7465
 16      0.0000      0.0155      0.0000      0.0000      0.0000      0.0000      0.0967      0.0000      0.0861
 17      0.0000      0.0178      0.0000      0.0000      0.0000      0.0113      0.0000      0.0000      0.0000
 18      0.0000      0.0171      0.0000      0.0000      0.0154      0.0000      0.0000      0.0000      0.0000
 19      0.0000      0.0374      0.0000      0.0000      0.0000      0.2212      0.0045      0.0183      0.0000
 20      0.0000      0.0246      0.0101      0.0000      0.0787      0.0226      0.0000      0.0000      0.0000
 21      0.0000      0.0118      0.0000      0.0000      0.0000      0.0000      0.0000      0.0000      0.0000
 22      0.0000      0.0144      0.0511      0.0320      0.0000      0.1147      0.0000      0.0167      0.0000
 23      0.0000      0.0162      0.0000      0.0000      0.0000      0.0000      0.0000      0.0856      0.0000
 24      0.0000      0.0278      0.0000      0.0020      0.0533      0.0000      0.0158      0.0000      0.0000
 25      0.0000      0.0388      0.0808      0.0549      0.0000      0.0000      0.0000      0.0000      0.3054
 26      0.0000      0.1252      0.0108      0.1905      0.2385      0.0327      0.0487      0.2194      0.1773
 27      0.0000      0.2692      0.0425      0.0000      0.0000      0.0000      0.0000      0.0000      0.1971
 28     25.6130     25.5780     25.1216     25.7169     25.5303     25.5819     25.5688     25.6194     25.2223
 29      1.3376      1.9240      2.0129      1.9733      1.8812      1.9418      1.8231      2.3042      2.0790
 30      0.0000      0.1168      0.2176      0.0000      0.0000      0.0000      0.1299      0.0000      0.1285
 31      0.0000      0.0481      0.1362      0.0176      0.0922      0.0000      0.0000      0.1559      0.0000
 32      0.0000      0.0208      0.0000      0.0000      0.1012      0.0081      0.0000      0.0647      0.0720
 33      0.0000      0.0302      0.0000      0.0000      0.0000      0.1753      0.0000      0.0000      0.0708
 34      0.0000      0.0271      0.0000      0.0165      0.0143      0.0000      0.0000      0.0000      0.0000
 35      0.0000      0.0105      0.0466      0.0000      0.0000      0.0000      0.0000      0.0000      0.0000
 36      0.0000      0.0190      0.0000      0.0000      0.0000      0.0000      0.0000      0.0000      0.0000
 37      0.0000      0.0165      0.0000      0.0000      0.0000      0.0000      0.0000      0.0000      0.0000
 38      0.0000      0.0161      0.0000      0.0000      0.0000      0.0000      0.0486      0.0000      0.0000
 39      0.0000      0.0347      0.0574      0.0000      0.0000      0.0000      0.0000      0.0000      0.0000
 40      0.0000      0.0714      0.0000      0.0531      0.0000      0.0000      0.0000      0.0000      0.1181
 41      0.0000      0.2200      0.0873      0.0000      0.1504      0.0535      0.4485      0.0000      0.0000
 42      9.3258      8.3459      8.4624      8.3956      8.5233      8.5528      8.2786      8.5744      8.4440
 43      0.0000      0.1295      0.0569      0.1535      0.0605      0.1901      0.0000      0.0465      0.2355
 44      0.0000      0.0346      0.0026      0.0000      0.0000      0.0000      0.0000      0.0000      0.0000
 45      0.0000      0.0866      0.0465      0.0000      0.0000      0.0744      0.1278      0.0251      0.0000

# j      m_j: min, <> & last-chain-values for 1 ...  7 chains
  1  9.1880E-03  7.2337E-03  7.3883E-03  7.7721E-03  7.2490E-03  7.2869E-03  7.5228E-03  7.4588E-03  7.6328E-03
  2  2.6273E-03  1.7750E-03  1.7195E-03  1.8311E-03  1.8896E-03  1.5431E-03  1.9181E-03  2.1982E-03  1.8126E-03
  3  0.0000E+00  1.0490E-03  1.0467E-03  1.1804E-03  8.4919E-04  1.0745E-03  1.0642E-03  1.0015E-03  9.6832E-04
  4  9.3151E-03  1.0051E-02  1.0149E-02  1.0209E-02  1.0131E-02  9.7948E-03  9.9304E-03  8.9956E-03  1.0118E-02
  5  0.0000E+00  1.6862E-04  0.0000E+00  0.0000E+00  0.0000E+00  3.9145E-04  0.0000E+00  0.0000E+00  0.0000E+00
  6  0.0000E+00  2.3711E-04  0.0000E+00  0.0000E+00  0.0000E+00  0.0000E+00  0.0000E+00  0.0000E+00  0.0000E+00
  7  0.0000E+00  2.9474E-04  0.0000E+00  0.0000E+00  0.0000E+00  0.0000E+00  0.0000E+00  0.0000E+00  1.7174E-04
  8  0.0000E+00  6.7833E-04  0.0000E+00  0.0000E+00  0.0000E+00  0.0000E+00  2.3868E-03  0.0000E+00  0.0000E+00
  9  0.0000E+00  1.9664E-03  0.0000E+00  9.0505E-03  0.0000E+00  0.0000E+00  6.6900E-03  2.4708E-03  0.0000E+00
 10  0.0000E+00  6.3337E-03  1.5891E-02  6.0173E-03  1.1645E-02  0.0000E+00  1.2357E-02  1.5449E-02  0.0000E+00
 11  0.0000E+00  1.1294E-02  1.2433E-02  1.5236E-02  1.3899E-02  3.8773E-02  0.0000E+00  5.5044E-02  3.8693E-03
 12  0.0000E+00  7.6716E-02  3.1626E-01  8.9803E-02  9.5720E-02  1.9845E-01  9.4465E-02  0.0000E+00  3.1902E-01
 13  1.4231E+01  1.2561E+01  1.2466E+01  1.2534E+01  1.2825E+01  1.2765E+01  1.2731E+01  1.2526E+01  1.2455E+01
 14  4.4248E+01  4.3739E+01  4.3804E+01  4.3449E+01  4.4721E+01  4.4067E+01  4.3327E+01  4.4270E+01  4.4189E+01
 15  6.1972E-01  1.5029E+00  1.8778E+00  2.5431E+00  1.1861E+00  1.1587E+00  2.2724E+00  1.0947E+00  1.0844E+00
 16  0.0000E+00  4.2909E-05  0.0000E+00  0.0000E+00  0.0000E+00  0.0000E+00  2.6833E-04  0.0000E+00  2.4034E-04
 17  0.0000E+00  2.5736E-05  0.0000E+00  0.0000E+00  0.0000E+00  1.6311E-05  0.0000E+00  0.0000E+00  0.0000E+00
 18  0.0000E+00  2.7399E-05  0.0000E+00  0.0000E+00  2.4759E-05  0.0000E+00  0.0000E+00  0.0000E+00  0.0000E+00
 19  0.0000E+00  1.7890E-04  0.0000E+00  0.0000E+00  0.0000E+00  1.0608E-03  2.1406E-05  8.7377E-05  0.0000E+00
 20  0.0000E+00  2.6190E-04  1.0756E-04  0.0000E+00  8.4222E-04  2.4061E-04  0.0000E+00  0.0000E+00  0.0000E+00
 21  0.0000E+00  1.5106E-04  0.0000E+00  0.0000E+00  0.0000E+00  0.0000E+00  0.0000E+00  0.0000E+00  0.0000E+00
 22  0.0000E+00  3.0485E-04  1.0860E-03  6.8011E-04  0.0000E+00  2.4428E-03  0.0000E+00  3.5453E-04  0.0000E+00
 23  0.0000E+00  6.7440E-04  0.0000E+00  0.0000E+00  0.0000E+00  0.0000E+00  0.0000E+00  3.5673E-03  0.0000E+00
 24  0.0000E+00  2.6495E-03  0.0000E+00  1.9528E-04  5.1207E-03  0.0000E+00  1.5063E-03  0.0000E+00  0.0000E+00
 25  0.0000E+00  5.7042E-03  1.1877E-02  8.0822E-03  0.0000E+00  0.0000E+00  0.0000E+00  0.0000E+00  4.5112E-02
 26  0.0000E+00  3.4691E-02  2.9839E-03  5.2863E-02  6.6590E-02  9.1010E-03  1.3508E-02  6.0804E-02  4.9439E-02
 27  0.0000E+00  1.5144E-01  2.3943E-02  0.0000E+00  0.0000E+00  0.0000E+00  0.0000E+00  0.0000E+00  1.1151E-01
 28  2.9779E+01  2.9112E+01  2.8617E+01  2.9313E+01  2.9271E+01  2.9230E+01  2.9108E+01  2.9153E+01  2.8873E+01
 29  3.2921E+00  4.6358E+00  4.8542E+00  4.7617E+00  4.5660E+00  4.6970E+00  4.3937E+00  5.5508E+00  5.0383E+00
 30  0.0000E+00  3.3564E-01  6.2614E-01  0.0000E+00  0.0000E+00  0.0000E+00  3.7336E-01  0.0000E+00  3.7163E-01
 31  0.0000E+00  1.0008E-04  2.8375E-04  3.6711E-05  1.9326E-04  0.0000E+00  0.0000E+00  3.2456E-04  0.0000E+00
 32  0.0000E+00  2.2830E-05  0.0000E+00  0.0000E+00  1.1190E-04  8.8963E-06  0.0000E+00  7.0962E-05  7.9455E-05
 33  0.0000E+00  4.9243E-05  0.0000E+00  0.0000E+00  0.0000E+00  2.8653E-04  0.0000E+00  0.0000E+00  1.1588E-04
