###################################################################
## OUTPUT of StarlightChains_v04.for    [Cid@UFSC - 01/Apr/2007] ##
###################################################################

## Some input info
NGC6638_a_1.cxt                          [arq_obs]
Base.BC03.N                              [arq_base]
NGC6638_a_1.msk                          [arq_masks]
StCv04.C99.config                        [arq_config]
   45                                    [N_base]
    0                                    [N_YAV_components = # of components with extra extinction!]
    0                                    [i_FitPowerLaw (1/0 = Yes/No)]
-9.99                                    [alpha_PowerLaw]
CCM                                      [red_law_option]
 1.458241                                [q_norm = A(l_norm)/A(V)]

## (Re)Sampling Parameters
 3359.00                                 [l_ini (A)]
 6428.00                                 [l_fin (A)]
    1.00                                 [dl    (A)]     (OBS: dl_cushion =    50.00 A)

## Normalization info
 4020.00                                 [l_norm (A) - for base]
 4010.00                                 [llow_norm (A) - window for f_obs]
 4060.00                                 [lupp_norm (A) - window for f_obs]
7.127479E-15                             [fobs_norm (in input units)]

## S/N
 4730.00                                 [llow_SN (A) - window for S/N]
 4780.00                                 [lupp_SN (A) - window for S/N]
  53.764                                 [S/N in S/N window]
  34.599                                 [S/N in norm. window]
  41.866                                 [S/N_err in S/N window]
  26.942                                 [S/N_err in norm. window]
  1.0000                                 [fscale_chi2]

## etc...
  2147483593                             [idum_orig]
  3067                                   [NOl_eff]
  1685                                   [Nl_eff]
  1382    NSIGMA                         [Ntot_cliped & clip_method]
  1814400                                [Nglobal_steps]
   7                                     [N_chains]
  13                                     [NEX0s_base = N_base in EX0s-fits]
 0   0   1      211   2.0   5.860E+02    [Clip-Bug, RC-Crash & Burn-In warning-flags, n_censored_weights, wei_nsig_threshold & wei_limit]
    24     23.777     23.777      0.000  [idt_all, wdt_TotTime, wdt_UsrTime & wdt_SysTime (sec)]

## Synthesis Results - Best model ##

 2.52468E+00                             [chi2/Nl_eff]
     2.25971                             [adev (%)]

    99.27283                             [sum-of-x (%)]
 5.01531E-14                             [Flux_tot (units of input spectrum!)]
 1.14308E-09                             [Mini_tot (???)]
 5.92367E-10                             [Mcor_tot (???)]

   9.12                                  [v0_min  (km/s)]
  57.07                                  [vd_min  (km/s)]
 1.4581                                  [AV_min  (mag)]
 0.0000                                  [YAV_min (mag)]

# j     x_j(%)      Mini_j(%)     Mcor_j(%)     age_j(yr)     Z_j      (L/M)_j    YAV?  Mstars   component_j        a/Fe...       SSP_chi2r SSP_adev(%)   SSP_AV   SSP_x(%)
  1      0.0000     0.0000E+00    0.0000E+00    1.000000E+06  0.00400  1.114E-02    0   1.0000   age020_m42            0.0000     9.8598E+02    31.3480   4.0000    80.5723
  2     11.3649     1.2332E-02    2.3795E-02    3.160000E+06  0.00400  4.073E-02    0   0.9999   age045_m42            0.0000     1.3836E+02     6.5483   4.0000    92.4728
  3      0.0000     0.0000E+00    0.0000E+00    5.010000E+06  0.00400  2.534E-02    0   0.9488   age055_m42            0.0000     3.5287E+02    16.8083   4.0000    88.0257
  4     12.8182     4.4573E-02    7.6223E-02    1.000000E+07  0.00400  1.271E-02    0   0.8862   age070_m42            0.0000     1.6630E+02     8.5589   3.8315    88.7454
  5      0.0000     0.0000E+00    0.0000E+00    2.512000E+07  0.00400  5.070E-03    0   0.8174   age090_m42            0.0000     1.4531E+02     7.8715   3.6843    90.5007
  6      0.0000     0.0000E+00    0.0000E+00    4.000000E+07  0.00400  3.505E-03    0   0.7851   age104_m42            0.0000     1.1308E+02     6.1235   3.3267    93.6743
  7      3.2932     6.4175E-02    8.9250E-02    1.015200E+08  0.00400  2.268E-03    0   0.7207   age116_m42            0.0000     4.8874E+02     8.5409   3.1175   103.1513
  8      0.0000     0.0000E+00    0.0000E+00    2.861200E+08  0.00400  1.079E-03    0   0.6613   age125_m42            0.0000     5.1871E+02    10.1049   2.5565   105.8429
  9      0.0000     0.0000E+00    0.0000E+00    6.405400E+08  0.00400  5.077E-04    0   0.6197   age132_m42            0.0000     5.5374E+02    10.9993   2.1729   109.8883
 10      0.0000     0.0000E+00    0.0000E+00    9.047900E+08  0.00400  3.535E-04    0   0.6024   age135_m42            0.0000     3.8137E+02     9.6715   1.9527   109.2601
 11      0.0000     0.0000E+00    0.0000E+00    1.434000E+09  0.00400  1.910E-04    0   0.5716   age139_m42            0.0000     1.9141E+02     7.9769   1.4228   108.7934
 12     12.4084     5.5857E+00    5.8884E+00    2.500000E+09  0.00400  9.818E-05    0   0.5463   age150_m42            0.0000     5.5264E+01     5.5091   1.1944   104.6016
 13     19.2577     1.8040E+01    1.8199E+01    5.000000E+09  0.00400  4.718E-05    0   0.5228   age161_m42            0.0000     2.5126E+01     4.4422   1.0600   101.5732
 14     21.4269     4.2948E+01    4.1272E+01    1.100000E+10  0.00400  2.205E-05    0   0.4980   age185_m42            0.0000     5.9359E+01     5.6757   0.7791   100.2304
 15      0.0000     0.0000E+00    0.0000E+00    1.300000E+10  0.00400  1.883E-05    0   0.4927   age193_m42            0.0000     6.9219E+01     5.7886   0.7619   100.1804
 16      0.0000     0.0000E+00    0.0000E+00    1.000000E+06  0.02000  1.989E-02    0   1.0000   age020_m62            0.0000     9.3811E+02    30.4585   4.0000    81.3046
 17      0.0000     0.0000E+00    0.0000E+00    3.160000E+06  0.02000  3.772E-02    0   0.9858   age045_m62            0.0000     7.7580E+02    27.0401   4.0000    83.5872
 18      0.0000     0.0000E+00    0.0000E+00    5.010000E+06  0.02000  3.227E-02    0   0.9342   age055_m62            0.0000     2.5394E+02    12.7274   4.0000    90.4677
 19      0.0000     0.0000E+00    0.0000E+00    1.000000E+07  0.02000  1.011E-02    0   0.8751   age070_m62            0.0000     2.8288E+02    12.4749   3.9091    85.2169
 20      0.0000     0.0000E+00    0.0000E+00    2.512000E+07  0.02000  4.206E-03    0   0.8099   age090_m62            0.0000     2.1215E+02    10.2216   3.8100    86.4728
 21      0.0000     0.0000E+00    0.0000E+00    4.000000E+07  0.02000  3.373E-03    0   0.7799   age104_m62            0.0000     1.5047E+02     6.1989   3.5122    94.9363
 22      0.0000     0.0000E+00    0.0000E+00    1.015200E+08  0.02000  1.878E-03    0   0.7221   age116_m62            0.0000     4.3172E+02     7.8969   3.1705   103.2553
 23      0.0000     0.0000E+00    0.0000E+00    2.861200E+08  0.02000  8.869E-04    0   0.6700   age125_m62            0.0000     8.0760E+02    12.7322   2.4967   111.1536
 24      0.0000     0.0000E+00    0.0000E+00    6.405400E+08  0.02000  3.657E-04    0   0.6322   age132_m62            0.0000     5.5558E+02    12.9384   1.7449   115.5512
 25      0.0000     0.0000E+00    0.0000E+00    9.047900E+08  0.02000  2.312E-04    0   0.6152   age135_m62            0.0000     3.3172E+02    11.1601   1.4050   114.5257
 26      0.0000     0.0000E+00    0.0000E+00    1.434000E+09  0.02000  1.168E-04    0   0.5865   age139_m62            0.0000     1.0473E+02     7.5835   1.0752   108.9281
 27      0.0000     0.0000E+00    0.0000E+00    2.500000E+09  0.02000  5.505E-05    0   0.5610   age150_m62            0.0000     8.2971E+01     7.5128   0.7057   106.7058
 28      5.7525     9.7937E+00    1.0116E+01    5.000000E+09  0.02000  2.596E-05    0   0.5353   age161_m62            0.0000     1.7243E+02     9.6098   0.3192   107.6598
 29      0.0076     2.8579E-02    2.8143E-02    1.100000E+10  0.02000  1.169E-05    0   0.5103   age185_m62            0.0000     3.1462E+02    12.0424  -0.1149   110.2657
 30      0.0000     0.0000E+00    0.0000E+00    1.300000E+10  0.02000  9.691E-06    0   0.5047   age193_m62            0.0000     3.4632E+02    12.4237  -0.1703   110.6871
 31      0.0000     0.0000E+00    0.0000E+00    1.000000E+06  0.05000  2.651E-02    0   0.9998   age020_m72            0.0000     9.0621E+02    30.2086   4.0000    82.2987
 32      0.0000     0.0000E+00    0.0000E+00    3.160000E+06  0.05000  4.817E-02    0   0.9577   age045_m72            0.0000     5.6650E+02    22.7036   4.0000    87.1506
 33      0.0000     0.0000E+00    0.0000E+00    5.010000E+06  0.05000  3.101E-02    0   0.9147   age055_m72            0.0000     3.2323E+02    13.5440   4.0000    89.0247
 34      0.0000     0.0000E+00    0.0000E+00    1.000000E+07  0.05000  8.954E-03    0   0.8524   age070_m72            0.0000     4.4496E+02    19.3119   4.0000    88.3756
 35      0.0000     0.0000E+00    0.0000E+00    2.512000E+07  0.05000  4.207E-03    0   0.7902   age090_m72            0.0000     1.6230E+02     7.6332   4.0000    92.6041
 36      0.0000     0.0000E+00    0.0000E+00    4.000000E+07  0.05000  3.198E-03    0   0.7618   age104_m72            0.0000     2.8134E+02     5.6859   3.5980    99.4088
 37      0.0000     0.0000E+00    0.0000E+00    1.015200E+08  0.05000  1.716E-03    0   0.7092   age116_m72            0.0000     5.0214E+02     8.5463   3.2396   103.6047
 38      0.0000     0.0000E+00    0.0000E+00    2.861200E+08  0.05000  7.047E-04    0   0.6618   age125_m72            0.0000     7.7240E+02    12.6371   2.2674   112.2082
 39      0.0000     0.0000E+00    0.0000E+00    6.405400E+08  0.05000  2.633E-04    0   0.6253   age132_m72            0.0000     4.2529E+02    12.4540   1.3593   115.2944
 40      0.0000     0.0000E+00    0.0000E+00    9.047900E+08  0.05000  1.484E-04    0   0.6088   age135_m72            0.0000     1.7708E+02    10.1088   0.9236   110.4442
 41      3.0262     1.7088E+00    1.9280E+00    1.434000E+09  0.05000  7.827E-05    0   0.5847   age139_m72            0.0000     1.3140E+02     9.4758   0.5555   107.7715
 42      6.3595     7.4773E+00    8.0556E+00    2.500000E+09  0.05000  3.759E-05    0   0.5583   age150_m72            0.0000     1.9047E+02    10.1152   0.2315   107.5928
 43      2.6279     7.5029E+00    7.7024E+00    5.000000E+09  0.05000  1.548E-05    0   0.5320   age161_m72            0.0000     3.0241E+02    12.1203  -0.2330   108.1941
 44      0.6050     4.0937E+00    4.0051E+00    1.100000E+10  0.05000  6.532E-06    0   0.5070   age185_m72            0.0000     4.5310E+02    15.7212  -0.7534   109.9888
 45      0.3248     2.7006E+00    2.6150E+00    1.300000E+10  0.05000  5.316E-06    0   0.5018   age193_m72            0.0000     5.2217E+02    17.2048  -0.9392   110.9672


## Synthesis Results - Average & Chains ##

# j      x_j: min, <> & last-chain-values for 1 ...  7 chains
  1      0.0000      0.0166      0.0000      0.0137      0.0000      0.0000      0.0000      0.0000      0.0000
  2     11.3649     10.5611     10.6852     10.7094     10.6192     10.8011     10.6537     10.5390     10.3806
  3      0.0000      0.0671      0.0000      0.0000      0.0356      0.0000      0.0000      0.4063      0.0000
  4     12.8182     12.1151     12.6171     12.2171     12.2718     11.9931     12.0673     12.2604     11.7698
  5      0.0000      0.0744      0.0000      0.0000      0.0716      0.2466      0.1261      0.0000      0.0000
  6      0.0000      0.0348      0.0000      0.1656      0.1294      0.0000      0.0000      0.0000      0.0000
  7      3.2932      3.7209      3.3849      3.7384      3.5971      3.2990      3.7174      3.8272      3.3592
  8      0.0000      0.0280      0.0000      0.0340      0.0762      0.0000      0.0000      0.0459      0.0000
  9      0.0000      0.0842      0.0165      0.2037      0.0571      0.2572      0.1291      0.0000      0.2173
 10      0.0000      0.1375      0.5969      0.0568      0.1952      0.2456      0.0000      0.2755      0.1660
 11      0.0000      0.1046      0.0079      0.0196      0.0000      0.2615      0.0000      0.0000      0.0550
 12     12.4084     11.6578     11.6874     11.6519     11.8757     12.1890     11.7927     11.7266     11.4528
 13     19.2577     20.2796     20.0318     20.4238     20.4995     20.1210     19.9836     20.4931     21.0348
 14     21.4269     22.7028     22.5306     22.3925     22.6262     22.8232     22.6454     22.6853     22.1945
 15      0.0000      0.1241      0.0747      0.0422      0.0526      0.0000      0.0379      0.0000      0.1408
 16      0.0000      0.0153      0.0000      0.0000      0.0000      0.0000      0.0000      0.0128      0.0000
 17      0.0000      0.0147      0.0000      0.0000      0.0000      0.0000      0.0000      0.0022      0.0000
 18      0.0000      0.3551      0.3448      0.2984      0.4272      0.5358      0.4730      0.0000      0.7889
 19      0.0000      0.0212      0.0000      0.0000      0.0000      0.0000      0.0000      0.0000      0.0000
 20      0.0000      0.0180      0.0000      0.0000      0.0000      0.0000      0.0000      0.0000      0.0000
 21      0.0000      0.0303      0.0000      0.0000      0.0844      0.0114      0.0000      0.0000      0.0000
 22      0.0000      0.0319      0.0000      0.0000      0.0000      0.0000      0.0000      0.0000      0.0021
 23      0.0000      0.0317      0.0000      0.0000      0.1764      0.0000      0.0448      0.0000      0.0000
 24      0.0000      0.0231      0.0000      0.0000      0.0000      0.0000      0.0000      0.0000      0.1012
 25      0.0000      0.0270      0.0000      0.0000      0.0000      0.0155      0.0000      0.0000      0.0000
 26      0.0000      0.0719      0.1044      0.0000      0.0000      0.0000      0.0000      0.0000      0.0094
 27      0.0000      0.1527      0.3328      0.1704      0.0000      0.0000      0.0000      0.0000      0.6496
 28      5.7525      8.8031      9.3485      8.5818      8.0335      8.6400      8.6994      8.9379      7.2141
 29      0.0076      2.6516      2.4143      2.5141      2.4710      2.5095      2.6913      2.4205      2.4114
 30      0.0000      0.4826      0.1285      0.2047      0.2767      0.3402      0.0566      0.3360      0.7814
 31      0.0000      0.0144      0.0000      0.0112      0.0000      0.0000      0.0000      0.0000      0.0000
 32      0.0000      0.0488      0.0000      0.0882      0.0000      0.0161      0.2426      0.0000      0.0310
 33      0.0000      0.0497      0.0393      0.0000      0.0134      0.0000      0.0000      0.2105      0.5074
 34      0.0000      0.0184      0.0000      0.0672      0.0000      0.0000      0.0000      0.0000      0.0000
 35      0.0000      0.0436      0.0000      0.0000      0.0000      0.0983      0.0000      0.0000      0.0000
 36      0.0000      0.0512      0.0000      0.1434      0.0000      0.0000      0.0000      0.0810      0.0932
 37      0.0000      0.0371      0.0084      0.0478      0.0000      0.0000      0.0898      0.0044      0.0000
 38      0.0000      0.0231      0.0000      0.0000      0.0000      0.0000      0.0193      0.0000      0.0166
 39      0.0000      0.0302      0.0000      0.0000      0.0000      0.0000      0.0000      0.0000      0.0000
 40      0.0000      0.0812      0.0674      0.0565      0.0000      0.0000      0.0000      0.0000      0.0285
 41      3.0262      1.2193      1.4681      1.3213      1.1228      1.3646      2.4489      1.2068      2.2137
 42      6.3595      1.0834      1.2600      1.4817      2.0766      1.3052      1.2524      1.7771      1.4804
 43      2.6279      0.9962      1.0667      1.5606      1.3532      1.1333      0.9992      0.9487      1.0879
 44      0.6050      0.7217      0.7141      0.7247      0.7271      0.5940      0.6543      0.6233      0.6928
 45      0.3248      0.4934      0.4024      0.4076      0.4545      0.5167      0.5261      0.5014      0.4628

# j      m_j: min, <> & last-chain-values for 1 ...  7 chains
  1  0.0000E+00  1.1506E-04  0.0000E+00  9.6167E-05  0.0000E+00  0.0000E+00  0.0000E+00  0.0000E+00  0.0000E+00
  2  2.3795E-02  2.0012E-02  2.0656E-02  2.0534E-02  2.0342E-02  2.0734E-02  2.0536E-02  2.0233E-02  1.9913E-02
  3  0.0000E+00  1.9399E-04  0.0000E+00  0.0000E+00  1.0406E-04  0.0000E+00  0.0000E+00  1.1896E-03  0.0000E+00
  4  7.6223E-02  6.5202E-02  6.9275E-02  6.6529E-02  6.6767E-02  6.5387E-02  6.6066E-02  6.6852E-02  6.4126E-02
  5  0.0000E+00  9.2593E-04  0.0000E+00  0.0000E+00  9.0083E-04  3.1092E-03  1.5959E-03  0.0000E+00  0.0000E+00
  6  0.0000E+00  6.0202E-04  0.0000E+00  2.8963E-03  2.2624E-03  0.0000E+00  0.0000E+00  0.0000E+00  0.0000E+00
  7  8.9250E-02  9.1266E-02  8.4701E-02  9.2779E-02  8.9192E-02  8.1973E-02  9.2753E-02  9.5108E-02  8.3411E-02
  8  0.0000E+00  1.3234E-03  0.0000E+00  1.6271E-03  3.6438E-03  0.0000E+00  0.0000E+00  2.2003E-03  0.0000E+00
  9  0.0000E+00  7.9296E-03  1.5862E-03  1.9422E-02  5.4346E-03  2.4546E-02  1.2371E-02  0.0000E+00  2.0724E-02
 10  0.0000E+00  1.8092E-02  8.0093E-02  7.5548E-03  2.5957E-02  3.2721E-02  0.0000E+00  3.6715E-02  2.2100E-02
 11  0.0000E+00  2.4160E-02  1.8634E-03  4.5732E-03  0.0000E+00  6.1193E-02  0.0000E+00  0.0000E+00  1.2858E-02
 12  5.8884E+00  5.0069E+00  5.1210E+00  5.0636E+00  5.1563E+00  5.3034E+00  5.1523E+00  5.1027E+00  4.9797E+00
 13  1.8199E+01  1.7345E+01  1.7479E+01  1.7675E+01  1.7725E+01  1.7434E+01  1.7387E+01  1.7758E+01  1.8214E+01
 14  4.1272E+01  3.9577E+01  4.0070E+01  3.9498E+01  3.9875E+01  4.0306E+01  4.0159E+01  4.0067E+01  3.9169E+01
 15  0.0000E+00  2.5066E-01  1.5394E-01  8.6314E-02  1.0730E-01  0.0000E+00  7.7792E-02  0.0000E+00  2.8791E-01
 16  0.0000E+00  5.9266E-05  0.0000E+00  0.0000E+00  0.0000E+00  0.0000E+00  0.0000E+00  5.0393E-05  0.0000E+00
 17  0.0000E+00  2.9618E-05  0.0000E+00  0.0000E+00  0.0000E+00  0.0000E+00  0.0000E+00  4.4753E-06  0.0000E+00
 18  0.0000E+00  7.9345E-04  7.8601E-04  6.7461E-04  9.6497E-04  1.2129E-03  1.0751E-03  0.0000E+00  1.7846E-03
 19  0.0000E+00  1.4181E-04  0.0000E+00  0.0000E+00  0.0000E+00  0.0000E+00  0.0000E+00  0.0000E+00  0.0000E+00
 20  0.0000E+00  2.6749E-04  0.0000E+00  0.0000E+00  0.0000E+00  0.0000E+00  0.0000E+00  0.0000E+00  0.0000E+00
 21  0.0000E+00  5.4075E-04  0.0000E+00  0.0000E+00  1.5236E-03  2.0644E-04  0.0000E+00  0.0000E+00  0.0000E+00
 22  0.0000E+00  9.4664E-04  0.0000E+00  0.0000E+00  0.0000E+00  0.0000E+00  0.0000E+00  0.0000E+00  6.2599E-05
 23  0.0000E+00  1.8479E-03  0.0000E+00  0.0000E+00  1.0397E-02  0.0000E+00  2.6561E-03  0.0000E+00  0.0000E+00
 24  0.0000E+00  3.0826E-03  0.0000E+00  0.0000E+00  0.0000E+00  0.0000E+00  0.0000E+00  0.0000E+00  1.3673E-02
 25  0.0000E+00  5.5383E-03  0.0000E+00  0.0000E+00  0.0000E+00  3.2187E-03  0.0000E+00  0.0000E+00  0.0000E+00
 26  0.0000E+00  2.7871E-02  4.1268E-02  0.0000E+00  0.0000E+00  0.0000E+00  0.0000E+00  0.0000E+00  3.7025E-03
 27  0.0000E+00  1.2009E-01  2.6709E-01  1.3561E-01  0.0000E+00  0.0000E+00  0.0000E+00  0.0000E+00  5.1729E-01
 28  1.0116E+01  1.4011E+01  1.5180E+01  1.3821E+01  1.2926E+01  1.3931E+01  1.4085E+01  1.4413E+01  1.1624E+01
 29  2.8143E-02  8.9345E+00  8.2992E+00  8.5713E+00  8.4168E+00  8.5658E+00  9.2246E+00  8.2629E+00  8.2253E+00
 30  0.0000E+00  1.9402E+00  5.2717E-01  8.3273E-01  1.1245E+00  1.3855E+00  2.3129E-01  1.3686E+00  3.1801E+00
 31  0.0000E+00  4.1794E-05  0.0000E+00  3.3126E-05  0.0000E+00  0.0000E+00  0.0000E+00  0.0000E+00  0.0000E+00
 32  0.0000E+00  7.4863E-05  0.0000E+00  1.3696E-04  0.0000E+00  2.5081E-05  3.7878E-04  0.0000E+00  4.8105E-05
 33  0.0000E+00  1.1323E-04  9.1218E-05  0.0000E+00  3.0756E-05  0.0000E+00  0.0000E+00  4.8549E-04  1.1694E-03
