###################################################################
## OUTPUT of StarlightChains_v04.for    [Cid@UFSC - 01/Apr/2007] ##
###################################################################

## Some input info
NGC6528_c_2.cxt                          [arq_obs]
Base.BC03.N                              [arq_base]
NGC6528_c_2.msk                          [arq_masks]
StCv04.C99.config                        [arq_config]
   45                                    [N_base]
    0                                    [N_YAV_components = # of components with extra extinction!]
    0                                    [i_FitPowerLaw (1/0 = Yes/No)]
-9.99                                    [alpha_PowerLaw]
CCM                                      [red_law_option]
 1.458241                                [q_norm = A(l_norm)/A(V)]

## (Re)Sampling Parameters
 3359.00                                 [l_ini (A)]
 6428.00                                 [l_fin (A)]
    1.00                                 [dl    (A)]     (OBS: dl_cushion =    50.00 A)

## Normalization info
 4020.00                                 [l_norm (A) - for base]
 4010.00                                 [llow_norm (A) - window for f_obs]
 4060.00                                 [lupp_norm (A) - window for f_obs]
4.572307E-15                             [fobs_norm (in input units)]

## S/N
 4730.00                                 [llow_SN (A) - window for S/N]
 4780.00                                 [lupp_SN (A) - window for S/N]
  26.838                                 [S/N in S/N window]
  13.309                                 [S/N in norm. window]
 348.211                                 [S/N_err in S/N window]
 172.676                                 [S/N_err in norm. window]
  1.0000                                 [fscale_chi2]

## etc...
  2147483601                             [idum_orig]
  3069                                   [NOl_eff]
   527                                   [Nl_eff]
  2542    NSIGMA                         [Ntot_cliped & clip_method]
  1202880                                [Nglobal_steps]
   7                                     [N_chains]
   5                                     [NEX0s_base = N_base in EX0s-fits]
 0   0   1      162   2.0   3.907E+02    [Clip-Bug, RC-Crash & Burn-In warning-flags, n_censored_weights, wei_nsig_threshold & wei_limit]
    22     21.587     21.583      0.004  [idt_all, wdt_TotTime, wdt_UsrTime & wdt_SysTime (sec)]

## Synthesis Results - Best model ##

 2.99226E+00                             [chi2/Nl_eff]
     2.54225                             [adev (%)]

   104.78607                             [sum-of-x (%)]
 2.30292E-14                             [Flux_tot (units of input spectrum!)]
 1.86324E-09                             [Mini_tot (???)]
 9.47696E-10                             [Mcor_tot (???)]

   4.70                                  [v0_min  (km/s)]
 106.55                                  [vd_min  (km/s)]
 1.1689                                  [AV_min  (mag)]
 0.0000                                  [YAV_min (mag)]

# j     x_j(%)      Mini_j(%)     Mcor_j(%)     age_j(yr)     Z_j      (L/M)_j    YAV?  Mstars   component_j        a/Fe...       SSP_chi2r SSP_adev(%)   SSP_AV   SSP_x(%)
  1      6.4330     6.8113E-03    1.3392E-02    1.000000E+06  0.00400  1.114E-02    0   1.0000   age020_m42            0.0000     5.6933E+03    47.8667   4.0000    91.2424
  2      0.0000     0.0000E+00    0.0000E+00    3.160000E+06  0.00400  4.073E-02    0   0.9999   age045_m42            0.0000     2.1808E+03    27.0409   4.0000   104.5656
  3      0.0000     0.0000E+00    0.0000E+00    5.010000E+06  0.00400  2.534E-02    0   0.9488   age055_m42            0.0000     3.4538E+03    36.8948   4.0000    99.6604
  4      7.7677     7.2086E-03    1.2560E-02    1.000000E+07  0.00400  1.271E-02    0   0.8862   age070_m42            0.0000     1.7389E+03    25.2216   4.0000    99.9183
  5      0.0000     0.0000E+00    0.0000E+00    2.512000E+07  0.00400  5.070E-03    0   0.8174   age090_m42            0.0000     1.4358E+03    22.6665   4.0000   100.5474
  6      0.0000     0.0000E+00    0.0000E+00    4.000000E+07  0.00400  3.505E-03    0   0.7851   age104_m42            0.0000     9.3588E+02    16.8089   4.0000   100.1319
  7      0.0000     0.0000E+00    0.0000E+00    1.015200E+08  0.00400  2.268E-03    0   0.7207   age116_m42            0.0000     1.4112E+03    18.9954   4.0000   106.5512
  8      0.0000     0.0000E+00    0.0000E+00    2.861200E+08  0.00400  1.079E-03    0   0.6613   age125_m42            0.0000     1.3192E+03    19.0127   3.8433   104.1927
  9      0.0000     0.0000E+00    0.0000E+00    6.405400E+08  0.00400  5.077E-04    0   0.6197   age132_m42            0.0000     1.3161E+03    19.0100   3.4523   108.3712
 10      0.0000     0.0000E+00    0.0000E+00    9.047900E+08  0.00400  3.535E-04    0   0.6024   age135_m42            0.0000     1.0170E+03    16.5570   3.1781   108.1153
 11      0.0000     0.0000E+00    0.0000E+00    1.434000E+09  0.00400  1.910E-04    0   0.5716   age139_m42            0.0000     5.8738E+02    12.0661   2.4981   108.0769
 12      0.0000     0.0000E+00    0.0000E+00    2.500000E+09  0.00400  9.818E-05    0   0.5463   age150_m42            0.0000     2.6899E+02     7.9035   2.1582   104.4924
 13      0.0000     0.0000E+00    0.0000E+00    5.000000E+09  0.00400  4.718E-05    0   0.5228   age161_m42            0.0000     1.4912E+02     5.8790   1.9755   101.5940
 14      0.0000     0.0000E+00    0.0000E+00    1.100000E+10  0.00400  2.205E-05    0   0.4980   age185_m42            0.0000     6.5554E+01     4.5277   1.5987   100.3976
 15      0.0000     0.0000E+00    0.0000E+00    1.300000E+10  0.00400  1.883E-05    0   0.4927   age193_m42            0.0000     5.9540E+01     4.4418   1.5758   100.2955
 16      0.0000     0.0000E+00    0.0000E+00    1.000000E+06  0.02000  1.989E-02    0   1.0000   age020_m62            0.0000     5.5334E+03    47.0601   4.0000    92.2560
 17      0.0000     0.0000E+00    0.0000E+00    3.160000E+06  0.02000  3.772E-02    0   0.9858   age045_m62            0.0000     4.9739E+03    44.9897   4.0000    94.7487
 18      0.0000     0.0000E+00    0.0000E+00    5.010000E+06  0.02000  3.227E-02    0   0.9342   age055_m62            0.0000     2.8730E+03    33.1691   4.0000   102.2194
 19      0.0000     0.0000E+00    0.0000E+00    1.000000E+07  0.02000  1.011E-02    0   0.8751   age070_m62            0.0000     2.2616E+03    30.1801   4.0000    97.4508
 20      0.0000     0.0000E+00    0.0000E+00    2.512000E+07  0.02000  4.206E-03    0   0.8099   age090_m62            0.0000     1.8374E+03    27.1694   4.0000    97.5615
 21      0.0000     0.0000E+00    0.0000E+00    4.000000E+07  0.02000  3.373E-03    0   0.7799   age104_m62            0.0000     1.2694E+03    19.2414   4.0000   103.4712
 22      0.0000     0.0000E+00    0.0000E+00    1.015200E+08  0.02000  1.878E-03    0   0.7221   age116_m62            0.0000     1.4074E+03    18.3239   4.0000   107.7271
 23      0.0000     0.0000E+00    0.0000E+00    2.861200E+08  0.02000  8.869E-04    0   0.6700   age125_m62            0.0000     1.7555E+03    21.3227   3.8109   108.7865
 24      0.0000     0.0000E+00    0.0000E+00    6.405400E+08  0.02000  3.657E-04    0   0.6322   age132_m62            0.0000     1.2051E+03    16.6643   2.9151   114.0725
 25      0.0000     0.0000E+00    0.0000E+00    9.047900E+08  0.02000  2.312E-04    0   0.6152   age135_m62            0.0000     7.9728E+02    13.3060   2.4958   113.4700
 26      0.0000     0.0000E+00    0.0000E+00    1.434000E+09  0.02000  1.168E-04    0   0.5865   age139_m62            0.0000     3.3546E+02     8.3998   2.0436   108.5423
 27      0.0000     0.0000E+00    0.0000E+00    2.500000E+09  0.02000  5.505E-05    0   0.5610   age150_m62            0.0000     1.2576E+02     5.7987   1.5667   106.7270
 28      0.0000     0.0000E+00    0.0000E+00    5.000000E+09  0.02000  2.596E-05    0   0.5353   age161_m62            0.0000     3.9962E+01     5.3754   1.0716   108.2238
 29     74.3536     7.5023E+01    7.5269E+01    1.100000E+10  0.02000  1.169E-05    0   0.5103   age185_m62            0.0000     5.9692E+01     7.6028   0.5598   110.8912
 30     11.0336     1.3429E+01    1.3326E+01    1.300000E+10  0.02000  9.691E-06    0   0.5047   age193_m62            0.0000     7.1160E+01     8.1313   0.4914   111.3176
 31      0.0000     0.0000E+00    0.0000E+00    1.000000E+06  0.05000  2.651E-02    0   0.9998   age020_m72            0.0000     5.3875E+03    46.5058   4.0000    93.4700
 32      0.0000     0.0000E+00    0.0000E+00    3.160000E+06  0.05000  4.817E-02    0   0.9577   age045_m72            0.0000     4.2008E+03    41.1094   4.0000    98.6177
 33      0.0000     0.0000E+00    0.0000E+00    5.010000E+06  0.05000  3.101E-02    0   0.9147   age055_m72            0.0000     3.2394E+03    35.8088   4.0000   100.7973
 34      0.0000     0.0000E+00    0.0000E+00    1.000000E+07  0.05000  8.954E-03    0   0.8524   age070_m72            0.0000     3.6749E+03    38.6279   4.0000   100.1746
 35      0.0000     0.0000E+00    0.0000E+00    2.512000E+07  0.05000  4.207E-03    0   0.7902   age090_m72            0.0000     2.2694E+03    29.2897   4.0000   104.4826
 36      0.0000     0.0000E+00    0.0000E+00    4.000000E+07  0.05000  3.198E-03    0   0.7618   age104_m72            0.0000     1.4821E+03    18.5840   4.0000   107.9052
 37      0.0000     0.0000E+00    0.0000E+00    1.015200E+08  0.05000  1.716E-03    0   0.7092   age116_m72            0.0000     1.5809E+03    19.2838   4.0000   108.8894
 38      0.0000     0.0000E+00    0.0000E+00    2.861200E+08  0.05000  7.047E-04    0   0.6618   age125_m72            0.0000     1.6604E+03    20.1699   3.5048   110.0166
 39      0.0000     0.0000E+00    0.0000E+00    6.405400E+08  0.05000  2.633E-04    0   0.6253   age132_m72            0.0000     9.3885E+02    14.3615   2.4634   113.9326
 40      0.0000     0.0000E+00    0.0000E+00    9.047900E+08  0.05000  1.484E-04    0   0.6088   age135_m72            0.0000     3.8478E+02     9.5382   1.8796   110.2713
 41      0.0000     0.0000E+00    0.0000E+00    1.434000E+09  0.05000  7.827E-05    0   0.5847   age139_m72            0.0000     1.2505E+02     6.4414   1.3652   108.1612
 42      0.0000     0.0000E+00    0.0000E+00    2.500000E+09  0.05000  3.759E-05    0   0.5583   age150_m72            0.0000     4.1918E+01     5.6009   0.9561   108.4081
 43      0.0000     0.0000E+00    0.0000E+00    5.000000E+09  0.05000  1.548E-05    0   0.5320   age161_m72            0.0000     6.7688E+01     7.7273   0.4426   109.0266
 44      0.0000     0.0000E+00    0.0000E+00    1.100000E+10  0.05000  6.532E-06    0   0.5070   age185_m72            0.0000     1.5648E+02    10.5088  -0.1509   110.6562
 45      5.1982     1.1534E+01    1.1379E+01    1.300000E+10  0.05000  5.316E-06    0   0.5018   age193_m72            0.0000     2.0312E+02    11.6065  -0.3547   111.5647


## Synthesis Results - Average & Chains ##

# j      x_j: min, <> & last-chain-values for 1 ...  7 chains
  1      6.4330      6.1751      6.2312      6.3237      6.1765      6.2527      6.2541      6.1522      6.1264
  2      0.0000      0.0677      0.0298      0.0000      0.2321      0.2081      0.0394      0.0000      0.0000
  3      0.0000      0.0428      0.1029      0.0000      0.1126      0.1319      0.0000      0.0218      0.0000
  4      7.7677      6.8446      6.9515      7.0977      6.9315      6.8386      7.2463      7.2094      6.9334
  5      0.0000      0.0628      0.0000      0.0000      0.0000      0.0000      0.0000      0.0000      0.0260
  6      0.0000      0.0255      0.0550      0.1513      0.0000      0.0726      0.0000      0.0000      0.0000
  7      0.0000      0.0106      0.0000      0.0000      0.0000      0.0000      0.0000      0.0000      0.0000
  8      0.0000      0.0075      0.0000      0.0000      0.0000      0.0000      0.0000      0.0000      0.0027
  9      0.0000      0.0079      0.0000      0.0000      0.0000      0.0000      0.0000      0.0000      0.0000
 10      0.0000      0.0104      0.0000      0.0000      0.0000      0.0000      0.0000      0.0000      0.0483
 11      0.0000      0.0174      0.1318      0.0000      0.0000      0.0000      0.0000      0.0000      0.0000
 12      0.0000      0.0259      0.0000      0.0000      0.0000      0.0000      0.0331      0.0000      0.0000
 13      0.0000      0.0311      0.0000      0.0000      0.0000      0.0000      0.0000      0.0000      0.0000
 14      0.0000      0.0379      0.0000      0.0000      0.0000      0.0000      0.0000      0.0000      0.0000
 15      0.0000      0.0362      0.0000      0.0369      0.1567      0.0000      0.0000      0.0000      0.0000
 16      0.0000      0.0831      0.0647      0.0000      0.1354      0.0698      0.0000      0.0684      0.0000
 17      0.0000      0.0786      0.0000      0.0000      0.0000      0.0925      0.1562      0.0000      0.2266
 18      0.0000      0.0410      0.2325      0.1171      0.0213      0.0000      0.0000      0.1279      0.1531
 19      0.0000      0.0592      0.0000      0.0000      0.0000      0.2247      0.0483      0.0000      0.0000
 20      0.0000      0.0202      0.0000      0.0108      0.0000      0.0000      0.0000      0.0000      0.0000
 21      0.0000      0.0164      0.0000      0.0000      0.0000      0.0000      0.0000      0.0000      0.0000
 22      0.0000      0.0141      0.0000      0.0000      0.0000      0.0000      0.0000      0.0000      0.0000
 23      0.0000      0.0070      0.0000      0.0000      0.0000      0.0000      0.0000      0.0000      0.0000
 24      0.0000      0.0139      0.0000      0.0822      0.0000      0.0000      0.0000      0.0000      0.0000
 25      0.0000      0.0176      0.0000      0.0000      0.0000      0.0000      0.0000      0.0000      0.0000
 26      0.0000      0.0338      0.0000      0.0000      0.1748      0.0000      0.0000      0.0000      0.0028
 27      0.0000      0.0802      0.0256      0.0464      0.0000      0.0000      0.0004      0.0000      0.0543
 28      0.0000      0.2098      0.0000      0.1030      0.0000      0.1549      0.0637      0.0000      0.0000
 29     74.3536     73.3681     74.5349     73.9763     73.9207     73.4699     74.3661     74.2559     74.3330
 30     11.0336     10.6769     10.4485     11.0624     10.8672     10.5817     10.3957     10.8570     10.3991
 31      0.0000      0.0277      0.0000      0.0433      0.0000      0.0273      0.0823      0.0125      0.1207
 32      0.0000      0.1428      0.1365      0.2170      0.2711      0.0617      0.0724      0.0906      0.2649
 33      0.0000      0.0454      0.1638      0.0146      0.0000      0.0000      0.0000      0.2943      0.0172
 34      0.0000      0.0277      0.0000      0.0000      0.0361      0.0000      0.0000      0.0000      0.0000
 35      0.0000      0.0263      0.0000      0.0000      0.0102      0.0000      0.0000      0.0000      0.0000
 36      0.0000      0.0101      0.0000      0.0000      0.0000      0.0000      0.0131      0.0000      0.0225
 37      0.0000      0.0087      0.0614      0.0000      0.0000      0.0000      0.0000      0.0000      0.0000
 38      0.0000      0.0073      0.0000      0.0000      0.0000      0.0000      0.0000      0.0000      0.0000
 39      0.0000      0.0175      0.0000      0.0000      0.0000      0.0000      0.0000      0.0000      0.0000
 40      0.0000      0.0377      0.0000      0.0000      0.0000      0.0000      0.0000      0.1364      0.0480
 41      0.0000      0.0671      0.0000      0.0002      0.0000      0.0000      0.0000      0.0000      0.0000
 42      0.0000      0.2169      0.0000      0.1046      0.0000      0.3702      0.2695      0.0000      0.0349
 43      0.0000      0.3895      0.0000      0.0000      0.2015      0.6088      0.3522      0.0000      0.7226
 44      0.0000      0.2276      0.3537      0.0000      0.0475      0.0000      0.0000      0.0000      0.1238
 45      5.1982      5.5553      5.3638      5.5117      5.5840      5.6750      5.4718      5.6799      5.1947

# j      m_j: min, <> & last-chain-values for 1 ...  7 chains
  1  1.3392E-02  1.2811E-02  1.2908E-02  1.3104E-02  1.2785E-02  1.2979E-02  1.2987E-02  1.2711E-02  1.2749E-02
  2  0.0000E+00  3.8383E-05  1.6901E-05  0.0000E+00  1.3137E-04  1.1815E-04  2.2347E-05  0.0000E+00  0.0000E+00
  3  0.0000E+00  3.7017E-05  8.8882E-05  0.0000E+00  9.7180E-05  1.1422E-04  0.0000E+00  1.8752E-05  0.0000E+00
  4  1.2560E-02  1.1029E-02  1.1185E-02  1.1424E-02  1.1145E-02  1.1026E-02  1.1688E-02  1.1570E-02  1.1207E-02
  5  0.0000E+00  2.3391E-04  0.0000E+00  0.0000E+00  0.0000E+00  0.0000E+00  0.0000E+00  0.0000E+00  9.7218E-05
  6  0.0000E+00  1.3199E-04  2.8419E-04  7.8238E-04  0.0000E+00  3.7615E-04  0.0000E+00  0.0000E+00  0.0000E+00
  7  0.0000E+00  7.8049E-05  0.0000E+00  0.0000E+00  0.0000E+00  0.0000E+00  0.0000E+00  0.0000E+00  0.0000E+00
  8  0.0000E+00  1.0683E-04  0.0000E+00  0.0000E+00  0.0000E+00  0.0000E+00  0.0000E+00  0.0000E+00  3.8713E-05
  9  0.0000E+00  2.2346E-04  0.0000E+00  0.0000E+00  0.0000E+00  0.0000E+00  0.0000E+00  0.0000E+00  0.0000E+00
 10  0.0000E+00  4.0981E-04  0.0000E+00  0.0000E+00  0.0000E+00  0.0000E+00  0.0000E+00  0.0000E+00  1.9062E-03
 11  0.0000E+00  1.2001E-03  9.1042E-03  0.0000E+00  0.0000E+00  0.0000E+00  0.0000E+00  0.0000E+00  0.0000E+00
 12  0.0000E+00  3.3320E-03  0.0000E+00  0.0000E+00  0.0000E+00  0.0000E+00  4.2564E-03  0.0000E+00  0.0000E+00
 13  0.0000E+00  7.9626E-03  0.0000E+00  0.0000E+00  0.0000E+00  0.0000E+00  0.0000E+00  0.0000E+00  0.0000E+00
 14  0.0000E+00  1.9793E-02  0.0000E+00  0.0000E+00  0.0000E+00  0.0000E+00  0.0000E+00  0.0000E+00  0.0000E+00
 15  0.0000E+00  2.1901E-02  0.0000E+00  2.2293E-02  9.4562E-02  0.0000E+00  0.0000E+00  0.0000E+00  0.0000E+00
 16  0.0000E+00  9.6532E-05  7.5098E-05  0.0000E+00  1.5696E-04  8.1157E-05  0.0000E+00  7.9172E-05  0.0000E+00
 17  0.0000E+00  4.7446E-05  0.0000E+00  0.0000E+00  0.0000E+00  5.5929E-05  9.4415E-05  0.0000E+00  1.3731E-04
 18  0.0000E+00  2.7434E-05  1.5530E-04  7.8286E-05  1.4224E-05  0.0000E+00  0.0000E+00  8.5248E-05  1.0277E-04
 19  0.0000E+00  1.1838E-04  0.0000E+00  0.0000E+00  0.0000E+00  4.4984E-04  9.6784E-05  0.0000E+00  0.0000E+00
 20  0.0000E+00  8.9988E-05  0.0000E+00  4.8003E-05  0.0000E+00  0.0000E+00  0.0000E+00  0.0000E+00  0.0000E+00
 21  0.0000E+00  8.7847E-05  0.0000E+00  0.0000E+00  0.0000E+00  0.0000E+00  0.0000E+00  0.0000E+00  0.0000E+00
 22  0.0000E+00  1.2529E-04  0.0000E+00  0.0000E+00  0.0000E+00  0.0000E+00  0.0000E+00  0.0000E+00  0.0000E+00
 23  0.0000E+00  1.2256E-04  0.0000E+00  0.0000E+00  0.0000E+00  0.0000E+00  0.0000E+00  0.0000E+00  0.0000E+00
 24  0.0000E+00  5.5352E-04  0.0000E+00  3.2803E-03  0.0000E+00  0.0000E+00  0.0000E+00  0.0000E+00  0.0000E+00
 25  0.0000E+00  1.0808E-03  0.0000E+00  0.0000E+00  0.0000E+00  0.0000E+00  0.0000E+00  0.0000E+00  0.0000E+00
 26  0.0000E+00  3.9270E-03  0.0000E+00  0.0000E+00  2.0242E-02  0.0000E+00  0.0000E+00  0.0000E+00  3.2565E-04
 27  0.0000E+00  1.8892E-02  6.0100E-03  1.0915E-02  0.0000E+00  0.0000E+00  9.4438E-05  0.0000E+00  1.2839E-02
 28  0.0000E+00  9.9999E-02  0.0000E+00  4.9043E-02  0.0000E+00  7.3845E-02  3.0388E-02  0.0000E+00  0.0000E+00
 29  7.5269E+01  7.4017E+01  7.5084E+01  7.4544E+01  7.4410E+01  7.4160E+01  7.5095E+01  7.4608E+01  7.5223E+01
 30  1.3326E+01  1.2851E+01  1.2557E+01  1.3299E+01  1.3051E+01  1.2743E+01  1.2524E+01  1.3014E+01  1.2555E+01
 31  0.0000E+00  2.4140E-05  0.0000E+00  3.7692E-05  0.0000E+00  2.3779E-05  7.1837E-05  1.0817E-05  1.0549E-04
 32  0.0000E+00  6.5625E-05  6.2650E-05  9.9583E-05  1.2427E-04  2.8380E-05  3.3288E-05  4.1478E-05  1.2208E-04
 33  0.0000E+00  3.0933E-05  1.1153E-04  9.9287E-06  0.0000E+00  0.0000E+00  0.0000E+00  1.9978E-04  1.1792E-05
