###################################################################
## OUTPUT of StarlightChains_v04.for    [Cid@UFSC - 01/Apr/2007] ##
###################################################################

## Some input info
NGC6284_a_1.cxt                          [arq_obs]
Base.BC03.N                              [arq_base]
NGC6284_a_1.msk                          [arq_masks]
StCv04.C99.config                        [arq_config]
   45                                    [N_base]
    0                                    [N_YAV_components = # of components with extra extinction!]
    0                                    [i_FitPowerLaw (1/0 = Yes/No)]
-9.99                                    [alpha_PowerLaw]
CCM                                      [red_law_option]
 1.458241                                [q_norm = A(l_norm)/A(V)]

## (Re)Sampling Parameters
 3359.00                                 [l_ini (A)]
 6428.00                                 [l_fin (A)]
    1.00                                 [dl    (A)]     (OBS: dl_cushion =    50.00 A)

## Normalization info
 4020.00                                 [l_norm (A) - for base]
 4010.00                                 [llow_norm (A) - window for f_obs]
 4060.00                                 [lupp_norm (A) - window for f_obs]
9.247314E-15                             [fobs_norm (in input units)]

## S/N
 4730.00                                 [llow_SN (A) - window for S/N]
 4780.00                                 [lupp_SN (A) - window for S/N]
  76.302                                 [S/N in S/N window]
  62.584                                 [S/N in norm. window]
  42.607                                 [S/N_err in S/N window]
  34.947                                 [S/N_err in norm. window]
  1.0000                                 [fscale_chi2]

## etc...
  2147483621                             [idum_orig]
  3068                                   [NOl_eff]
  1944                                   [Nl_eff]
  1124    NSIGMA                         [Ntot_cliped & clip_method]
  1563100                                [Nglobal_steps]
   7                                     [N_chains]
  10                                     [NEX0s_base = N_base in EX0s-fits]
 0   0   1      208   2.0   7.609E+02    [Clip-Bug, RC-Crash & Burn-In warning-flags, n_censored_weights, wei_nsig_threshold & wei_limit]
    22     22.078     22.078      0.000  [idt_all, wdt_TotTime, wdt_UsrTime & wdt_SysTime (sec)]

## Synthesis Results - Best model ##

 1.51795E+00                             [chi2/Nl_eff]
     1.89786                             [adev (%)]

   100.48530                             [sum-of-x (%)]
 3.27940E-14                             [Flux_tot (units of input spectrum!)]
 4.98811E-10                             [Mini_tot (???)]
 2.58948E-10                             [Mcor_tot (???)]

  -7.10                                  [v0_min  (km/s)]
  72.16                                  [vd_min  (km/s)]
 0.9389                                  [AV_min  (mag)]
 0.0000                                  [YAV_min (mag)]

# j     x_j(%)      Mini_j(%)     Mcor_j(%)     age_j(yr)     Z_j      (L/M)_j    YAV?  Mstars   component_j        a/Fe...       SSP_chi2r SSP_adev(%)   SSP_AV   SSP_x(%)
  1      0.0000     0.0000E+00    0.0000E+00    1.000000E+06  0.00400  1.114E-02    0   1.0000   age020_m42            0.0000     6.3687E+02    11.1936   4.0000    75.7368
  2      2.9289     4.7049E-03    9.0621E-03    3.160000E+06  0.00400  4.073E-02    0   0.9999   age045_m42            0.0000     9.7748E+01     5.1613   3.3445    89.5867
  3      0.0000     0.0000E+00    0.0000E+00    5.010000E+06  0.00400  2.534E-02    0   0.9488   age055_m42            0.0000     2.2380E+02     9.8027   3.8776    82.6669
  4      5.9517     3.0637E-02    5.2300E-02    1.000000E+07  0.00400  1.271E-02    0   0.8862   age070_m42            0.0000     1.6519E+02     8.6740   3.0864    86.0853
  5      0.0000     0.0000E+00    0.0000E+00    2.512000E+07  0.00400  5.070E-03    0   0.8174   age090_m42            0.0000     1.4229E+02     7.9053   2.9439    87.6632
  6      0.0000     0.0000E+00    0.0000E+00    4.000000E+07  0.00400  3.505E-03    0   0.7851   age104_m42            0.0000     8.6983E+01     5.4435   2.5698    91.0020
  7     27.3396     7.8869E-01    1.0949E+00    1.015200E+08  0.00400  2.268E-03    0   0.7207   age116_m42            0.0000     3.5904E+02    10.6616   2.1418   102.3171
  8      0.0000     0.0000E+00    0.0000E+00    2.861200E+08  0.00400  1.079E-03    0   0.6613   age125_m42            0.0000     3.8339E+02    12.2965   1.5831   104.8648
  9      1.8670     2.4059E-01    2.8720E-01    6.405400E+08  0.00400  5.077E-04    0   0.6197   age132_m42            0.0000     4.2234E+02    13.2045   1.1935   109.1882
 10      5.5196     1.0216E+00    1.1854E+00    9.047900E+08  0.00400  3.535E-04    0   0.6024   age135_m42            0.0000     2.4571E+02    10.5571   1.0236   108.5021
 11      0.0000     0.0000E+00    0.0000E+00    1.434000E+09  0.00400  1.910E-04    0   0.5716   age139_m42            0.0000     8.4069E+01     7.6915   0.5581   108.1956
 12      0.0000     0.0000E+00    0.0000E+00    2.500000E+09  0.00400  9.818E-05    0   0.5463   age150_m42            0.0000     3.2574E+01     4.8744   0.3974   103.9245
 13     43.2026     5.9911E+01    6.0335E+01    5.000000E+09  0.00400  4.718E-05    0   0.5228   age161_m42            0.0000     7.3664E+01     3.8902   0.3056   100.7676
 14      9.3596     2.7772E+01    2.6641E+01    1.100000E+10  0.00400  2.205E-05    0   0.4980   age185_m42            0.0000     1.8291E+02     5.4191   0.0000    99.9103
 15      0.0000     0.0000E+00    0.0000E+00    1.300000E+10  0.00400  1.883E-05    0   0.4927   age193_m42            0.0000     2.0491E+02     5.3719   0.0000    99.7702
 16      0.0000     0.0000E+00    0.0000E+00    1.000000E+06  0.02000  1.989E-02    0   1.0000   age020_m62            0.0000     6.1525E+02    10.2531   4.0000    76.3068
 17      0.0000     0.0000E+00    0.0000E+00    3.160000E+06  0.02000  3.772E-02    0   0.9858   age045_m62            0.0000     4.8271E+02     7.3970   4.0000    78.2966
 18      2.1604     4.3802E-03    7.8824E-03    5.010000E+06  0.02000  3.227E-02    0   0.9342   age055_m62            0.0000     1.4847E+02     7.5485   3.6813    85.6650
 19      0.0000     0.0000E+00    0.0000E+00    1.000000E+07  0.02000  1.011E-02    0   0.8751   age070_m62            0.0000     3.9451E+02    13.6088   3.2366    81.4837
 20      0.0000     0.0000E+00    0.0000E+00    2.512000E+07  0.02000  4.206E-03    0   0.8099   age090_m62            0.0000     2.9941E+02    11.4785   3.1271    82.6919
 21      0.0000     0.0000E+00    0.0000E+00    4.000000E+07  0.02000  3.373E-03    0   0.7799   age104_m62            0.0000     8.5318E+01     4.4418   2.7392    91.9930
 22      0.0000     0.0000E+00    0.0000E+00    1.015200E+08  0.02000  1.878E-03    0   0.7221   age116_m62            0.0000     2.9113E+02     9.1214   2.2528   101.4453
 23      0.0000     0.0000E+00    0.0000E+00    2.861200E+08  0.02000  8.869E-04    0   0.6700   age125_m62            0.0000     6.9217E+02    16.7997   1.4516   110.3141
 24      0.0000     0.0000E+00    0.0000E+00    6.405400E+08  0.02000  3.657E-04    0   0.6322   age132_m62            0.0000     4.2031E+02    16.2131   0.7261   115.2911
 25      0.0000     0.0000E+00    0.0000E+00    9.047900E+08  0.02000  2.312E-04    0   0.6152   age135_m62            0.0000     2.1360E+02    12.9062   0.4530   114.3681
 26      0.0000     0.0000E+00    0.0000E+00    1.434000E+09  0.02000  1.168E-04    0   0.5865   age139_m62            0.0000     6.3262E+01     7.4310   0.2447   108.2898
 27      0.0000     0.0000E+00    0.0000E+00    2.500000E+09  0.02000  5.505E-05    0   0.5610   age150_m62            0.0000     1.2334E+02     6.8326  -0.0654   106.3431
 28      0.0000     0.0000E+00    0.0000E+00    5.000000E+09  0.02000  2.596E-05    0   0.5353   age161_m62            0.0000     2.9221E+02     8.4454  -0.4138   107.7106
 29      0.0000     0.0000E+00    0.0000E+00    1.100000E+10  0.02000  1.169E-05    0   0.5103   age185_m62            0.0000     4.9697E+02    10.3481  -0.8166   110.5735
 30      0.0000     0.0000E+00    0.0000E+00    1.300000E+10  0.02000  9.691E-06    0   0.5047   age193_m62            0.0000     5.4153E+02    10.6019  -0.8653   111.0287
 31      0.0000     0.0000E+00    0.0000E+00    1.000000E+06  0.05000  2.651E-02    0   0.9998   age020_m72            0.0000     5.7941E+02    10.0622   4.0000    77.2244
 32      0.0000     0.0000E+00    0.0000E+00    3.160000E+06  0.05000  4.817E-02    0   0.9577   age045_m72            0.0000     3.0445E+02     7.6349   4.0000    81.5409
 33      0.0000     0.0000E+00    0.0000E+00    5.010000E+06  0.05000  3.101E-02    0   0.9147   age055_m72            0.0000     2.5038E+02    10.8207   3.7812    83.5340
 34      0.0000     0.0000E+00    0.0000E+00    1.000000E+07  0.05000  8.954E-03    0   0.8524   age070_m72            0.0000     2.8457E+02    10.4428   4.0000    82.2985
 35      0.0000     0.0000E+00    0.0000E+00    2.512000E+07  0.05000  4.207E-03    0   0.7902   age090_m72            0.0000     1.3355E+02     6.3825   3.4797    88.0282
 36      0.0000     0.0000E+00    0.0000E+00    4.000000E+07  0.05000  3.198E-03    0   0.7618   age104_m72            0.0000     1.5555E+02     5.4125   2.7288    97.0809
 37      0.0000     0.0000E+00    0.0000E+00    1.015200E+08  0.05000  1.716E-03    0   0.7092   age116_m72            0.0000     3.6216E+02    10.5798   2.2838   102.0215
 38      0.0000     0.0000E+00    0.0000E+00    2.861200E+08  0.05000  7.047E-04    0   0.6618   age125_m72            0.0000     6.6138E+02    17.0973   1.1958   111.9137
 39      0.0000     0.0000E+00    0.0000E+00    6.405400E+08  0.05000  2.633E-04    0   0.6253   age132_m72            0.0000     3.0165E+02    15.0955   0.3588   115.6831
 40      0.0000     0.0000E+00    0.0000E+00    9.047900E+08  0.05000  1.484E-04    0   0.6088   age135_m72            0.0000     1.0979E+02    11.3250   0.0000   111.0122
 41      0.0000     0.0000E+00    0.0000E+00    1.434000E+09  0.05000  7.827E-05    0   0.5847   age139_m72            0.0000     1.5994E+02     8.9628  -0.2390   108.1458
 42      0.0000     0.0000E+00    0.0000E+00    2.500000E+09  0.05000  3.759E-05    0   0.5583   age150_m72            0.0000     3.0451E+02     9.0169  -0.5116   107.9707
 43      1.9636     8.2993E+00    8.5051E+00    5.000000E+09  0.05000  1.548E-05    0   0.5320   age161_m72            0.0000     4.7231E+02    10.4397  -0.9524   108.8607
 44      0.1924     1.9270E+00    1.8820E+00    1.100000E+10  0.05000  6.532E-06    0   0.5070   age185_m72            0.0000     7.0127E+02    14.6110  -1.0000   108.4416
 45      0.0000     0.0000E+00    0.0000E+00    1.300000E+10  0.05000  5.316E-06    0   0.5018   age193_m72            0.0000     8.3661E+02    18.5824  -1.0000   108.1464


## Synthesis Results - Average & Chains ##

# j      x_j: min, <> & last-chain-values for 1 ...  7 chains
  1      0.0000      0.0165      0.0000      0.0117      0.0795      0.0000      0.0000      0.0000      0.0000
  2      2.9289      1.2342      2.4171      1.4067      1.7085      1.5236      1.7328      1.7594      1.7311
  3      0.0000      0.1314      0.0220      0.2863      0.0727      0.0000      0.1745      0.0796      0.1117
  4      5.9517      5.9445      5.9450      5.9963      5.9168      5.9226      5.8127      5.9800      5.8613
  5      0.0000      0.1327      0.0000      0.2217      0.2598      0.1002      0.0000      0.0000      0.0000
  6      0.0000      0.0502      0.0000      0.0061      0.0000      0.0755      0.0000      0.0000      0.0000
  7     27.3396     30.9239     30.0466     30.6564     30.2350     30.2275     30.3286     30.5724     30.7870
  8      0.0000      0.0639      0.0000      0.0000      0.0000      0.0535      0.0000      0.0000      0.0710
  9      1.8670      0.7547      0.8814      1.1575      1.0135      1.0427      0.6834      1.0082      1.1088
 10      5.5196      1.9039      2.9590      2.0760      2.7168      3.0631      2.8260      2.5180      2.2634
 11      0.0000      0.1650      0.0521      0.0525      0.4438      0.0000      0.0343      0.0231      0.0000
 12      0.0000      0.1571      0.0000      0.0000      0.0000      0.0000      0.1638      0.3110      0.0000
 13     43.2026     48.0450     48.0607     48.2764     47.2889     47.3646     47.9355     47.4649     47.8876
 14      9.3596      5.9632      5.9411      6.0257      6.5696      6.0161      5.6598      6.0783      4.9375
 15      0.0000      0.3333      0.5651      0.2294      0.3828      0.7281      0.4525      0.6203      1.5652
 16      0.0000      0.0115      0.0000      0.0000      0.0000      0.0000      0.0000      0.0000      0.0000
 17      0.0000      0.0340      0.0000      0.0000      0.1015      0.0000      0.0000      0.1123      0.0000
 18      2.1604      0.6014      0.6764      0.7308      0.6027      0.9686      0.8006      0.4326      0.6321
 19      0.0000      0.1582      0.1517      0.0056      0.0604      0.0000      0.1625      0.0000      0.2396
 20      0.0000      0.0355      0.0000      0.0000      0.0000      0.1110      0.0000      0.0000      0.0026
 21      0.0000      0.0497      0.0528      0.0000      0.0351      0.0000      0.0671      0.0000      0.0260
 22      0.0000      0.1368      0.0393      0.0000      0.0000      0.0000      0.0000      0.1582      0.0000
 23      0.0000      0.0235      0.0000      0.0000      0.0000      0.0000      0.0000      0.0000      0.0000
 24      0.0000      0.0055      0.0000      0.0000      0.0000      0.0000      0.0000      0.0000      0.0000
 25      0.0000      0.0073      0.0000      0.0000      0.0000      0.0000      0.0000      0.0075      0.0000
 26      0.0000      0.0076      0.0000      0.0000      0.0000      0.0000      0.0000      0.0000      0.0000
 27      0.0000      0.0170      0.0000      0.0000      0.0000      0.0000      0.0000      0.0000      0.0000
 28      0.0000      0.0337      0.0000      0.0000      0.0000      0.0000      0.0000      0.0147      0.0000
 29      0.0000      0.0883      0.0000      0.0000      0.0000      0.1422      0.0000      0.0000      0.4091
 30      0.0000      0.0508      0.0000      0.0000      0.0956      0.0000      0.1120      0.0000      0.2267
 31      0.0000      0.0132      0.0000      0.0000      0.0000      0.0000      0.0000      0.0000      0.0124
 32      0.0000      0.2339      0.0998      0.2308      0.2354      0.3248      0.2060      0.0992      0.2467
 33      0.0000      0.4258      0.3537      0.6240      0.3612      0.5407      0.4955      0.9616      0.5228
 34      0.0000      0.0213      0.0683      0.0000      0.0155      0.0000      0.0000      0.0000      0.0869
 35      0.0000      0.0251      0.0000      0.0000      0.0000      0.0000      0.0000      0.0134      0.0000
 36      0.0000      0.0815      0.0327      0.0000      0.1619      0.0000      0.0000      0.0000      0.0000
 37      0.0000      0.2296      0.0000      0.1365      0.0000      0.0000      0.4405      0.0000      0.0000
 38      0.0000      0.0096      0.0105      0.0000      0.0000      0.0000      0.0000      0.0000      0.0000
 39      0.0000      0.0069      0.0000      0.0000      0.0000      0.0000      0.0000      0.0000      0.0000
 40      0.0000      0.0082      0.0000      0.0000      0.0000      0.0000      0.0000      0.0000      0.0127
 41      0.0000      0.0145      0.0000      0.0767      0.0000      0.0000      0.0000      0.0000      0.0000
 42      0.0000      0.0539      0.0000      0.0000      0.1868      0.0000      0.0000      0.0102      0.0000
 43      1.9636      0.8751      0.8084      1.0580      0.8742      0.9765      1.0042      1.0440      0.7172
 44      0.1924      0.8216      0.8474      0.7321      0.6905      0.7235      0.7916      0.7874      0.7710
 45      0.0000      0.6914      0.4899      0.4994      0.4536      0.6599      0.7121      0.4948      0.3145

# j      m_j: min, <> & last-chain-values for 1 ...  7 chains
  1  0.0000E+00  1.7254E-04  0.0000E+00  1.2550E-04  8.5617E-04  0.0000E+00  0.0000E+00  0.0000E+00  0.0000E+00
  2  9.0621E-03  3.5254E-03  7.0833E-03  4.1438E-03  5.0292E-03  4.3765E-03  4.9645E-03  5.1341E-03  5.0437E-03
  3  0.0000E+00  5.7255E-04  9.8384E-05  1.2865E-03  3.2640E-04  0.0000E+00  7.6241E-04  3.5420E-04  4.9626E-04
  4  5.2300E-02  4.8226E-02  4.9482E-02  5.0167E-02  4.9466E-02  4.8318E-02  4.7299E-02  4.9563E-02  4.8503E-02
  5  0.0000E+00  2.4899E-03  0.0000E+00  4.2881E-03  5.0226E-03  1.8909E-03  0.0000E+00  0.0000E+00  0.0000E+00
  6  0.0000E+00  1.3083E-03  0.0000E+00  1.6495E-04  0.0000E+00  1.9797E-03  0.0000E+00  0.0000E+00  0.0000E+00
  7  1.0949E+00  1.1434E+00  1.1398E+00  1.1689E+00  1.1520E+00  1.1239E+00  1.1247E+00  1.1548E+00  1.1611E+00
  8  0.0000E+00  4.5560E-03  0.0000E+00  0.0000E+00  0.0000E+00  3.8368E-03  0.0000E+00  0.0000E+00  5.1662E-03
  9  2.8720E-01  1.0719E-01  1.2842E-01  1.6953E-01  1.4833E-01  1.4892E-01  9.7353E-02  1.4629E-01  1.6062E-01
 10  1.1854E+00  3.7749E-01  6.0192E-01  4.2449E-01  5.5512E-01  6.1075E-01  5.6203E-01  5.1006E-01  4.5778E-01
 11  0.0000E+00  5.7447E-02  1.8618E-02  1.8854E-02  1.5924E-01  0.0000E+00  1.1991E-02  8.2134E-03  0.0000E+00
 12  0.0000E+00  1.0173E-01  0.0000E+00  0.0000E+00  0.0000E+00  0.0000E+00  1.0640E-01  2.0567E-01  0.0000E+00
 13  6.0335E+01  6.1945E+01  6.3573E+01  6.4189E+01  6.2831E+01  6.1409E+01  6.1990E+01  6.2520E+01  6.2979E+01
 14  2.6641E+01  1.5670E+01  1.6017E+01  1.6330E+01  1.7791E+01  1.5898E+01  1.4918E+01  1.6318E+01  1.3235E+01
 15  0.0000E+00  1.0147E+00  1.7650E+00  7.2010E-01  1.2008E+00  2.2292E+00  1.3817E+00  1.9294E+00  4.8607E+00
 16  0.0000E+00  6.7273E-05  0.0000E+00  0.0000E+00  0.0000E+00  0.0000E+00  0.0000E+00  0.0000E+00  0.0000E+00
 17  0.0000E+00  1.0331E-04  0.0000E+00  0.0000E+00  3.1821E-04  0.0000E+00  0.0000E+00  3.4892E-04  0.0000E+00
 18  7.8824E-03  2.0258E-03  2.3376E-03  2.5387E-03  2.0920E-03  3.2808E-03  2.7048E-03  1.4888E-03  2.1719E-03
 19  0.0000E+00  1.5936E-03  1.5672E-03  5.7928E-05  6.2721E-04  0.0000E+00  1.6417E-03  0.0000E+00  2.4618E-03
 20  0.0000E+00  7.9567E-04  0.0000E+00  0.0000E+00  0.0000E+00  2.5013E-03  0.0000E+00  0.0000E+00  5.9640E-05
 21  0.0000E+00  1.3359E-03  1.4575E-03  0.0000E+00  9.7422E-04  0.0000E+00  1.8102E-03  0.0000E+00  7.1419E-04
 22  0.0000E+00  6.1201E-03  1.8053E-03  0.0000E+00  0.0000E+00  0.0000E+00  0.0000E+00  7.2326E-03  0.0000E+00
 23  0.0000E+00  2.0660E-03  0.0000E+00  0.0000E+00  0.0000E+00  0.0000E+00  0.0000E+00  0.0000E+00  0.0000E+00
 24  0.0000E+00  1.0982E-03  0.0000E+00  0.0000E+00  0.0000E+00  0.0000E+00  0.0000E+00  0.0000E+00  0.0000E+00
 25  0.0000E+00  2.2686E-03  0.0000E+00  0.0000E+00  0.0000E+00  0.0000E+00  0.0000E+00  2.3787E-03  0.0000E+00
 26  0.0000E+00  4.4538E-03  0.0000E+00  0.0000E+00  0.0000E+00  0.0000E+00  0.0000E+00  0.0000E+00  0.0000E+00
 27  0.0000E+00  2.0164E-02  0.0000E+00  0.0000E+00  0.0000E+00  0.0000E+00  0.0000E+00  0.0000E+00  0.0000E+00
 28  0.0000E+00  8.0895E-02  0.0000E+00  0.0000E+00  0.0000E+00  0.0000E+00  0.0000E+00  3.6003E-02  0.0000E+00
 29  0.0000E+00  4.4870E-01  0.0000E+00  0.0000E+00  0.0000E+00  7.2619E-01  0.0000E+00  0.0000E+00  2.1194E+00
 30  0.0000E+00  3.0804E-01  0.0000E+00  0.0000E+00  5.9678E-01  0.0000E+00  6.8089E-01  0.0000E+00  1.4010E+00
 31  0.0000E+00  5.8020E-05  0.0000E+00  0.0000E+00  0.0000E+00  0.0000E+00  0.0000E+00  0.0000E+00  5.5511E-05
 32  0.0000E+00  5.4108E-04  2.3678E-04  5.5055E-04  5.6113E-04  7.5553E-04  4.7793E-04  2.3442E-04  5.8203E-04
 33  0.0000E+00  1.4612E-03  1.2455E-03  2.2087E-03  1.2774E-03  1.8661E-03  1.7058E-03  3.3718E-03  1.8301E-03
