###################################################################
## OUTPUT of StarlightChains_v04.for    [Cid@UFSC - 01/Apr/2007] ##
###################################################################

## Some input info
NGC6171_b_1.cxt                          [arq_obs]
Base.BC03.N                              [arq_base]
NGC6171_b_1.msk                          [arq_masks]
StCv04.C99.config                        [arq_config]
   45                                    [N_base]
    0                                    [N_YAV_components = # of components with extra extinction!]
    0                                    [i_FitPowerLaw (1/0 = Yes/No)]
-9.99                                    [alpha_PowerLaw]
CCM                                      [red_law_option]
 1.458241                                [q_norm = A(l_norm)/A(V)]

## (Re)Sampling Parameters
 3359.00                                 [l_ini (A)]
 6428.00                                 [l_fin (A)]
    1.00                                 [dl    (A)]     (OBS: dl_cushion =    50.00 A)

## Normalization info
 4020.00                                 [l_norm (A) - for base]
 4010.00                                 [llow_norm (A) - window for f_obs]
 4060.00                                 [lupp_norm (A) - window for f_obs]
4.350830E-15                             [fobs_norm (in input units)]

## S/N
 4730.00                                 [llow_SN (A) - window for S/N]
 4780.00                                 [lupp_SN (A) - window for S/N]
  48.767                                 [S/N in S/N window]
  32.704                                 [S/N in norm. window]
 245.356                                 [S/N_err in S/N window]
 164.540                                 [S/N_err in norm. window]
  1.0000                                 [fscale_chi2]

## etc...
  2147483626                             [idum_orig]
  3069                                   [NOl_eff]
   851                                   [Nl_eff]
  2218    NSIGMA                         [Ntot_cliped & clip_method]
  1814400                                [Nglobal_steps]
   7                                     [N_chains]
   9                                     [NEX0s_base = N_base in EX0s-fits]
 0   0   1      192   2.0   3.636E+02    [Clip-Bug, RC-Crash & Burn-In warning-flags, n_censored_weights, wei_nsig_threshold & wei_limit]
    24     24.145     24.137      0.008  [idt_all, wdt_TotTime, wdt_UsrTime & wdt_SysTime (sec)]

## Synthesis Results - Best model ##

 2.88700E+00                             [chi2/Nl_eff]
     1.11850                             [adev (%)]

    99.48799                             [sum-of-x (%)]
 3.61445E-14                             [Flux_tot (units of input spectrum!)]
 5.45618E-10                             [Mini_tot (???)]
 2.85041E-10                             [Mcor_tot (???)]

 -25.31                                  [v0_min  (km/s)]
  50.71                                  [vd_min  (km/s)]
 1.5802                                  [AV_min  (mag)]
 0.0000                                  [YAV_min (mag)]

# j     x_j(%)      Mini_j(%)     Mcor_j(%)     age_j(yr)     Z_j      (L/M)_j    YAV?  Mstars   component_j        a/Fe...       SSP_chi2r SSP_adev(%)   SSP_AV   SSP_x(%)
  1      5.8578     3.5013E-02    6.7021E-02    1.000000E+06  0.00400  1.114E-02    0   1.0000   age020_m42            0.0000     2.2750E+03    22.8001   4.0000    99.1660
  2      4.6193     7.5516E-03    1.4454E-02    3.160000E+06  0.00400  4.073E-02    0   0.9999   age045_m42            0.0000     1.8697E+02     5.9464   3.8922    95.5872
  3      4.7649     1.2521E-02    2.2740E-02    5.010000E+06  0.00400  2.534E-02    0   0.9488   age055_m42            0.0000     4.4265E+02    10.9955   4.0000    96.6780
  4      5.4872     2.8747E-02    4.8764E-02    1.000000E+07  0.00400  1.271E-02    0   0.8862   age070_m42            0.0000     2.2179E+02     7.4420   3.5048    94.0337
  5      0.0000     0.0000E+00    0.0000E+00    2.512000E+07  0.00400  5.070E-03    0   0.8174   age090_m42            0.0000     1.8785E+02     6.8589   3.3747    95.7580
  6      0.0000     0.0000E+00    0.0000E+00    4.000000E+07  0.00400  3.505E-03    0   0.7851   age104_m42            0.0000     1.3290E+02     5.4200   3.0711    98.4981
  7      0.0000     0.0000E+00    0.0000E+00    1.015200E+08  0.00400  2.268E-03    0   0.7207   age116_m42            0.0000     6.9621E+02    10.3041   3.1343   105.5728
  8      0.0000     0.0000E+00    0.0000E+00    2.861200E+08  0.00400  1.079E-03    0   0.6613   age125_m42            0.0000     7.5580E+02    10.9909   2.6475   107.4192
  9      0.0000     0.0000E+00    0.0000E+00    6.405400E+08  0.00400  5.077E-04    0   0.6197   age132_m42            0.0000     7.9436E+02    11.3993   2.2898   111.4210
 10      0.0000     0.0000E+00    0.0000E+00    9.047900E+08  0.00400  3.535E-04    0   0.6024   age135_m42            0.0000     5.5771E+02     9.7046   2.0450   110.8039
 11      0.0000     0.0000E+00    0.0000E+00    1.434000E+09  0.00400  1.910E-04    0   0.5716   age139_m42            0.0000     3.2491E+02     7.8493   1.5219   109.4293
 12     23.0746     1.5649E+01    1.6365E+01    2.500000E+09  0.00400  9.818E-05    0   0.5463   age150_m42            0.0000     1.4282E+02     5.6156   1.2319   105.0414
 13     47.0076     6.6343E+01    6.6391E+01    5.000000E+09  0.00400  4.718E-05    0   0.5228   age161_m42            0.0000     9.4925E+01     4.7331   1.0574   101.8996
 14      5.9339     1.7919E+01    1.7082E+01    1.100000E+10  0.00400  2.205E-05    0   0.4980   age185_m42            0.0000     1.6479E+02     5.8953   0.7997    99.5991
 15      0.0000     0.0000E+00    0.0000E+00    1.300000E+10  0.00400  1.883E-05    0   0.4927   age193_m42            0.0000     1.7673E+02     6.0757   0.7823    99.4548
 16      0.0000     0.0000E+00    0.0000E+00    1.000000E+06  0.02000  1.989E-02    0   1.0000   age020_m62            0.0000     2.1088E+03    21.9081   4.0000    99.4675
 17      1.0146     1.7910E-03    3.3796E-03    3.160000E+06  0.02000  3.772E-02    0   0.9858   age045_m62            0.0000     1.5321E+03    19.2379   4.0000    99.6227
 18      1.7282     3.5660E-03    6.3769E-03    5.010000E+06  0.02000  3.227E-02    0   0.9342   age055_m62            0.0000     2.8554E+02     8.3851   4.0000    96.4070
 19      0.0000     0.0000E+00    0.0000E+00    1.000000E+07  0.02000  1.011E-02    0   0.8751   age070_m62            0.0000     4.8344E+02    11.4994   3.5071    91.3727
 20      0.0000     0.0000E+00    0.0000E+00    2.512000E+07  0.02000  4.206E-03    0   0.8099   age090_m62            0.0000     3.2623E+02     9.5560   3.4413    92.1462
 21      0.0000     0.0000E+00    0.0000E+00    4.000000E+07  0.02000  3.373E-03    0   0.7799   age104_m62            0.0000     2.0405E+02     5.9311   3.2897    99.8792
 22      0.0000     0.0000E+00    0.0000E+00    1.015200E+08  0.02000  1.878E-03    0   0.7221   age116_m62            0.0000     6.1023E+02     9.5794   3.1504   106.5574
 23      0.0000     0.0000E+00    0.0000E+00    2.861200E+08  0.02000  8.869E-04    0   0.6700   age125_m62            0.0000     1.1449E+03    13.5224   2.6703   112.3399
 24      0.0000     0.0000E+00    0.0000E+00    6.405400E+08  0.02000  3.657E-04    0   0.6322   age132_m62            0.0000     8.5080E+02    12.2330   1.9979   115.2572
 25      0.0000     0.0000E+00    0.0000E+00    9.047900E+08  0.02000  2.312E-04    0   0.6152   age135_m62            0.0000     5.4992E+02    10.0628   1.6215   114.3012
 26      0.0000     0.0000E+00    0.0000E+00    1.434000E+09  0.02000  1.168E-04    0   0.5865   age139_m62            0.0000     2.4487E+02     6.9995   1.1885   108.8932
 27      0.0000     0.0000E+00    0.0000E+00    2.500000E+09  0.02000  5.505E-05    0   0.5610   age150_m62            0.0000     2.3690E+02     7.0743   0.8170   105.8826
 28      0.0000     0.0000E+00    0.0000E+00    5.000000E+09  0.02000  2.596E-05    0   0.5353   age161_m62            0.0000     4.0318E+02     9.0942   0.4965   105.4642
 29      0.0000     0.0000E+00    0.0000E+00    1.100000E+10  0.02000  1.169E-05    0   0.5103   age185_m62            0.0000     6.4590E+02    11.2890   0.1452   106.4868
 30      0.0000     0.0000E+00    0.0000E+00    1.300000E+10  0.02000  9.691E-06    0   0.5047   age193_m62            0.0000     6.9362E+02    11.6578   0.1018   106.6313
 31      0.0000     0.0000E+00    0.0000E+00    1.000000E+06  0.05000  2.651E-02    0   0.9998   age020_m72            0.0000     2.0988E+03    21.6528   4.0000   100.5194
 32      0.0000     0.0000E+00    0.0000E+00    3.160000E+06  0.05000  4.817E-02    0   0.9577   age045_m72            0.0000     1.0058E+03    15.7130   4.0000   100.4127
 33      0.0000     0.0000E+00    0.0000E+00    5.010000E+06  0.05000  3.101E-02    0   0.9147   age055_m72            0.0000     3.3843E+02     9.8004   4.0000    95.1664
 34      0.0000     0.0000E+00    0.0000E+00    1.000000E+07  0.05000  8.954E-03    0   0.8524   age070_m72            0.0000     6.9042E+02    13.2956   4.0000    99.3069
 35      0.0000     0.0000E+00    0.0000E+00    2.512000E+07  0.05000  4.207E-03    0   0.7902   age090_m72            0.0000     2.0177E+02     6.3439   3.9653    95.4603
 36      0.0000     0.0000E+00    0.0000E+00    4.000000E+07  0.05000  3.198E-03    0   0.7618   age104_m72            0.0000     3.9939E+02     7.6600   3.5012   102.7905
 37      0.0000     0.0000E+00    0.0000E+00    1.015200E+08  0.05000  1.716E-03    0   0.7092   age116_m72            0.0000     7.0699E+02    10.2866   3.2431   106.5440
 38      0.0000     0.0000E+00    0.0000E+00    2.861200E+08  0.05000  7.047E-04    0   0.6618   age125_m72            0.0000     1.1042E+03    13.3965   2.4716   112.5643
 39      0.0000     0.0000E+00    0.0000E+00    6.405400E+08  0.05000  2.633E-04    0   0.6253   age132_m72            0.0000     6.8103E+02    11.0910   1.6283   114.3791
 40      0.0000     0.0000E+00    0.0000E+00    9.047900E+08  0.05000  1.484E-04    0   0.6088   age135_m72            0.0000     3.7957E+02     8.8496   1.1368   109.3024
 41      0.0000     0.0000E+00    0.0000E+00    1.434000E+09  0.05000  7.827E-05    0   0.5847   age139_m72            0.0000     3.4952E+02     8.6945   0.7436   105.8600
 42      0.0000     0.0000E+00    0.0000E+00    2.500000E+09  0.05000  3.759E-05    0   0.5583   age150_m72            0.0000     4.4089E+02     9.5619   0.4204   105.1031
 43      0.0000     0.0000E+00    0.0000E+00    5.000000E+09  0.05000  1.548E-05    0   0.5320   age161_m72            0.0000     6.6342E+02    11.2175   0.0216   104.4873
 44      0.0000     0.0000E+00    0.0000E+00    1.100000E+10  0.05000  6.532E-06    0   0.5070   age185_m72            0.0000     1.0159E+03    13.5977  -0.3401   103.8809
 45      0.0000     0.0000E+00    0.0000E+00    1.300000E+10  0.05000  5.316E-06    0   0.5018   age193_m72            0.0000     1.1714E+03    14.5640  -0.4508   103.7634


## Synthesis Results - Average & Chains ##

# j      x_j: min, <> & last-chain-values for 1 ...  7 chains
  1      5.8578      5.6755      5.6255      5.6797      5.6248      5.6256      5.7248      5.7726      5.6744
  2      4.6193      3.4875      3.5443      3.5599      3.5719      3.4734      3.5494      3.5870      3.6235
  3      4.7649      3.9874      3.9332      4.0971      4.1179      4.0643      3.9938      4.0560      4.1477
  4      5.4872      5.2313      5.4282      5.2537      5.3667      5.2291      5.2881      5.3759      5.2237
  5      0.0000      0.0688      0.0000      0.0803      0.0012      0.0685      0.0000      0.1422      0.0742
  6      0.0000      0.0496      0.0000      0.3374      0.0000      0.0000      0.0000      0.0707      0.0000
  7      0.0000      0.0338      0.0000      0.0362      0.0000      0.0000      0.0000      0.0000      0.2005
  8      0.0000      0.0222      0.0000      0.0000      0.0005      0.0000      0.0000      0.0000      0.0145
  9      0.0000      0.0406      0.0000      0.0000      0.0712      0.0680      0.1538      0.0000      0.0000
 10      0.0000      0.0907      0.2078      0.1247      0.1029      0.1065      0.0000      0.4121      0.0267
 11      0.0000      0.0896      0.1917      0.0000      0.1016      0.0000      0.0734      0.0000      0.0000
 12     23.0746     24.8105     24.4580     24.6533     25.0177     24.7100     24.5071     24.6711     24.9453
 13     47.0076     45.2614     45.5134     45.7969     45.1729     45.5222     45.9837     45.4801     45.5953
 14      5.9339      5.6693      5.6313      5.5651      5.6411      5.9696      5.5071      5.7767      5.7001
 15      0.0000      0.0609      0.0000      0.0201      0.1008      0.0000      0.0778      0.0145      0.0000
 16      0.0000      0.9336      0.8108      0.9243      0.9324      0.8572      0.8528      0.8717      0.9697
 17      1.0146      1.2158      1.3304      1.0958      1.2135      1.1797      1.1122      1.1927      1.2118
 18      1.7282      1.7668      1.9870      1.8532      1.7875      2.0794      1.8079      1.7301      1.8246
 19      0.0000      0.1354      0.1890      0.0544      0.1814      0.1854      0.1057      0.0837      0.0000
 20      0.0000      0.0270      0.0000      0.0000      0.0148      0.0000      0.0076      0.0000      0.0158
 21      0.0000      0.0271      0.0735      0.0000      0.0149      0.0000      0.0000      0.0000      0.0000
 22      0.0000      0.0257      0.0000      0.0000      0.0000      0.0790      0.0000      0.0009      0.0000
 23      0.0000      0.0135      0.0000      0.0000      0.0000      0.0000      0.0079      0.0000      0.0000
 24      0.0000      0.0132      0.0000      0.0000      0.0000      0.0000      0.0078      0.0028      0.0000
 25      0.0000      0.0218      0.0000      0.0000      0.0000      0.0000      0.0654      0.0000      0.0000
 26      0.0000      0.0455      0.0000      0.0128      0.0015      0.0000      0.0000      0.0106      0.0000
 27      0.0000      0.0704      0.0568      0.0000      0.0000      0.0000      0.0000      0.0216      0.0000
 28      0.0000      0.0604      0.0771      0.0252      0.0000      0.0000      0.0000      0.0108      0.1102
 29      0.0000      0.0298      0.0996      0.0659      0.0360      0.0298      0.0000      0.0000      0.0000
 30      0.0000      0.0165      0.0000      0.0000      0.0444      0.0000      0.0000      0.0000      0.0000
 31      0.0000      0.0155      0.0000      0.0000      0.0000      0.0000      0.0000      0.0000      0.0001
 32      0.0000      0.0294      0.0000      0.0268      0.0000      0.0000      0.1836      0.0044      0.0000
 33      0.0000      0.0841      0.0268      0.0000      0.0448      0.0467      0.1396      0.0000      0.0000
 34      0.0000      0.0182      0.0000      0.0000      0.0000      0.0000      0.0000      0.0000      0.0000
 35      0.0000      0.0193      0.0000      0.0000      0.0031      0.0260      0.0000      0.0572      0.0000
 36      0.0000      0.0142      0.0000      0.0338      0.0451      0.0000      0.0000      0.0000      0.0000
 37      0.0000      0.0262      0.0752      0.0842      0.0000      0.0000      0.0945      0.0000      0.0000
 38      0.0000      0.0124      0.0000      0.0000      0.0000      0.0000      0.0000      0.0000      0.0000
 39      0.0000      0.0179      0.0000      0.0000      0.0000      0.0000      0.0000      0.0000      0.0000
 40      0.0000      0.0363      0.0000      0.0000      0.0000      0.0000      0.0283      0.0000      0.0000
 41      0.0000      0.0383      0.0170      0.0160      0.0152      0.0316      0.0166      0.0000      0.0078
 42      0.0000      0.0348      0.0000      0.0000      0.0000      0.0000      0.0000      0.0787      0.0000
 43      0.0000      0.0260      0.0000      0.0000      0.1042      0.0000      0.0007      0.0000      0.0000
 44      0.0000      0.1028      0.1109      0.0933      0.1004      0.1272      0.1658      0.0000      0.1097
 45      0.0000      0.1030      0.1741      0.0652      0.1003      0.0523      0.1028      0.1022      0.0457

# j      m_j: min, <> & last-chain-values for 1 ...  7 chains
  1  6.7021E-02  6.4078E-02  6.3002E-02  6.4583E-02  6.3392E-02  6.3548E-02  6.4474E-02  6.5976E-02  6.4533E-02
  2  1.4454E-02  1.0768E-02  1.0855E-02  1.1070E-02  1.1009E-02  1.0730E-02  1.0932E-02  1.1212E-02  1.1270E-02
  3  2.2740E-02  1.8778E-02  1.8374E-02  1.9432E-02  1.9358E-02  1.9150E-02  1.8761E-02  1.9336E-02  1.9675E-02
  4  4.8764E-02  4.5876E-02  4.7219E-02  4.6401E-02  4.6979E-02  4.5881E-02  4.6259E-02  4.7724E-02  4.6143E-02
  5  0.0000E+00  1.3951E-03  0.0000E+00  1.6392E-03  2.5217E-05  1.3901E-03  0.0000E+00  2.9186E-03  1.5158E-03
  6  0.0000E+00  1.3965E-03  0.0000E+00  9.5735E-03  0.0000E+00  0.0000E+00  0.0000E+00  2.0166E-03  0.0000E+00
  7  0.0000E+00  1.3528E-03  0.0000E+00  1.4552E-03  0.0000E+00  0.0000E+00  0.0000E+00  0.0000E+00  8.0730E-03
  8  0.0000E+00  1.7104E-03  0.0000E+00  0.0000E+00  3.6240E-05  0.0000E+00  0.0000E+00  0.0000E+00  1.1225E-03
  9  0.0000E+00  6.2278E-03  0.0000E+00  0.0000E+00  1.0906E-02  1.0446E-02  2.3550E-02  0.0000E+00  0.0000E+00
 10  0.0000E+00  1.9449E-02  4.4177E-02  2.6912E-02  2.2012E-02  2.2841E-02  0.0000E+00  8.9413E-02  5.7716E-03
 11  0.0000E+00  3.3725E-02  7.1560E-02  0.0000E+00  3.8162E-02  0.0000E+00  2.7558E-02  0.0000E+00  0.0000E+00
 12  1.6365E+01  1.7363E+01  1.6979E+01  1.7376E+01  1.7477E+01  1.7302E+01  1.7108E+01  1.7478E+01  1.7585E+01
 13  6.6391E+01  6.3080E+01  6.2921E+01  6.4282E+01  6.2845E+01  6.3477E+01  6.3928E+01  6.4165E+01  6.4009E+01
 14  1.7082E+01  1.6104E+01  1.5867E+01  1.5921E+01  1.5995E+01  1.6966E+01  1.5605E+01  1.6611E+01  1.6310E+01
 15  0.0000E+00  2.0051E-01  0.0000E+00  6.6598E-02  3.3117E-01  0.0000E+00  2.5551E-01  4.8326E-02  0.0000E+00
 16  0.0000E+00  5.9033E-03  5.0861E-03  5.8863E-03  5.8856E-03  5.4230E-03  5.3790E-03  5.5799E-03  6.1763E-03
 17  3.3796E-03  3.9964E-03  4.3380E-03  3.6276E-03  3.9817E-03  3.8799E-03  3.6467E-03  3.9687E-03  4.0123E-03
 18  6.3769E-03  6.4332E-03  7.1765E-03  6.7957E-03  6.4968E-03  7.5751E-03  6.5665E-03  6.3767E-03  6.6919E-03
 19  0.0000E+00  1.4740E-03  2.0408E-03  5.9677E-04  1.9710E-03  2.0194E-03  1.1484E-03  9.2227E-04  0.0000E+00
 20  0.0000E+00  6.5504E-04  0.0000E+00  0.0000E+00  3.5697E-04  0.0000E+00  1.8447E-04  0.0000E+00  3.8562E-04
 21  0.0000E+00  7.8780E-04  2.1195E-03  0.0000E+00  4.3383E-04  0.0000E+00  0.0000E+00  0.0000E+00  0.0000E+00
 22  0.0000E+00  1.2420E-03  0.0000E+00  0.0000E+00  0.0000E+00  3.8217E-03  0.0000E+00  4.3364E-05  0.0000E+00
 23  0.0000E+00  1.2816E-03  0.0000E+00  0.0000E+00  0.0000E+00  0.0000E+00  7.5345E-04  0.0000E+00  0.0000E+00
 24  0.0000E+00  2.8651E-03  0.0000E+00  0.0000E+00  0.0000E+00  0.0000E+00  1.6857E-03  6.0654E-04  0.0000E+00
 25  0.0000E+00  7.3089E-03  0.0000E+00  0.0000E+00  0.0000E+00  0.0000E+00  2.1833E-02  0.0000E+00  0.0000E+00
 26  0.0000E+00  2.8717E-02  0.0000E+00  8.1363E-03  9.4336E-04  0.0000E+00  0.0000E+00  6.7877E-03  0.0000E+00
 27  0.0000E+00  9.0177E-02  7.2248E-02  0.0000E+00  0.0000E+00  0.0000E+00  0.0000E+00  2.7976E-02  0.0000E+00
 28  0.0000E+00  1.5660E-01  1.9841E-01  6.5699E-02  0.0000E+00  0.0000E+00  0.0000E+00  2.8280E-02  2.8794E-01
 29  0.0000E+00  1.6357E-01  5.4267E-01  3.6422E-01  1.9756E-01  1.6393E-01  0.0000E+00  0.0000E+00  0.0000E+00
 30  0.0000E+00  1.0795E-01  0.0000E+00  0.0000E+00  2.9010E-01  0.0000E+00  0.0000E+00  0.0000E+00  0.0000E+00
 31  0.0000E+00  7.3584E-05  0.0000E+00  0.0000E+00  0.0000E+00  0.0000E+00  0.0000E+00  0.0000E+00  3.8658E-07
 32  0.0000E+00  7.3570E-05  0.0000E+00  6.7436E-05  0.0000E+00  0.0000E+00  4.5785E-04  1.1127E-05  0.0000E+00
 33  0.0000E+00  3.1218E-04  9.8479E-05  0.0000E+00  1.6599E-04  1.7335E-04  5.1646E-04  0.0000E+00  0.0000E+00
