###################################################################
## OUTPUT of StarlightChains_v04.for    [Cid@UFSC - 01/Apr/2007] ##
###################################################################

## Some input info
NGC6284_a_2.cxt                          [arq_obs]
Base.BC03.N                              [arq_base]
NGC6284_a_2.msk                          [arq_masks]
StCv04.C99.config                        [arq_config]
   45                                    [N_base]
    0                                    [N_YAV_components = # of components with extra extinction!]
    0                                    [i_FitPowerLaw (1/0 = Yes/No)]
-9.99                                    [alpha_PowerLaw]
CCM                                      [red_law_option]
 1.458241                                [q_norm = A(l_norm)/A(V)]

## (Re)Sampling Parameters
 3359.00                                 [l_ini (A)]
 6428.00                                 [l_fin (A)]
    1.00                                 [dl    (A)]     (OBS: dl_cushion =    50.00 A)

## Normalization info
 4020.00                                 [l_norm (A) - for base]
 4010.00                                 [llow_norm (A) - window for f_obs]
 4060.00                                 [lupp_norm (A) - window for f_obs]
1.360561E-14                             [fobs_norm (in input units)]

## S/N
 4730.00                                 [llow_SN (A) - window for S/N]
 4780.00                                 [lupp_SN (A) - window for S/N]
  73.354                                 [S/N in S/N window]
  58.120                                 [S/N in norm. window]
  64.892                                 [S/N_err in S/N window]
  51.416                                 [S/N_err in norm. window]
  1.0000                                 [fscale_chi2]

## etc...
  2147483620                             [idum_orig]
  3068                                   [NOl_eff]
  1739                                   [Nl_eff]
  1329    NSIGMA                         [Ntot_cliped & clip_method]
  1570800                                [Nglobal_steps]
   7                                     [N_chains]
  10                                     [NEX0s_base = N_base in EX0s-fits]
 0   0   1      379   2.0   9.368E+02    [Clip-Bug, RC-Crash & Burn-In warning-flags, n_censored_weights, wei_nsig_threshold & wei_limit]
    22     22.112     22.112      0.000  [idt_all, wdt_TotTime, wdt_UsrTime & wdt_SysTime (sec)]

## Synthesis Results - Best model ##

 1.90102E+00                             [chi2/Nl_eff]
     1.52338                             [adev (%)]

   104.15073                             [sum-of-x (%)]
 4.81859E-14                             [Flux_tot (units of input spectrum!)]
 6.24487E-10                             [Mini_tot (???)]
 3.29032E-10                             [Mcor_tot (???)]

 -11.09                                  [v0_min  (km/s)]
  97.20                                  [vd_min  (km/s)]
 0.9113                                  [AV_min  (mag)]
 0.0000                                  [YAV_min (mag)]

# j     x_j(%)      Mini_j(%)     Mcor_j(%)     age_j(yr)     Z_j      (L/M)_j    YAV?  Mstars   component_j        a/Fe...       SSP_chi2r SSP_adev(%)   SSP_AV   SSP_x(%)
  1      0.0000     0.0000E+00    0.0000E+00    1.000000E+06  0.00400  1.114E-02    0   1.0000   age020_m42            0.0000     3.6507E+02    15.8340   4.0000    74.4115
  2      1.4683     2.6708E-03    5.0685E-03    3.160000E+06  0.00400  4.073E-02    0   0.9999   age045_m42            0.0000     3.6975E+01     3.8491   3.3865    89.3650
  3      0.0000     0.0000E+00    0.0000E+00    5.010000E+06  0.00400  2.534E-02    0   0.9488   age055_m42            0.0000     8.6379E+01     5.4569   3.8411    80.9658
  4      6.0627     3.5339E-02    5.9439E-02    1.000000E+07  0.00400  1.271E-02    0   0.8862   age070_m42            0.0000     6.2581E+01     6.0383   3.0613    84.2736
  5      0.6180     9.0311E-03    1.4011E-02    2.512000E+07  0.00400  5.070E-03    0   0.8174   age090_m42            0.0000     5.9463E+01     5.7695   2.9238    86.2855
  6      0.0000     0.0000E+00    0.0000E+00    4.000000E+07  0.00400  3.505E-03    0   0.7851   age104_m42            0.0000     4.5875E+01     4.6781   2.5831    90.6875
  7     22.5757     7.3745E-01    1.0087E+00    1.015200E+08  0.00400  2.268E-03    0   0.7207   age116_m42            0.0000     3.3973E+02     4.7201   2.4479   106.4188
  8      0.0000     0.0000E+00    0.0000E+00    2.861200E+08  0.00400  1.079E-03    0   0.6613   age125_m42            0.0000     3.4411E+02     5.3459   1.9180   110.6353
  9      0.0000     0.0000E+00    0.0000E+00    6.405400E+08  0.00400  5.077E-04    0   0.6197   age132_m42            0.0000     3.5620E+02     5.7054   1.5324   116.1152
 10      0.0000     0.0000E+00    0.0000E+00    9.047900E+08  0.00400  3.535E-04    0   0.6024   age135_m42            0.0000     1.9798E+02     4.7427   1.3076   114.9509
 11      0.0000     0.0000E+00    0.0000E+00    1.434000E+09  0.00400  1.910E-04    0   0.5716   age139_m42            0.0000     4.8194E+01     3.6626   0.7861   114.5520
 12     38.9918     2.9423E+01    3.0507E+01    2.500000E+09  0.00400  9.818E-05    0   0.5463   age150_m42            0.0000     1.5005E+01     2.6935   0.5457   108.5738
 13     30.9191     4.8552E+01    4.8175E+01    5.000000E+09  0.00400  4.718E-05    0   0.5228   age161_m42            0.0000     5.6979E+01     2.5474   0.4051   104.0142
 14      2.4613     8.2698E+00    7.8164E+00    1.100000E+10  0.00400  2.205E-05    0   0.4980   age185_m42            0.0000     1.4635E+02     3.4417   0.1436   102.4657
 15      0.0000     0.0000E+00    0.0000E+00    1.300000E+10  0.00400  1.883E-05    0   0.4927   age193_m42            0.0000     1.6543E+02     3.5463   0.1287   102.2477
 16      0.0000     0.0000E+00    0.0000E+00    1.000000E+06  0.02000  1.989E-02    0   1.0000   age020_m62            0.0000     3.4944E+02    14.6708   4.0000    75.1505
 17      0.0000     0.0000E+00    0.0000E+00    3.160000E+06  0.02000  3.772E-02    0   0.9858   age045_m62            0.0000     2.3522E+02    10.6846   4.0000    76.7859
 18      0.0000     0.0000E+00    0.0000E+00    5.010000E+06  0.02000  3.227E-02    0   0.9342   age055_m62            0.0000     5.7568E+01     4.9807   3.6813    84.5910
 19      0.0000     0.0000E+00    0.0000E+00    1.000000E+07  0.02000  1.011E-02    0   0.8751   age070_m62            0.0000     1.6880E+02     9.5858   3.1332    78.4217
 20      0.0000     0.0000E+00    0.0000E+00    2.512000E+07  0.02000  4.206E-03    0   0.8099   age090_m62            0.0000     1.3858E+02     8.0295   3.0481    80.5086
 21      0.0000     0.0000E+00    0.0000E+00    4.000000E+07  0.02000  3.373E-03    0   0.7799   age104_m62            0.0000     6.7441E+01     4.7897   2.7886    92.3103
 22      0.0000     0.0000E+00    0.0000E+00    1.015200E+08  0.02000  1.878E-03    0   0.7221   age116_m62            0.0000     2.9728E+02     4.3318   2.5100   104.9450
 23      0.0000     0.0000E+00    0.0000E+00    2.861200E+08  0.02000  8.869E-04    0   0.6700   age125_m62            0.0000     6.1216E+02     6.7841   1.8869   118.0160
 24      0.0000     0.0000E+00    0.0000E+00    6.405400E+08  0.02000  3.657E-04    0   0.6322   age132_m62            0.0000     2.8871E+02     6.6986   1.1515   126.1799
 25      0.0000     0.0000E+00    0.0000E+00    9.047900E+08  0.02000  2.312E-04    0   0.6152   age135_m62            0.0000     1.0610E+02     5.4938   0.8034   124.4533
 26      0.0000     0.0000E+00    0.0000E+00    1.434000E+09  0.02000  1.168E-04    0   0.5865   age139_m62            0.0000     1.9512E+01     3.6963   0.4528   115.2737
 27      0.0000     0.0000E+00    0.0000E+00    2.500000E+09  0.02000  5.505E-05    0   0.5610   age150_m62            0.0000     8.8371E+01     4.1000   0.0979   112.0433
 28      0.0000     0.0000E+00    0.0000E+00    5.000000E+09  0.02000  2.596E-05    0   0.5353   age161_m62            0.0000     2.4406E+02     5.5123  -0.2535   113.9999
 29      0.0000     0.0000E+00    0.0000E+00    1.100000E+10  0.02000  1.169E-05    0   0.5103   age185_m62            0.0000     4.2938E+02     6.8845  -0.6417   117.6599
 30      0.0000     0.0000E+00    0.0000E+00    1.300000E+10  0.02000  9.691E-06    0   0.5047   age193_m62            0.0000     4.7019E+02     7.0716  -0.6900   118.1510
 31      0.0000     0.0000E+00    0.0000E+00    1.000000E+06  0.05000  2.651E-02    0   0.9998   age020_m72            0.0000     3.3908E+02    14.4938   4.0000    76.2061
 32      0.0000     0.0000E+00    0.0000E+00    3.160000E+06  0.05000  4.817E-02    0   0.9577   age045_m72            0.0000     1.2441E+02     6.6752   4.0000    79.7719
 33      0.0000     0.0000E+00    0.0000E+00    5.010000E+06  0.05000  3.101E-02    0   0.9147   age055_m72            0.0000     9.8836E+01     6.0532   3.7296    81.4890
 34      0.0000     0.0000E+00    0.0000E+00    1.000000E+07  0.05000  8.954E-03    0   0.8524   age070_m72            0.0000     1.3380E+02     6.3333   3.9653    80.4951
 35      0.0000     0.0000E+00    0.0000E+00    2.512000E+07  0.05000  4.207E-03    0   0.7902   age090_m72            0.0000     6.9286E+01     4.9921   3.4930    87.6957
 36      0.0000     0.0000E+00    0.0000E+00    4.000000E+07  0.05000  3.198E-03    0   0.7618   age104_m72            0.0000     1.6253E+02     3.9148   2.9083    99.3810
 37      0.0000     0.0000E+00    0.0000E+00    1.015200E+08  0.05000  1.716E-03    0   0.7092   age116_m72            0.0000     3.5741E+02     4.7352   2.5780   105.9902
 38      0.0000     0.0000E+00    0.0000E+00    2.861200E+08  0.05000  7.047E-04    0   0.6618   age125_m72            0.0000     5.5732E+02     6.8729   1.6540   120.5233
 39      0.0000     0.0000E+00    0.0000E+00    6.405400E+08  0.05000  2.633E-04    0   0.6253   age132_m72            0.0000     1.6681E+02     6.1294   0.7678   126.7202
 40      0.0000     0.0000E+00    0.0000E+00    9.047900E+08  0.05000  1.484E-04    0   0.6088   age135_m72            0.0000     3.0922E+01     4.9763   0.3320   119.5616
 41      0.0000     0.0000E+00    0.0000E+00    1.434000E+09  0.05000  7.827E-05    0   0.5847   age139_m72            0.0000     1.0829E+02     5.3658  -0.0315   115.2687
 42      0.0000     0.0000E+00    0.0000E+00    2.500000E+09  0.05000  3.759E-05    0   0.5583   age150_m72            0.0000     2.5415E+02     6.0190  -0.3432   114.4496
 43      0.1133     5.4244E-01    5.4771E-01    5.000000E+09  0.05000  1.548E-05    0   0.5320   age161_m72            0.0000     4.0596E+02     7.2447  -0.7764   115.7495
 44      0.2611     2.9611E+00    2.8494E+00    1.100000E+10  0.05000  6.532E-06    0   0.5070   age185_m72            0.0000     5.6042E+02    11.1751  -1.0000   116.3493
 45      0.6794     9.4677E+00    9.0170E+00    1.300000E+10  0.05000  5.316E-06    0   0.5018   age193_m72            0.0000     6.7348E+02    14.3834  -1.0000   115.4357


## Synthesis Results - Average & Chains ##

# j      x_j: min, <> & last-chain-values for 1 ...  7 chains
  1      0.0000      0.0060      0.0000      0.0000      0.0080      0.0000      0.0060      0.0000      0.0000
  2      1.4683      0.8526      0.7928      0.8663      0.9581      0.9066      0.9290      0.8882      1.0312
  3      0.0000      0.0455      0.1162      0.0000      0.0000      0.0000      0.0000      0.0000      0.0309
  4      6.0627      4.8978      4.9872      5.0304      5.0309      5.2821      4.9290      5.0668      5.0603
  5      0.6180      0.7957      0.8708      0.9026      0.8333      0.7988      1.3788      0.6798      0.8732
  6      0.0000      0.0386      0.0000      0.0961      0.0000      0.0000      0.0000      0.0000      0.0000
  7     22.5757     21.7071     22.3317     22.0377     22.1741     22.0528     21.9126     22.3889     21.8264
  8      0.0000      0.0460      0.0000      0.0000      0.0000      0.0000      0.0000      0.0000      0.0000
  9      0.0000      0.1950      0.0000      0.0000      0.0287      0.0000      0.0000      0.1876      0.2419
 10      0.0000      0.3777      0.4349      0.4026      0.5611      0.5190      0.6459      0.2459      0.5643
 11      0.0000      0.1598      0.0000      0.0875      0.0000      0.0009      0.0000      0.0000      0.0000
 12     38.9918     41.3715     41.7010     41.1977     41.5227     40.9558     41.3683     40.9593     41.2075
 13     30.9191     29.1879     28.8997     29.4884     29.1386     30.0228     29.3941     30.0496     29.7670
 14      2.4613      0.2021      0.2369      0.0890      0.4230      0.1145      0.1158      0.5080      0.0000
 15      0.0000      0.3799      0.5825      0.8565      0.4249      0.6979      0.2908      0.2566      0.1596
 16      0.0000      0.0035      0.0000      0.0000      0.0000      0.0000      0.0000      0.0000      0.0000
 17      0.0000      0.0071      0.0000      0.0000      0.0000      0.0000      0.0000      0.0030      0.0032
 18      0.0000      0.4767      0.4560      0.4114      0.4556      0.0000      0.0000      0.4467      0.4992
 19      0.0000      0.4167      0.5252      0.3884      0.2606      0.4864      0.4730      0.4586      0.3633
 20      0.0000      0.0061      0.0000      0.0000      0.0000      0.0000      0.0000      0.0000      0.0000
 21      0.0000      0.0319      0.0000      0.0000      0.0113      0.0000      0.0000      0.0000      0.0000
 22      0.0000      0.0923      0.0000      0.0044      0.0000      0.0000      0.1259      0.0000      0.0000
 23      0.0000      0.0327      0.0000      0.0000      0.0000      0.0000      0.0000      0.0000      0.0000
 24      0.0000      0.0134      0.0000      0.0000      0.0000      0.0000      0.0000      0.0000      0.0000
 25      0.0000      0.0358      0.0000      0.0000      0.0000      0.0000      0.0000      0.0000      0.0000
 26      0.0000      0.0562      0.0000      0.0000      0.0000      0.1564      0.0000      0.0205      0.0000
 27      0.0000      0.1114      0.1767      0.0882      0.0986      0.1030      0.1695      0.0000      0.0780
 28      0.0000      0.0706      0.0522      0.0000      0.0000      0.0000      0.3643      0.0000      0.0183
 29      0.0000      0.2173      0.0709      0.0175      0.0000      0.0000      0.0000      0.0360      0.3169
 30      0.0000      0.1998      0.1024      0.0000      0.2412      0.0000      0.0464      0.1216      0.2869
 31      0.0000      0.0032      0.0000      0.0000      0.0000      0.0000      0.0000      0.0000      0.0000
 32      0.0000      0.0085      0.0000      0.0000      0.0000      0.0000      0.0000      0.0000      0.0000
 33      0.0000      0.0303      0.0000      0.0000      0.0434      0.0000      0.1780      0.0000      0.0000
 34      0.0000      0.0069      0.0000      0.0000      0.0023      0.0000      0.0000      0.0000      0.0000
 35      0.0000      0.0141      0.0000      0.0000      0.0000      0.0000      0.0148      0.0000      0.0000
 36      0.0000      0.0360      0.0000      0.0000      0.1446      0.0097      0.0000      0.0000      0.0000
 37      0.0000      0.1994      0.0142      0.2575      0.0367      0.2425      0.1135      0.0753      0.1436
 38      0.0000      0.0248      0.0000      0.0000      0.0000      0.0000      0.0000      0.0000      0.0000
 39      0.0000      0.0532      0.0000      0.0000      0.0147      0.0000      0.0000      0.0000      0.0350
 40      0.0000      0.0848      0.0000      0.0000      0.0000      0.0734      0.0000      0.0000      0.1949
 41      0.0000      0.0624      0.0000      0.0145      0.0979      0.0000      0.0394      0.0000      0.0000
 42      0.0000      0.0370      0.0000      0.1447      0.0000      0.0643      0.0000      0.0000      0.0000
 43      0.1133      0.6263      0.5812      0.6455      0.5835      0.6314      0.5819      0.6572      0.5360
 44      0.2611      0.6071      0.7029      0.6296      0.6122      0.6670      0.6117      0.6374      0.4400
 45      0.6794      0.7584      0.8145      0.8212      0.8415      0.7495      0.7810      0.8109      0.8555

# j      m_j: min, <> & last-chain-values for 1 ...  7 chains
  1  0.0000E+00  7.3051E-05  0.0000E+00  0.0000E+00  9.6332E-05  0.0000E+00  7.4323E-05  0.0000E+00  0.0000E+00
  2  5.0685E-03  2.8218E-03  2.6161E-03  2.8678E-03  3.1591E-03  3.0187E-03  3.1324E-03  2.9306E-03  3.4384E-03
  3  0.0000E+00  2.2953E-04  5.8496E-04  0.0000E+00  0.0000E+00  0.0000E+00  0.0000E+00  0.0000E+00  1.5712E-04
  4  5.9439E-02  4.6038E-02  4.6738E-02  4.7299E-02  4.7112E-02  4.9952E-02  4.7204E-02  4.7483E-02  4.7919E-02
  5  1.4011E-02  1.7294E-02  1.8871E-02  1.9624E-02  1.8043E-02  1.7467E-02  3.0532E-02  1.4731E-02  1.9121E-02
  6  0.0000E+00  1.1650E-03  0.0000E+00  2.9029E-03  0.0000E+00  0.0000E+00  0.0000E+00  0.0000E+00  0.0000E+00
  7  1.0087E+00  9.2992E-01  9.5382E-01  9.4436E-01  9.4636E-01  9.5047E-01  9.5639E-01  9.5622E-01  9.4199E-01
  8  0.0000E+00  3.8038E-03  0.0000E+00  0.0000E+00  0.0000E+00  0.0000E+00  0.0000E+00  0.0000E+00  0.0000E+00
  9  0.0000E+00  3.2089E-02  0.0000E+00  0.0000E+00  4.6990E-03  0.0000E+00  0.0000E+00  3.0776E-02  4.0094E-02
 10  0.0000E+00  8.6770E-02  9.9619E-02  9.2527E-02  1.2841E-01  1.1995E-01  1.5118E-01  5.6309E-02  1.3061E-01
 11  0.0000E+00  6.4489E-02  0.0000E+00  3.5331E-02  0.0000E+00  3.5860E-04  0.0000E+00  0.0000E+00  0.0000E+00
 12  3.0507E+01  3.1034E+01  3.1188E+01  3.0913E+01  3.1031E+01  3.0909E+01  3.1616E+01  3.0632E+01  3.1141E+01
 13  4.8175E+01  4.3602E+01  4.3043E+01  4.4065E+01  4.3366E+01  4.5122E+01  4.4737E+01  4.4754E+01  4.4799E+01
 14  7.8164E+00  6.1549E-01  7.1915E-01  2.7103E-01  1.2830E+00  3.5074E-01  3.5936E-01  1.5421E+00  0.0000E+00
 15  0.0000E+00  1.3401E+00  2.0487E+00  3.0222E+00  1.4931E+00  2.4767E+00  1.0451E+00  9.0245E-01  5.6725E-01
 16  0.0000E+00  2.3530E-05  0.0000E+00  0.0000E+00  0.0000E+00  0.0000E+00  0.0000E+00  0.0000E+00  0.0000E+00
 17  0.0000E+00  2.4940E-05  0.0000E+00  0.0000E+00  0.0000E+00  0.0000E+00  0.0000E+00  1.0384E-05  1.1445E-05
 18  0.0000E+00  1.8604E-03  1.7745E-03  1.6059E-03  1.7715E-03  0.0000E+00  0.0000E+00  1.7382E-03  1.9627E-03
 19  0.0000E+00  4.8623E-03  6.1098E-03  4.5337E-03  3.0291E-03  5.7108E-03  5.6236E-03  5.3348E-03  4.2706E-03
 20  0.0000E+00  1.5957E-04  0.0000E+00  0.0000E+00  0.0000E+00  0.0000E+00  0.0000E+00  0.0000E+00  0.0000E+00
 21  0.0000E+00  9.9542E-04  0.0000E+00  0.0000E+00  3.5070E-04  0.0000E+00  0.0000E+00  0.0000E+00  0.0000E+00
 22  0.0000E+00  4.7844E-03  0.0000E+00  2.2742E-04  0.0000E+00  0.0000E+00  6.6476E-03  0.0000E+00  0.0000E+00
 23  0.0000E+00  3.3326E-03  0.0000E+00  0.0000E+00  0.0000E+00  0.0000E+00  0.0000E+00  0.0000E+00  0.0000E+00
 24  0.0000E+00  3.1234E-03  0.0000E+00  0.0000E+00  0.0000E+00  0.0000E+00  0.0000E+00  0.0000E+00  0.0000E+00
 25  0.0000E+00  1.2829E-02  0.0000E+00  0.0000E+00  0.0000E+00  0.0000E+00  0.0000E+00  0.0000E+00  0.0000E+00
 26  0.0000E+00  3.8042E-02  0.0000E+00  0.0000E+00  0.0000E+00  1.0654E-01  0.0000E+00  1.3867E-02  0.0000E+00
 27  0.0000E+00  1.5298E-01  2.4199E-01  1.2120E-01  1.3496E-01  1.4238E-01  2.3728E-01  0.0000E+00  1.0794E-01
 28  0.0000E+00  1.9637E-01  1.4462E-01  0.0000E+00  0.0000E+00  0.0000E+00  1.0316E+00  0.0000E+00  5.1283E-02
 29  0.0000E+00  1.2791E+00  4.1575E-01  1.0282E-01  0.0000E+00  0.0000E+00  0.0000E+00  2.1139E-01  1.8788E+00
 30  0.0000E+00  1.4029E+00  7.1703E-01  0.0000E+00  1.6873E+00  0.0000E+00  3.3209E-01  8.5143E-01  2.0296E+00
 31  0.0000E+00  1.6068E-05  0.0000E+00  0.0000E+00  0.0000E+00  0.0000E+00  0.0000E+00  0.0000E+00  0.0000E+00
 32  0.0000E+00  2.2892E-05  0.0000E+00  0.0000E+00  0.0000E+00  0.0000E+00  0.0000E+00  0.0000E+00  0.0000E+00
 33  0.0000E+00  1.2057E-04  0.0000E+00  0.0000E+00  1.7177E-04  0.0000E+00  7.2135E-04  0.0000E+00  0.0000E+00
