###################################################################
## OUTPUT of StarlightChains_v04.for    [Cid@UFSC - 01/Apr/2007] ##
###################################################################

## Some input info
NGC6528_b_2.cxt                          [arq_obs]
Base.BC03.N                              [arq_base]
NGC6528_b_2.msk                          [arq_masks]
StCv04.C99.config                        [arq_config]
   45                                    [N_base]
    0                                    [N_YAV_components = # of components with extra extinction!]
    0                                    [i_FitPowerLaw (1/0 = Yes/No)]
-9.99                                    [alpha_PowerLaw]
CCM                                      [red_law_option]
 1.458241                                [q_norm = A(l_norm)/A(V)]

## (Re)Sampling Parameters
 3359.00                                 [l_ini (A)]
 6428.00                                 [l_fin (A)]
    1.00                                 [dl    (A)]     (OBS: dl_cushion =    50.00 A)

## Normalization info
 4020.00                                 [l_norm (A) - for base]
 4010.00                                 [llow_norm (A) - window for f_obs]
 4060.00                                 [lupp_norm (A) - window for f_obs]
4.330667E-15                             [fobs_norm (in input units)]

## S/N
 4730.00                                 [llow_SN (A) - window for S/N]
 4780.00                                 [lupp_SN (A) - window for S/N]
  27.791                                 [S/N in S/N window]
  14.946                                 [S/N in norm. window]
 304.113                                 [S/N_err in S/N window]
 163.548                                 [S/N_err in norm. window]
  1.0000                                 [fscale_chi2]

## etc...
  2147483603                             [idum_orig]
  3069                                   [NOl_eff]
   894                                   [Nl_eff]
  2175    NSIGMA                         [Ntot_cliped & clip_method]
  2362080                                [Nglobal_steps]
   7                                     [N_chains]
  13                                     [NEX0s_base = N_base in EX0s-fits]
 0   0   1      139   2.0   3.771E+02    [Clip-Bug, RC-Crash & Burn-In warning-flags, n_censored_weights, wei_nsig_threshold & wei_limit]
    28     27.705     27.697      0.008  [idt_all, wdt_TotTime, wdt_UsrTime & wdt_SysTime (sec)]

## Synthesis Results - Best model ##

 3.19438E+00                             [chi2/Nl_eff]
     2.47548                             [adev (%)]

    96.87970                             [sum-of-x (%)]
 3.56650E-14                             [Flux_tot (units of input spectrum!)]
 2.38201E-09                             [Mini_tot (???)]
 1.20685E-09                             [Mcor_tot (???)]

  -7.23                                  [v0_min  (km/s)]
  64.42                                  [vd_min  (km/s)]
 1.5935                                  [AV_min  (mag)]
 0.0000                                  [YAV_min (mag)]

# j     x_j(%)      Mini_j(%)     Mcor_j(%)     age_j(yr)     Z_j      (L/M)_j    YAV?  Mstars   component_j        a/Fe...       SSP_chi2r SSP_adev(%)   SSP_AV   SSP_x(%)
  1      1.2105     1.6793E-03    3.3146E-03    1.000000E+06  0.00400  1.114E-02    0   1.0000   age020_m42            0.0000     4.1670E+03    46.4574   4.0000    99.2778
  2      6.7023     2.5432E-03    5.0191E-03    3.160000E+06  0.00400  4.073E-02    0   0.9999   age045_m42            0.0000     1.0345E+03    23.1065   4.0000   106.3113
  3      2.2374     1.3646E-03    2.5555E-03    5.010000E+06  0.00400  2.534E-02    0   0.9488   age055_m42            0.0000     2.0849E+03    33.5867   4.0000   104.6994
  4      6.6956     8.1416E-03    1.4241E-02    1.000000E+07  0.00400  1.271E-02    0   0.8862   age070_m42            0.0000     7.4892E+02    17.3708   4.0000    99.6453
  5      1.9541     5.9567E-03    9.6102E-03    2.512000E+07  0.00400  5.070E-03    0   0.8174   age090_m42            0.0000     5.7065E+02    15.1553   4.0000    99.1186
  6      0.0000     0.0000E+00    0.0000E+00    4.000000E+07  0.00400  3.505E-03    0   0.7851   age104_m42            0.0000     3.1791E+02    11.8368   4.0000    95.9015
  7      0.0000     0.0000E+00    0.0000E+00    1.015200E+08  0.00400  2.268E-03    0   0.7207   age116_m42            0.0000     5.8682E+02    11.7605   3.9438   102.9830
  8      0.0000     0.0000E+00    0.0000E+00    2.861200E+08  0.00400  1.079E-03    0   0.6613   age125_m42            0.0000     6.1817E+02    11.7714   3.4391   104.8004
  9      0.0000     0.0000E+00    0.0000E+00    6.405400E+08  0.00400  5.077E-04    0   0.6197   age132_m42            0.0000     6.2533E+02    12.0112   3.0700   108.9821
 10      0.0000     0.0000E+00    0.0000E+00    9.047900E+08  0.00400  3.535E-04    0   0.6024   age135_m42            0.0000     4.6274E+02    10.3482   2.8434   107.8705
 11      0.0000     0.0000E+00    0.0000E+00    1.434000E+09  0.00400  1.910E-04    0   0.5716   age139_m42            0.0000     2.4380E+02     8.0528   2.3200   105.5369
 12      0.0000     0.0000E+00    0.0000E+00    2.500000E+09  0.00400  9.818E-05    0   0.5463   age150_m42            0.0000     9.7582E+01     5.5339   2.0540   100.4625
 13      0.0000     0.0000E+00    0.0000E+00    5.000000E+09  0.00400  4.718E-05    0   0.5228   age161_m42            0.0000     4.7024E+01     4.1605   1.9075    96.9621
 14     13.0421     9.1413E+00    8.9852E+00    1.100000E+10  0.00400  2.205E-05    0   0.4980   age185_m42            0.0000     3.0003E+01     4.2186   1.6325    94.4960
 15      2.5430     2.0872E+00    2.0297E+00    1.300000E+10  0.00400  1.883E-05    0   0.4927   age193_m42            0.0000     2.9674E+01     4.2597   1.6173    94.3061
 16      0.0000     0.0000E+00    0.0000E+00    1.000000E+06  0.02000  1.989E-02    0   1.0000   age020_m62            0.0000     4.0536E+03    45.5628   4.0000    99.9924
 17      0.0000     0.0000E+00    0.0000E+00    3.160000E+06  0.02000  3.772E-02    0   0.9858   age045_m62            0.0000     3.5127E+03    42.8339   4.0000   102.1025
 18      2.1099     1.0105E-03    1.8632E-03    5.010000E+06  0.02000  3.227E-02    0   0.9342   age055_m62            0.0000     1.6084E+03    29.7653   4.0000   106.4864
 19      0.0000     0.0000E+00    0.0000E+00    1.000000E+07  0.02000  1.011E-02    0   0.8751   age070_m62            0.0000     1.1176E+03    20.9280   4.0000    98.0961
 20      0.0000     0.0000E+00    0.0000E+00    2.512000E+07  0.02000  4.206E-03    0   0.8099   age090_m62            0.0000     8.3127E+02    18.4138   4.0000    97.0067
 21      0.0000     0.0000E+00    0.0000E+00    4.000000E+07  0.02000  3.373E-03    0   0.7799   age104_m62            0.0000     4.5419E+02    12.5505   4.0000   101.0532
 22      0.0000     0.0000E+00    0.0000E+00    1.015200E+08  0.02000  1.878E-03    0   0.7221   age116_m62            0.0000     5.6584E+02    11.3700   4.0000   103.5134
 23      0.0000     0.0000E+00    0.0000E+00    2.861200E+08  0.02000  8.869E-04    0   0.6700   age125_m62            0.0000     8.4899E+02    14.1078   3.4190   109.9775
 24      0.0000     0.0000E+00    0.0000E+00    6.405400E+08  0.02000  3.657E-04    0   0.6322   age132_m62            0.0000     5.7966E+02    12.4786   2.7082   112.2001
 25      0.0000     0.0000E+00    0.0000E+00    9.047900E+08  0.02000  2.312E-04    0   0.6152   age135_m62            0.0000     3.5571E+02    10.2765   2.3474   110.5755
 26      0.0000     0.0000E+00    0.0000E+00    1.434000E+09  0.02000  1.168E-04    0   0.5865   age139_m62            0.0000     1.2532E+02     6.8078   1.9586   104.2598
 27      0.0000     0.0000E+00    0.0000E+00    2.500000E+09  0.02000  5.505E-05    0   0.5610   age150_m62            0.0000     4.9910E+01     5.9128   1.5744   101.0872
 28      0.0000     0.0000E+00    0.0000E+00    5.000000E+09  0.02000  2.596E-05    0   0.5353   age161_m62            0.0000     5.1167E+01     7.4697   1.2136   100.5309
 29     34.1155     4.5103E+01    4.5428E+01    1.100000E+10  0.02000  1.169E-05    0   0.5103   age185_m62            0.0000     1.0170E+02     9.8407   0.8158   101.5803
 30     23.2754     3.7119E+01    3.6976E+01    1.300000E+10  0.02000  9.691E-06    0   0.5047   age193_m62            0.0000     1.1549E+02    10.2394   0.7678   101.7220
 31      0.0000     0.0000E+00    0.0000E+00    1.000000E+06  0.05000  2.651E-02    0   0.9998   age020_m72            0.0000     3.9295E+03    45.1951   4.0000   101.1413
 32      0.0000     0.0000E+00    0.0000E+00    3.160000E+06  0.05000  4.817E-02    0   0.9577   age045_m72            0.0000     2.7425E+03    38.7877   4.0000   105.2220
 33      0.0000     0.0000E+00    0.0000E+00    5.010000E+06  0.05000  3.101E-02    0   0.9147   age055_m72            0.0000     1.8626E+03    31.3901   4.0000   105.1933
 34      0.0000     0.0000E+00    0.0000E+00    1.000000E+07  0.05000  8.954E-03    0   0.8524   age070_m72            0.0000     2.3674E+03    35.9345   4.0000   105.7343
 35      0.0000     0.0000E+00    0.0000E+00    2.512000E+07  0.05000  4.207E-03    0   0.7902   age090_m72            0.0000     1.1660E+03    25.2250   4.0000   106.9565
 36      0.0000     0.0000E+00    0.0000E+00    4.000000E+07  0.05000  3.198E-03    0   0.7618   age104_m72            0.0000     5.5359E+02    13.4145   4.0000   106.4790
 37      0.0000     0.0000E+00    0.0000E+00    1.015200E+08  0.05000  1.716E-03    0   0.7092   age116_m72            0.0000     6.3832E+02    12.0021   4.0000   105.2304
 38      0.0000     0.0000E+00    0.0000E+00    2.861200E+08  0.05000  7.047E-04    0   0.6618   age125_m72            0.0000     7.8716E+02    14.1327   3.1906   110.0972
 39      0.0000     0.0000E+00    0.0000E+00    6.405400E+08  0.05000  2.633E-04    0   0.6253   age132_m72            0.0000     4.2906E+02    11.3826   2.3378   110.7940
 40      0.0000     0.0000E+00    0.0000E+00    9.047900E+08  0.05000  1.484E-04    0   0.6088   age135_m72            0.0000     1.7572E+02     8.5589   1.8663   104.9896
 41      0.0000     0.0000E+00    0.0000E+00    1.434000E+09  0.05000  7.827E-05    0   0.5847   age139_m72            0.0000     7.5524E+01     7.5764   1.4544   101.2895
 42      0.0000     0.0000E+00    0.0000E+00    2.500000E+09  0.05000  3.759E-05    0   0.5583   age150_m72            0.0000     6.2967E+01     8.1648   1.1187   100.2783
 43      0.7476     7.4639E-01    7.8373E-01    5.000000E+09  0.05000  1.548E-05    0   0.5320   age161_m72            0.0000     1.2095E+02     9.9255   0.7238    99.0837
 44      1.3813     3.2683E+00    3.2705E+00    1.100000E+10  0.05000  6.532E-06    0   0.5070   age185_m72            0.0000     2.4312E+02    12.9726   0.2899    98.6436
 45      0.8650     2.5146E+00    2.4906E+00    1.300000E+10  0.05000  5.316E-06    0   0.5018   age193_m72            0.0000     3.0181E+02    14.1933   0.1470    98.7014


## Synthesis Results - Average & Chains ##

# j      x_j: min, <> & last-chain-values for 1 ...  7 chains
  1      1.2105      1.7261      1.7273      1.7839      1.6237      1.6619      1.6868      1.6405      1.7988
  2      6.7023      4.7450      4.8388      4.8218      4.8087      4.7770      4.7783      5.1365      4.9645
  3      2.2374      2.2147      2.3972      2.2343      2.2841      2.4479      2.2072      2.3692      2.1911
  4      6.6956      6.4122      6.6862      6.4211      6.5338      6.5582      6.4317      6.6525      6.7204
  5      1.9541      1.7222      1.6446      1.7084      1.7160      1.6526      2.0647      1.7820      1.7883
  6      0.0000      0.0427      0.0000      0.0000      0.0000      0.0000      0.0456      0.0738      0.0000
  7      0.0000      0.0754      0.1902      0.0159      0.1307      0.3199      0.0000      0.0000      0.0000
  8      0.0000      0.0593      0.0000      0.0391      0.0000      0.2626      0.0116      0.0000      0.0000
  9      0.0000      0.1346      0.0000      0.1737      0.2957      0.0000      0.2962      0.2084      0.1447
 10      0.0000      0.1698      0.5081      0.2628      0.4535      0.2823      0.1497      0.0743      0.2549
 11      0.0000      0.0813      0.0000      0.1215      0.0000      0.0000      0.0280      0.1051      0.2525
 12      0.0000      0.1261      0.2326      0.0000      0.1043      0.1448      0.0000      0.0337      0.0000
 13      0.0000      0.2966      0.0203      0.4920      0.2197      0.2200      0.0896      0.1315      0.1705
 14     13.0421     12.6093     12.3800     12.5810     12.2811     11.9309     12.8456     12.0123     12.6261
 15      2.5430      1.6434      1.8161      1.7347      2.2428      2.1081      2.0651      2.2067      1.4514
 16      0.0000      0.0817      0.0000      0.0669      0.0616      0.0000      0.0781      0.0000      0.0122
 17      0.0000      0.0337      0.0027      0.1020      0.0000      0.0318      0.0000      0.0000      0.0000
 18      2.1099      2.6289      2.5890      2.7745      2.6831      2.7075      2.6489      2.7224      2.6856
 19      0.0000      0.2017      0.2241      0.1855      0.4155      0.2607      0.2662      0.0000      0.0444
 20      0.0000      0.0211      0.0000      0.0000      0.0161      0.0000      0.0000      0.0480      0.0534
 21      0.0000      0.0437      0.0000      0.0000      0.0000      0.0000      0.0000      0.0000      0.0000
 22      0.0000      0.0602      0.0701      0.0026      0.0000      0.0000      0.1047      0.0000      0.0000
 23      0.0000      0.0402      0.0000      0.1360      0.0000      0.0456      0.1521      0.0966      0.0000
 24      0.0000      0.0536      0.0000      0.0000      0.0000      0.0000      0.0000      0.0000      0.0000
 25      0.0000      0.0430      0.0000      0.0000      0.0019      0.0000      0.0000      0.0000      0.0000
 26      0.0000      0.0892      0.0000      0.1349      0.0878      0.1761      0.0000      0.3273      0.1302
 27      0.0000      0.0793      0.0216      0.0000      0.0000      0.0142      0.0394      0.0000      0.0000
 28      0.0000      0.1045      0.0000      0.0054      0.0000      0.0000      0.0000      0.0000      0.0359
 29     34.1155     35.6014     35.8334     35.1711     35.5735     35.5192     35.1277     34.9462     35.7289
 30     23.2754     23.0035     23.2106     22.7321     22.9794     23.2436     23.3362     23.3413     23.2838
 31      0.0000      0.0169      0.0389      0.0000      0.0000      0.0000      0.0000      0.0000      0.0000
 32      0.0000      0.0144      0.0000      0.0000      0.0000      0.0000      0.0000      0.0000      0.0000
 33      0.0000      0.0242      0.0000      0.0000      0.0000      0.0000      0.0226      0.0000      0.0000
 34      0.0000      0.0299      0.0000      0.0000      0.0000      0.0000      0.0000      0.0000      0.0000
 35      0.0000      0.0356      0.0000      0.0000      0.0000      0.0031      0.0000      0.0000      0.0000
 36      0.0000      0.0261      0.0000      0.0000      0.0000      0.0432      0.0000      0.0000      0.0000
 37      0.0000      0.0322      0.0000      0.0000      0.0000      0.0000      0.0000      0.0000      0.3686
 38      0.0000      0.0314      0.1703      0.0000      0.0000      0.0000      0.0000      0.0000      0.0000
 39      0.0000      0.0586      0.0000      0.0000      0.0000      0.0359      0.0000      0.2340      0.0000
 40      0.0000      0.1092      0.0000      0.3155      0.0000      0.0000      0.0000      0.0224      0.0000
 41      0.0000      0.0548      0.0000      0.0000      0.0000      0.0000      0.0000      0.0286      0.0000
 42      0.0000      0.0340      0.0000      0.0938      0.0065      0.0000      0.0072      0.0000      0.0000
 43      0.7476      0.8590      0.7071      0.8403      0.8921      0.6777      0.4168      0.7686      0.6784
 44      1.3813      0.9130      0.9543      1.0644      0.9974      1.2004      1.1440      0.8853      0.9130
 45      0.8650      0.6367      0.7451      0.9547      0.5616      0.6971      0.8658      1.1547      0.7111

# j      m_j: min, <> & last-chain-values for 1 ...  7 chains
  1  3.3146E-03  4.7653E-03  4.7375E-03  4.9096E-03  4.4810E-03  4.5563E-03  4.6145E-03  4.4891E-03  4.9491E-03
  2  5.0191E-03  3.5825E-03  3.6295E-03  3.6293E-03  3.6293E-03  3.5817E-03  3.5749E-03  3.8440E-03  3.7354E-03
  3  2.5555E-03  2.5503E-03  2.7425E-03  2.5650E-03  2.6293E-03  2.7993E-03  2.5186E-03  2.7043E-03  2.5145E-03
  4  1.4241E-02  1.3750E-02  1.4244E-02  1.3727E-02  1.4006E-02  1.3966E-02  1.3666E-02  1.4140E-02  1.4361E-02
  5  9.6102E-03  8.5394E-03  8.1011E-03  8.4449E-03  8.5057E-03  8.1376E-03  1.0145E-02  8.7580E-03  8.8366E-03
  6  0.0000E+00  2.9444E-04  0.0000E+00  0.0000E+00  0.0000E+00  0.0000E+00  3.1142E-04  5.0366E-04  0.0000E+00
  7  0.0000E+00  7.3733E-04  1.8470E-03  1.5471E-04  1.2770E-03  3.1044E-03  0.0000E+00  0.0000E+00  0.0000E+00
  8  0.0000E+00  1.1184E-03  0.0000E+00  7.3565E-04  0.0000E+00  4.9149E-03  2.1669E-04  0.0000E+00  0.0000E+00
  9  0.0000E+00  5.0531E-03  0.0000E+00  6.4992E-03  1.1098E-02  0.0000E+00  1.1018E-02  7.7529E-03  5.4144E-03
 10  0.0000E+00  8.8965E-03  2.6454E-02  1.3729E-02  2.3759E-02  1.4692E-02  7.7737E-03  3.8583E-03  1.3313E-02
 11  0.0000E+00  7.4803E-03  0.0000E+00  1.1145E-02  0.0000E+00  0.0000E+00  2.5552E-03  9.5863E-03  2.3157E-02
 12  0.0000E+00  2.1583E-02  3.9548E-02  0.0000E+00  1.7837E-02  2.4605E-02  0.0000E+00  5.7088E-03  0.0000E+00
 13  0.0000E+00  1.0106E-01  6.8621E-03  1.6715E-01  7.4830E-02  7.4445E-02  3.0252E-02  4.4408E-02  5.7909E-02
 14  8.9852E+00  8.7584E+00  8.5430E+00  8.7118E+00  8.5274E+00  8.2297E+00  8.8414E+00  8.2703E+00  8.7399E+00
 15  2.0297E+00  1.3225E+00  1.4519E+00  1.3916E+00  1.8042E+00  1.6847E+00  1.6467E+00  1.7601E+00  1.1640E+00
 16  0.0000E+00  1.2628E-04  0.0000E+00  1.0319E-04  9.5273E-05  0.0000E+00  1.1971E-04  0.0000E+00  1.8801E-05
 17  0.0000E+00  2.7079E-05  2.1604E-06  8.1725E-05  0.0000E+00  2.5362E-05  0.0000E+00  0.0000E+00  0.0000E+00
 18  1.8632E-03  2.3406E-03  2.2901E-03  2.4626E-03  2.3880E-03  2.3939E-03  2.3370E-03  2.4025E-03  2.3829E-03
 19  0.0000E+00  5.3683E-04  5.9259E-04  4.9237E-04  1.1056E-03  6.8909E-04  7.0228E-04  0.0000E+00  1.1779E-04
 20  0.0000E+00  1.2517E-04  0.0000E+00  0.0000E+00  9.5599E-05  0.0000E+00  0.0000E+00  2.8195E-04  3.1513E-04
 21  0.0000E+00  3.1086E-04  0.0000E+00  0.0000E+00  0.0000E+00  0.0000E+00  0.0000E+00  0.0000E+00  0.0000E+00
 22  0.0000E+00  7.1139E-04  8.2315E-04  3.1165E-05  0.0000E+00  0.0000E+00  1.2271E-03  0.0000E+00  0.0000E+00
 23  0.0000E+00  9.3309E-04  0.0000E+00  3.1498E-03  0.0000E+00  1.0529E-03  3.5019E-03  2.2251E-03  0.0000E+00
 24  0.0000E+00  2.8481E-03  0.0000E+00  0.0000E+00  0.0000E+00  0.0000E+00  0.0000E+00  0.0000E+00  0.0000E+00
 25  0.0000E+00  3.5180E-03  0.0000E+00  0.0000E+00  1.5340E-04  0.0000E+00  0.0000E+00  0.0000E+00  0.0000E+00
 26  0.0000E+00  1.3770E-02  0.0000E+00  2.0764E-02  1.3556E-02  2.7004E-02  0.0000E+00  5.0097E-02  2.0032E-02
 27  0.0000E+00  2.4863E-02  6.7234E-03  0.0000E+00  0.0000E+00  4.4252E-03  1.2228E-02  0.0000E+00  0.0000E+00
 28  0.0000E+00  6.6253E-02  0.0000E+00  3.4056E-03  0.0000E+00  0.0000E+00  0.0000E+00  0.0000E+00  2.2661E-02
 29  4.5428E+01  4.7796E+01  4.7793E+01  4.7072E+01  4.7741E+01  4.7355E+01  4.6731E+01  4.6503E+01  4.7802E+01
 30  3.6976E+01  3.6844E+01  3.6933E+01  3.6297E+01  3.6792E+01  3.6971E+01  3.7037E+01  3.7056E+01  3.7165E+01
 31  0.0000E+00  1.9616E-05  4.4790E-05  0.0000E+00  0.0000E+00  0.0000E+00  0.0000E+00  0.0000E+00  0.0000E+00
 32  0.0000E+00  8.7751E-06  0.0000E+00  0.0000E+00  0.0000E+00  0.0000E+00  0.0000E+00  0.0000E+00  0.0000E+00
 33  0.0000E+00  2.1923E-05  0.0000E+00  0.0000E+00  0.0000E+00  0.0000E+00  2.0356E-05  0.0000E+00  0.0000E+00
