###################################################################
## OUTPUT of StarlightChains_v04.for    [Cid@UFSC - 01/Apr/2007] ##
###################################################################

## Some input info
NGC6316_a_1.cxt                          [arq_obs]
Base.BC03.N                              [arq_base]
NGC6316_a_1.msk                          [arq_masks]
StCv04.C99.config                        [arq_config]
   45                                    [N_base]
    0                                    [N_YAV_components = # of components with extra extinction!]
    0                                    [i_FitPowerLaw (1/0 = Yes/No)]
-9.99                                    [alpha_PowerLaw]
CCM                                      [red_law_option]
 1.458241                                [q_norm = A(l_norm)/A(V)]

## (Re)Sampling Parameters
 3359.00                                 [l_ini (A)]
 6428.00                                 [l_fin (A)]
    1.00                                 [dl    (A)]     (OBS: dl_cushion =    50.00 A)

## Normalization info
 4020.00                                 [l_norm (A) - for base]
 4010.00                                 [llow_norm (A) - window for f_obs]
 4060.00                                 [lupp_norm (A) - window for f_obs]
3.447620E-15                             [fobs_norm (in input units)]

## S/N
 4730.00                                 [llow_SN (A) - window for S/N]
 4780.00                                 [lupp_SN (A) - window for S/N]
  41.849                                 [S/N in S/N window]
  23.735                                 [S/N in norm. window]
 229.586                                 [S/N_err in S/N window]
 130.210                                 [S/N_err in norm. window]
  1.0000                                 [fscale_chi2]

## etc...
  2147483618                             [idum_orig]
  3065                                   [NOl_eff]
   600                                   [Nl_eff]
  2465    NSIGMA                         [Ntot_cliped & clip_method]
  2165800                                [Nglobal_steps]
   7                                     [N_chains]
  14                                     [NEX0s_base = N_base in EX0s-fits]
 0   0   1      227   2.0   2.812E+02    [Clip-Bug, RC-Crash & Burn-In warning-flags, n_censored_weights, wei_nsig_threshold & wei_limit]
    26     25.782     25.778      0.004  [idt_all, wdt_TotTime, wdt_UsrTime & wdt_SysTime (sec)]

## Synthesis Results - Best model ##

 2.90740E+00                             [chi2/Nl_eff]
     1.88805                             [adev (%)]

    99.52209                             [sum-of-x (%)]
 4.52888E-14                             [Flux_tot (units of input spectrum!)]
 1.89144E-09                             [Mini_tot (???)]
 9.56684E-10                             [Mcor_tot (???)]

 -32.94                                  [v0_min  (km/s)]
  55.07                                  [vd_min  (km/s)]
 1.9211                                  [AV_min  (mag)]
 0.0000                                  [YAV_min (mag)]

# j     x_j(%)      Mini_j(%)     Mcor_j(%)     age_j(yr)     Z_j      (L/M)_j    YAV?  Mstars   component_j        a/Fe...       SSP_chi2r SSP_adev(%)   SSP_AV   SSP_x(%)
  1      5.4063     1.1676E-02    2.3084E-02    1.000000E+06  0.00400  1.114E-02    0   1.0000   age020_m42            0.0000     5.3490E+03    41.3658   4.0000   103.1769
  2      4.7896     2.8292E-03    5.5930E-03    3.160000E+06  0.00400  4.073E-02    0   0.9999   age045_m42            0.0000     1.1883E+03    18.1005   4.0000   107.9701
  3      4.0624     3.8570E-03    7.2352E-03    5.010000E+06  0.00400  2.534E-02    0   0.9488   age055_m42            0.0000     2.5108E+03    29.0999   4.0000   107.4733
  4      1.6862     3.1919E-03    5.5925E-03    1.000000E+07  0.00400  1.271E-02    0   0.8862   age070_m42            0.0000     4.2632E+02    13.0216   4.0000    98.2363
  5      0.8314     3.9451E-03    6.3755E-03    2.512000E+07  0.00400  5.070E-03    0   0.8174   age090_m42            0.0000     2.9173E+02    10.3588   4.0000    96.9902
  6      0.0000     0.0000E+00    0.0000E+00    4.000000E+07  0.00400  3.505E-03    0   0.7851   age104_m42            0.0000     2.2528E+02     8.0085   3.8374    96.2565
  7      0.0000     0.0000E+00    0.0000E+00    1.015200E+08  0.00400  2.268E-03    0   0.7207   age116_m42            0.0000     7.7466E+02    15.5671   3.9474   101.2418
  8      0.0000     0.0000E+00    0.0000E+00    2.861200E+08  0.00400  1.079E-03    0   0.6613   age125_m42            0.0000     8.1038E+02    16.1468   3.4560   103.1435
  9      0.0000     0.0000E+00    0.0000E+00    6.405400E+08  0.00400  5.077E-04    0   0.6197   age132_m42            0.0000     8.4654E+02    17.0355   3.1007   106.8592
 10      0.0000     0.0000E+00    0.0000E+00    9.047900E+08  0.00400  3.535E-04    0   0.6024   age135_m42            0.0000     6.3752E+02    14.9203   2.8448   106.8803
 11      0.0000     0.0000E+00    0.0000E+00    1.434000E+09  0.00400  1.910E-04    0   0.5716   age139_m42            0.0000     3.8611E+02    11.8628   2.2985   107.0414
 12      0.0949     2.3252E-02    2.5114E-02    2.500000E+09  0.00400  9.818E-05    0   0.5463   age150_m42            0.0000     1.7365E+02     8.1240   1.9851   104.0792
 13     26.1566     1.3338E+01    1.3787E+01    5.000000E+09  0.00400  4.718E-05    0   0.5228   age161_m42            0.0000     9.4193E+01     6.2074   1.7951   101.8219
 14     13.8648     1.5128E+01    1.4895E+01    1.100000E+10  0.00400  2.205E-05    0   0.4980   age185_m42            0.0000     1.0568E+02     6.8674   1.5196   100.6119
 15     10.9586     1.4002E+01    1.3639E+01    1.300000E+10  0.00400  1.883E-05    0   0.4927   age193_m42            0.0000     1.0798E+02     6.9769   1.4996   100.6189
 16      3.4027     4.1160E-03    8.1376E-03    1.000000E+06  0.02000  1.989E-02    0   1.0000   age020_m62            0.0000     5.1362E+03    40.3971   4.0000   103.9487
 17      1.3286     8.4744E-04    1.6517E-03    3.160000E+06  0.02000  3.772E-02    0   0.9858   age045_m62            0.0000     4.4035E+03    38.1448   4.0000   105.7676
 18      0.0000     0.0000E+00    0.0000E+00    5.010000E+06  0.02000  3.227E-02    0   0.9342   age055_m62            0.0000     2.0129E+03    25.1958   4.0000   108.7580
 19      0.0000     0.0000E+00    0.0000E+00    1.000000E+07  0.02000  1.011E-02    0   0.8751   age070_m62            0.0000     5.7882E+02    17.1633   4.0000    95.6441
 20      0.0000     0.0000E+00    0.0000E+00    2.512000E+07  0.02000  4.206E-03    0   0.8099   age090_m62            0.0000     3.9731E+02    14.1273   4.0000    94.9661
 21      0.0000     0.0000E+00    0.0000E+00    4.000000E+07  0.02000  3.373E-03    0   0.7799   age104_m62            0.0000     3.1524E+02     8.8902   4.0000    98.7257
 22      0.0000     0.0000E+00    0.0000E+00    1.015200E+08  0.02000  1.878E-03    0   0.7221   age116_m62            0.0000     6.9829E+02    14.6227   3.9569   102.2421
 23      0.0000     0.0000E+00    0.0000E+00    2.861200E+08  0.02000  8.869E-04    0   0.6700   age125_m62            0.0000     1.1264E+03    19.3171   3.4907   107.3207
 24      0.0000     0.0000E+00    0.0000E+00    6.405400E+08  0.02000  3.657E-04    0   0.6322   age132_m62            0.0000     8.5143E+02    17.0911   2.7959   111.3349
 25      0.0000     0.0000E+00    0.0000E+00    9.047900E+08  0.02000  2.312E-04    0   0.6152   age135_m62            0.0000     5.7786E+02    14.2440   2.3999   111.5179
 26      0.0000     0.0000E+00    0.0000E+00    1.434000E+09  0.02000  1.168E-04    0   0.5865   age139_m62            0.0000     2.5371E+02     9.4800   1.9386   107.9451
 27      0.0000     0.0000E+00    0.0000E+00    2.500000E+09  0.02000  5.505E-05    0   0.5610   age150_m62            0.0000     1.7927E+02     8.4136   1.5425   106.4761
 28      0.0000     0.0000E+00    0.0000E+00    5.000000E+09  0.02000  2.596E-05    0   0.5353   age161_m62            0.0000     2.5363E+02    10.4517   1.1953   107.5487
 29     10.5893     2.1794E+01    2.1988E+01    1.100000E+10  0.02000  1.169E-05    0   0.5103   age185_m62            0.0000     4.0934E+02    12.9391   0.8217   109.9440
 30     14.3729     3.5683E+01    3.5605E+01    1.300000E+10  0.02000  9.691E-06    0   0.5047   age193_m62            0.0000     4.4246E+02    13.3754   0.7741   110.3528
 31      1.9777     1.7949E-03    3.5479E-03    1.000000E+06  0.05000  2.651E-02    0   0.9998   age020_m72            0.0000     5.0972E+03    39.9780   4.0000   105.1034
 32      0.0000     0.0000E+00    0.0000E+00    3.160000E+06  0.05000  4.817E-02    0   0.9577   age045_m72            0.0000     3.5894E+03    34.1573   4.0000   108.4164
 33      0.0000     0.0000E+00    0.0000E+00    5.010000E+06  0.05000  3.101E-02    0   0.9147   age055_m72            0.0000     2.0699E+03    27.1994   4.0000   107.4143
 34      0.0000     0.0000E+00    0.0000E+00    1.000000E+07  0.05000  8.954E-03    0   0.8524   age070_m72            0.0000     2.9924E+03    31.3494   4.0000   108.9484
 35      0.0000     0.0000E+00    0.0000E+00    2.512000E+07  0.05000  4.207E-03    0   0.7902   age090_m72            0.0000     1.3897E+03    20.4552   4.0000   109.0418
 36      0.0000     0.0000E+00    0.0000E+00    4.000000E+07  0.05000  3.198E-03    0   0.7618   age104_m72            0.0000     6.9258E+02    12.6303   4.0000   106.8246
 37      0.0000     0.0000E+00    0.0000E+00    1.015200E+08  0.05000  1.716E-03    0   0.7092   age116_m72            0.0000     7.9655E+02    15.7624   4.0000   103.7644
 38      0.0000     0.0000E+00    0.0000E+00    2.861200E+08  0.05000  7.047E-04    0   0.6618   age125_m72            0.0000     1.0891E+03    18.9839   3.3016   107.6469
 39      0.0000     0.0000E+00    0.0000E+00    6.405400E+08  0.05000  2.633E-04    0   0.6253   age132_m72            0.0000     6.9580E+02    15.6126   2.4227   111.2846
 40      0.0000     0.0000E+00    0.0000E+00    9.047900E+08  0.05000  1.484E-04    0   0.6088   age135_m72            0.0000     3.6711E+02    11.5610   1.8920   108.4482
 41      0.0000     0.0000E+00    0.0000E+00    1.434000E+09  0.05000  7.827E-05    0   0.5847   age139_m72            0.0000     2.6540E+02    10.4627   1.4708   106.6761
 42      0.0000     0.0000E+00    0.0000E+00    2.500000E+09  0.05000  3.759E-05    0   0.5583   age150_m72            0.0000     2.9189E+02    11.2535   1.1300   107.0547
 43      0.0000     0.0000E+00    0.0000E+00    5.000000E+09  0.05000  1.548E-05    0   0.5320   age161_m72            0.0000     4.3591E+02    13.1414   0.7249   107.4430
 44      0.0000     0.0000E+00    0.0000E+00    1.100000E+10  0.05000  6.532E-06    0   0.5070   age185_m72            0.0000     6.9108E+02    15.8216   0.3482   107.9648
 45      0.0000     0.0000E+00    0.0000E+00    1.300000E+10  0.05000  5.316E-06    0   0.5018   age193_m72            0.0000     8.0989E+02    16.9861   0.2322   108.2329


## Synthesis Results - Average & Chains ##

# j      x_j: min, <> & last-chain-values for 1 ...  7 chains
  1      5.4063      5.1049      5.2434      5.1737      5.1276      5.1582      4.9919      5.0565      4.9724
  2      4.7896      3.3701      3.4759      3.4048      3.3725      3.4578      3.5619      3.6155      3.4306
  3      4.0624      3.4038      3.2311      3.4080      3.4248      3.5595      3.4924      3.4448      3.7357
  4      1.6862      1.1553      1.2682      1.1578      1.1149      1.0820      1.2567      1.1608      1.1501
  5      0.8314      1.2951      1.2965      1.4075      1.3322      1.0605      1.2884      1.3189      1.3869
  6      0.0000      0.0354      0.0000      0.0000      0.0000      0.0000      0.0000      0.0000      0.0000
  7      0.0000      0.0223      0.1340      0.0000      0.0283      0.0000      0.0199      0.0000      0.0000
  8      0.0000      0.0128      0.0009      0.0000      0.0115      0.0000      0.0000      0.0000      0.0000
  9      0.0000      0.0286      0.0000      0.0000      0.0000      0.0786      0.0000      0.0000      0.0270
 10      0.0000      0.0316      0.0000      0.0000      0.0000      0.0000      0.0000      0.0000      0.0000
 11      0.0000      0.0692      0.2501      0.0000      0.0169      0.0000      0.0000      0.0000      0.0000
 12      0.0949      2.0325      1.5702      2.1966      1.9873      2.6107      2.0886      1.8135      1.9850
 13     26.1566     25.0995     25.0920     25.2581     26.2433     25.3921     25.1771     25.3914     25.2275
 14     13.8648     12.4695     13.1034     12.5759     12.6453     12.3475     12.7282     12.5836     12.5591
 15     10.9586     11.3704     11.2443     11.2708     11.0641     11.3659     11.1452     11.8199     11.8561
 16      3.4027      3.6766      3.5707      3.6822      3.5735      3.6591      3.7078      3.4578      3.7647
 17      1.3286      1.8233      1.8225      1.7248      1.8074      1.8474      1.8644      1.9316      1.7544
 18      0.0000      0.0370      0.1855      0.1095      0.1830      0.0025      0.0000      0.2339      0.0878
 19      0.0000      0.0634      0.0000      0.0249      0.0000      0.0000      0.3462      0.0000      0.0075
 20      0.0000      0.0206      0.0000      0.0000      0.0000      0.0000      0.0218      0.0000      0.0000
 21      0.0000      0.0196      0.0000      0.0000      0.0018      0.0000      0.0000      0.0000      0.0607
 22      0.0000      0.0221      0.0000      0.0000      0.0000      0.0286      0.0668      0.0420      0.0000
 23      0.0000      0.0136      0.0000      0.0000      0.0000      0.0000      0.0000      0.0000      0.0000
 24      0.0000      0.0160      0.0000      0.0000      0.0000      0.0000      0.0094      0.0000      0.0000
 25      0.0000      0.0287      0.0000      0.1464      0.0000      0.0000      0.0510      0.0101      0.0000
 26      0.0000      0.0459      0.0000      0.0000      0.0000      0.0174      0.0000      0.0369      0.0073
 27      0.0000      0.1485      0.3198      0.0000      0.0067      0.0103      0.0000      0.1250      0.1472
 28      0.0000      0.1977      0.0000      0.3226      0.1429      0.0000      0.2381      0.1282      0.0000
 29     10.5893     10.3882     10.5812     10.4127     10.2079     10.1984     10.5223     10.3306     10.4013
 30     14.3729     14.2492     14.2514     14.1119     14.3082     14.4392     14.3454     14.3012     14.2574
 31      1.9777      2.3410      2.3333      2.3280      2.2980      2.1626      2.2230      2.4067      2.3471
 32      0.0000      0.4841      0.4693      0.5117      0.5657      0.6668      0.3144      0.3330      0.2477
 33      0.0000      0.0233      0.0000      0.0056      0.0000      0.0000      0.0000      0.0000      0.0098
 34      0.0000      0.0216      0.0000      0.0000      0.0000      0.0000      0.0000      0.0000      0.0000
 35      0.0000      0.0147      0.0000      0.0000      0.0000      0.1228      0.0000      0.0000      0.0000
 36      0.0000      0.0103      0.0000      0.0000      0.0000      0.0000      0.0045      0.0000      0.0000
 37      0.0000      0.0145      0.0000      0.0000      0.0000      0.0000      0.0000      0.0000      0.0000
 38      0.0000      0.0112      0.0000      0.0000      0.0000      0.0000      0.0000      0.0001      0.0546
 39      0.0000      0.0225      0.0000      0.0000      0.0000      0.0000      0.0000      0.0000      0.0000
 40      0.0000      0.0467      0.0000      0.0000      0.0000      0.0000      0.0000      0.0000      0.0000
 41      0.0000      0.1117      0.0859      0.2883      0.0000      0.0000      0.0000      0.0000      0.0582
 42      0.0000      0.0990      0.0000      0.0000      0.0010      0.2278      0.0000      0.0077      0.0000
 43      0.0000      0.0769      0.0327      0.0269      0.0000      0.0424      0.0772      0.0000      0.0000
 44      0.0000      0.0220      0.0000      0.0000      0.0905      0.0095      0.0000      0.0000      0.0000
 45      0.0000      0.0178      0.0000      0.0000      0.0000      0.0000      0.0000      0.0000      0.0000

# j      m_j: min, <> & last-chain-values for 1 ...  7 chains
  1  2.3084E-02  2.2028E-02  2.2541E-02  2.2415E-02  2.2138E-02  2.2299E-02  2.1490E-02  2.1757E-02  2.1414E-02
  2  5.5930E-03  3.9771E-03  4.0864E-03  4.0342E-03  3.9821E-03  4.0881E-03  4.1935E-03  4.2545E-03  4.0404E-03
  3  7.2352E-03  6.1264E-03  5.7936E-03  6.1586E-03  6.1677E-03  6.4185E-03  6.2712E-03  6.1825E-03  6.7106E-03
  4  5.5925E-03  3.8723E-03  4.2345E-03  3.8963E-03  3.7389E-03  3.6332E-03  4.2022E-03  3.8795E-03  3.8470E-03
  5  6.3755E-03  1.0037E-02  1.0010E-02  1.0952E-02  1.0331E-02  8.2342E-03  9.9613E-03  1.0192E-02  1.0727E-02
  6  0.0000E+00  3.8135E-04  0.0000E+00  0.0000E+00  0.0000E+00  0.0000E+00  0.0000E+00  0.0000E+00  0.0000E+00
  7  0.0000E+00  3.4115E-04  2.0397E-03  0.0000E+00  4.3259E-04  0.0000E+00  3.0363E-04  0.0000E+00  0.0000E+00
  8  0.0000E+00  3.7585E-04  2.6649E-05  0.0000E+00  3.3881E-04  0.0000E+00  0.0000E+00  0.0000E+00  0.0000E+00
  9  0.0000E+00  1.6787E-03  0.0000E+00  0.0000E+00  0.0000E+00  4.6208E-03  0.0000E+00  0.0000E+00  1.5831E-03
 10  0.0000E+00  2.5859E-03  0.0000E+00  0.0000E+00  0.0000E+00  0.0000E+00  0.0000E+00  0.0000E+00  0.0000E+00
 11  0.0000E+00  9.9531E-03  3.5850E-02  0.0000E+00  2.4370E-03  0.0000E+00  0.0000E+00  0.0000E+00  0.0000E+00
 12  2.5114E-02  5.4363E-01  4.1841E-01  5.8989E-01  5.3186E-01  6.9958E-01  5.5735E-01  4.8367E-01  5.2989E-01
 13  1.3787E+01  1.3369E+01  1.3315E+01  1.3508E+01  1.3987E+01  1.3550E+01  1.3379E+01  1.3487E+01  1.3411E+01
 14  1.4895E+01  1.3538E+01  1.4172E+01  1.3708E+01  1.3736E+01  1.3430E+01  1.3786E+01  1.3623E+01  1.3608E+01
 15  1.3639E+01  1.4301E+01  1.4090E+01  1.4233E+01  1.3924E+01  1.4322E+01  1.3985E+01  1.4825E+01  1.4883E+01
 16  8.1376E-03  8.8856E-03  8.5971E-03  8.9349E-03  8.6412E-03  8.8594E-03  8.9399E-03  8.3331E-03  9.0806E-03
 17  1.6517E-03  2.2906E-03  2.2810E-03  2.1756E-03  2.2719E-03  2.3251E-03  2.3368E-03  2.4197E-03  2.1997E-03
 18  0.0000E+00  5.1429E-05  2.5714E-04  1.5303E-04  2.5482E-04  3.5339E-06  0.0000E+00  3.2458E-04  1.2194E-04
 19  0.0000E+00  2.6370E-04  0.0000E+00  1.0383E-04  0.0000E+00  0.0000E+00  1.4370E-03  0.0000E+00  3.1252E-05
 20  0.0000E+00  1.9094E-04  0.0000E+00  0.0000E+00  0.0000E+00  0.0000E+00  2.0115E-04  0.0000E+00  0.0000E+00
 21  0.0000E+00  2.1800E-04  0.0000E+00  0.0000E+00  2.0340E-05  0.0000E+00  0.0000E+00  0.0000E+00  6.7359E-04
 22  0.0000E+00  4.0772E-04  0.0000E+00  0.0000E+00  0.0000E+00  5.3037E-04  1.2324E-03  7.7320E-04  0.0000E+00
 23  0.0000E+00  4.9524E-04  0.0000E+00  0.0000E+00  0.0000E+00  0.0000E+00  0.0000E+00  0.0000E+00  0.0000E+00
 24  0.0000E+00  1.3309E-03  0.0000E+00  0.0000E+00  0.0000E+00  0.0000E+00  7.7760E-04  0.0000E+00  0.0000E+00
 25  0.0000E+00  3.6691E-03  0.0000E+00  1.8803E-02  0.0000E+00  0.0000E+00  6.5043E-03  1.2891E-03  0.0000E+00
 26  0.0000E+00  1.1076E-02  0.0000E+00  0.0000E+00  0.0000E+00  4.2082E-03  0.0000E+00  8.8773E-03  1.7664E-03
 27  0.0000E+00  7.2734E-02  1.5609E-01  0.0000E+00  3.3041E-03  5.0634E-03  0.0000E+00  6.1065E-02  7.1950E-02
 28  0.0000E+00  1.9600E-01  0.0000E+00  3.2103E-01  1.4174E-01  0.0000E+00  2.3542E-01  1.2672E-01  0.0000E+00
 29  2.1988E+01  2.1798E+01  2.2120E+01  2.1938E+01  2.1432E+01  2.1440E+01  2.2028E+01  2.1616E+01  2.1783E+01
 30  3.5605E+01  3.5672E+01  3.5543E+01  3.5471E+01  3.5840E+01  3.6214E+01  3.5829E+01  3.5700E+01  3.5623E+01
 31  3.5479E-03  4.2441E-03  4.2142E-03  4.2375E-03  4.1685E-03  3.9279E-03  4.0206E-03  4.3507E-03  4.2468E-03
 32  0.0000E+00  4.6265E-04  4.4685E-04  4.9098E-04  5.4092E-04  6.3843E-04  2.9979E-04  3.1736E-04  2.3627E-04
 33  0.0000E+00  3.3042E-05  0.0000E+00  8.0058E-06  0.0000E+00  0.0000E+00  0.0000E+00  0.0000E+00  1.3885E-05
