###################################################################
## OUTPUT of StarlightChains_v04.for    [Cid@UFSC - 01/Apr/2007] ##
###################################################################

## Some input info
NGC6544_a_1.cxt                          [arq_obs]
Base.BC03.N                              [arq_base]
NGC6544_a_1.msk                          [arq_masks]
StCv04.C99.config                        [arq_config]
   45                                    [N_base]
    0                                    [N_YAV_components = # of components with extra extinction!]
    0                                    [i_FitPowerLaw (1/0 = Yes/No)]
-9.99                                    [alpha_PowerLaw]
CCM                                      [red_law_option]
 1.458241                                [q_norm = A(l_norm)/A(V)]

## (Re)Sampling Parameters
 3359.00                                 [l_ini (A)]
 6428.00                                 [l_fin (A)]
    1.00                                 [dl    (A)]     (OBS: dl_cushion =    50.00 A)

## Normalization info
 4020.00                                 [l_norm (A) - for base]
 4010.00                                 [llow_norm (A) - window for f_obs]
 4060.00                                 [lupp_norm (A) - window for f_obs]
2.994762E-15                             [fobs_norm (in input units)]

## S/N
 4730.00                                 [llow_SN (A) - window for S/N]
 4780.00                                 [lupp_SN (A) - window for S/N]
  55.157                                 [S/N in S/N window]
  29.824                                 [S/N in norm. window]
 209.596                                 [S/N_err in S/N window]
 113.332                                 [S/N_err in norm. window]
  1.0000                                 [fscale_chi2]

## etc...
  2147483600                             [idum_orig]
  3067                                   [NOl_eff]
  1468                                   [Nl_eff]
  1599    NSIGMA                         [Ntot_cliped & clip_method]
  2206680                                [Nglobal_steps]
   7                                     [N_chains]
  12                                     [NEX0s_base = N_base in EX0s-fits]
 0   1   1       75   2.0   2.769E+02    [Clip-Bug, RC-Crash & Burn-In warning-flags, n_censored_weights, wei_nsig_threshold & wei_limit]
    46     46.060     46.044      0.016  [idt_all, wdt_TotTime, wdt_UsrTime & wdt_SysTime (sec)]

## Synthesis Results - Best model ##

 3.03908E+00                             [chi2/Nl_eff]
     2.46466                             [adev (%)]

    95.67015                             [sum-of-x (%)]
 4.51856E-13                             [Flux_tot (units of input spectrum!)]
 6.87833E-09                             [Mini_tot (???)]
 3.49273E-09                             [Mcor_tot (???)]

 -26.32                                  [v0_min  (km/s)]
  43.18                                  [vd_min  (km/s)]
 3.7680                                  [AV_min  (mag)]
 0.0000                                  [YAV_min (mag)]

# j     x_j(%)      Mini_j(%)     Mcor_j(%)     age_j(yr)     Z_j      (L/M)_j    YAV?  Mstars   component_j        a/Fe...       SSP_chi2r SSP_adev(%)   SSP_AV   SSP_x(%)
  1     10.4695     6.4533E-02    1.2709E-01    1.000000E+06  0.00400  1.114E-02    0   1.0000   age020_m42            0.0000     2.5507E+03    42.6893   4.0000   112.7551
  2     21.4861     3.6223E-02    7.1328E-02    3.160000E+06  0.00400  4.073E-02    0   0.9999   age045_m42            0.0000     6.8735E+02    23.7225   4.0000   117.9064
  3      7.1427     1.9355E-02    3.6165E-02    5.010000E+06  0.00400  2.534E-02    0   0.9488   age055_m42            0.0000     1.3201E+03    32.0124   4.0000   117.3001
  4     14.8189     8.0059E-02    1.3972E-01    1.000000E+07  0.00400  1.271E-02    0   0.8862   age070_m42            0.0000     3.3410E+02    16.3693   4.0000   109.7920
  5      0.0000     0.0000E+00    0.0000E+00    2.512000E+07  0.00400  5.070E-03    0   0.8174   age090_m42            0.0000     2.2326E+02    13.6216   4.0000   108.9268
  6      0.0000     0.0000E+00    0.0000E+00    4.000000E+07  0.00400  3.505E-03    0   0.7851   age104_m42            0.0000     7.9532E+01     8.4908   4.0000   104.5325
  7      0.0000     0.0000E+00    0.0000E+00    1.015200E+08  0.00400  2.268E-03    0   0.7207   age116_m42            0.0000     3.6175E+02    16.1569   4.0000   111.3057
  8      0.0000     0.0000E+00    0.0000E+00    2.861200E+08  0.00400  1.079E-03    0   0.6613   age125_m42            0.0000     3.7138E+02    14.5769   3.7657   106.2877
  9      0.0000     0.0000E+00    0.0000E+00    6.405400E+08  0.00400  5.077E-04    0   0.6197   age132_m42            0.0000     3.8584E+02    14.6673   3.4043   110.8331
 10      0.0000     0.0000E+00    0.0000E+00    9.047900E+08  0.00400  3.535E-04    0   0.6024   age135_m42            0.0000     3.0997E+02    13.9168   3.1504   110.5015
 11      0.0000     0.0000E+00    0.0000E+00    1.434000E+09  0.00400  1.910E-04    0   0.5716   age139_m42            0.0000     2.6607E+02    14.0290   2.6009   109.0165
 12      0.0000     0.0000E+00    0.0000E+00    2.500000E+09  0.00400  9.818E-05    0   0.5463   age150_m42            0.0000     2.1342E+02    13.6172   2.2861   105.0611
 13     14.8876     2.1667E+01    2.2308E+01    5.000000E+09  0.00400  4.718E-05    0   0.5228   age161_m42            0.0000     2.0155E+02    13.2776   2.1012   102.1301
 14      3.2956     1.0263E+01    1.0065E+01    1.100000E+10  0.00400  2.205E-05    0   0.4980   age185_m42            0.0000     2.7082E+02    14.6918   1.8197    99.6836
 15      2.4002     8.7524E+00    8.4924E+00    1.300000E+10  0.00400  1.883E-05    0   0.4927   age193_m42            0.0000     2.8099E+02    14.8135   1.8005    99.5308
 16      0.9580     3.3074E-03    6.5133E-03    1.000000E+06  0.02000  1.989E-02    0   1.0000   age020_m62            0.0000     2.4837E+03    42.0028   4.0000   113.5924
 17      0.0000     0.0000E+00    0.0000E+00    3.160000E+06  0.02000  3.772E-02    0   0.9858   age045_m62            0.0000     2.1779E+03    39.6394   4.0000   115.5617
 18      1.1461     2.4388E-03    4.4868E-03    5.010000E+06  0.02000  3.227E-02    0   0.9342   age055_m62            0.0000     1.0764E+03    29.0893   4.0000   118.8428
 19     14.0386     9.5348E-02    1.6432E-01    1.000000E+07  0.02000  1.011E-02    0   0.8751   age070_m62            0.0000     4.0638E+02    16.7340   4.0000   108.0774
 20      0.0000     0.0000E+00    0.0000E+00    2.512000E+07  0.02000  4.206E-03    0   0.8099   age090_m62            0.0000     2.9109E+02    15.2971   4.0000   106.9022
 21      0.0000     0.0000E+00    0.0000E+00    4.000000E+07  0.02000  3.373E-03    0   0.7799   age104_m62            0.0000     1.9703E+02    12.2292   4.0000   110.7912
 22      0.0000     0.0000E+00    0.0000E+00    1.015200E+08  0.02000  1.878E-03    0   0.7221   age116_m62            0.0000     3.2934E+02    15.3332   4.0000   113.2050
 23      0.0000     0.0000E+00    0.0000E+00    2.861200E+08  0.02000  8.869E-04    0   0.6700   age125_m62            0.0000     5.1421E+02    15.9849   3.8049   110.5392
 24      0.0000     0.0000E+00    0.0000E+00    6.405400E+08  0.02000  3.657E-04    0   0.6322   age132_m62            0.0000     4.6065E+02    16.7379   3.0912   113.8707
 25      0.0000     0.0000E+00    0.0000E+00    9.047900E+08  0.02000  2.312E-04    0   0.6152   age135_m62            0.0000     3.6926E+02    15.8808   2.7036   113.2068
 26      0.0000     0.0000E+00    0.0000E+00    1.434000E+09  0.02000  1.168E-04    0   0.5865   age139_m62            0.0000     2.6770E+02    14.8700   2.2350   108.4389
 27      0.0000     0.0000E+00    0.0000E+00    2.500000E+09  0.02000  5.505E-05    0   0.5610   age150_m62            0.0000     2.9204E+02    15.5851   1.8285   105.9020
 28      0.0000     0.0000E+00    0.0000E+00    5.000000E+09  0.02000  2.596E-05    0   0.5353   age161_m62            0.0000     4.2010E+02    17.6619   1.4758   105.3892
 29      0.0000     0.0000E+00    0.0000E+00    1.100000E+10  0.02000  1.169E-05    0   0.5103   age185_m62            0.0000     5.8397E+02    19.7746   1.1044   105.9030
 30      0.0000     0.0000E+00    0.0000E+00    1.300000E+10  0.02000  9.691E-06    0   0.5047   age193_m62            0.0000     6.1684E+02    20.1138   1.0592   105.9211
 31      0.0000     0.0000E+00    0.0000E+00    1.000000E+06  0.05000  2.651E-02    0   0.9998   age020_m72            0.0000     2.4508E+03    41.9486   4.0000   114.8713
 32      0.0000     0.0000E+00    0.0000E+00    3.160000E+06  0.05000  4.817E-02    0   0.9577   age045_m72            0.0000     1.7808E+03    36.6321   4.0000   118.4548
 33      0.0000     0.0000E+00    0.0000E+00    5.010000E+06  0.05000  3.101E-02    0   0.9147   age055_m72            0.0000     1.1196E+03    29.6640   4.0000   117.6254
 34      0.0000     0.0000E+00    0.0000E+00    1.000000E+07  0.05000  8.954E-03    0   0.8524   age070_m72            0.0000     1.4954E+03    34.0093   4.0000   118.9878
 35      0.0000     0.0000E+00    0.0000E+00    2.512000E+07  0.05000  4.207E-03    0   0.7902   age090_m72            0.0000     7.6079E+02    25.0486   4.0000   119.1418
 36      0.0000     0.0000E+00    0.0000E+00    4.000000E+07  0.05000  3.198E-03    0   0.7618   age104_m72            0.0000     3.9752E+02    17.7292   4.0000   117.3275
 37      0.0000     0.0000E+00    0.0000E+00    1.015200E+08  0.05000  1.716E-03    0   0.7092   age116_m72            0.0000     3.9127E+02    16.9775   4.0000   115.1019
 38      0.0000     0.0000E+00    0.0000E+00    2.861200E+08  0.05000  7.047E-04    0   0.6618   age125_m72            0.0000     5.1826E+02    16.5451   3.5912   110.5863
 39      0.0000     0.0000E+00    0.0000E+00    6.405400E+08  0.05000  2.633E-04    0   0.6253   age132_m72            0.0000     4.2659E+02    16.7068   2.7096   112.7665
 40      0.0000     0.0000E+00    0.0000E+00    9.047900E+08  0.05000  1.484E-04    0   0.6088   age135_m72            0.0000     3.4437E+02    16.4728   2.1765   108.4693
 41      0.0000     0.0000E+00    0.0000E+00    1.434000E+09  0.05000  7.827E-05    0   0.5847   age139_m72            0.0000     3.6507E+02    17.2535   1.7348   105.5918
 42      0.0000     0.0000E+00    0.0000E+00    2.500000E+09  0.05000  3.759E-05    0   0.5583   age150_m72            0.0000     4.4134E+02    18.2011   1.3835   105.1173
 43      0.0000     0.0000E+00    0.0000E+00    5.000000E+09  0.05000  1.548E-05    0   0.5320   age161_m72            0.0000     5.9427E+02    19.9522   0.9629   103.8192
 44      2.4592     2.5852E+01    2.5812E+01    1.100000E+10  0.05000  6.532E-06    0   0.5070   age185_m72            0.0000     8.1304E+02    22.6062   0.6001   101.6877
 45      2.5675     3.3164E+01    3.2773E+01    1.300000E+10  0.05000  5.316E-06    0   0.5018   age193_m72            0.0000     9.0131E+02    23.5915   0.4914   100.9852


## Synthesis Results - Average & Chains ##

# j      x_j: min, <> & last-chain-values for 1 ...  7 chains
  1     10.4695     10.9174     10.8447     10.9596     10.7637     10.6984     10.3603     10.9889     11.1010
  2     21.4861     21.6184     21.4053     21.4093     21.6807     21.3403     20.7395     21.4182     21.6833
  3      7.1427      7.1116      7.0125      7.1398      6.7047      7.1035      7.0425      7.1284      7.3056
  4     14.8189     13.8789     13.8265     13.8727     13.8680     13.9676     13.8639     14.5978     14.0637
  5      0.0000      0.2854      0.0643      0.2274      0.3767      0.1955      0.7837      0.4273      0.2610
  6      0.0000      0.0690      0.0000      0.0000      0.0000      0.1334      0.1813      0.0000      0.0000
  7      0.0000      0.0550      0.0000      0.2003      0.2764      0.0000      0.0000      0.0219      0.1230
  8      0.0000      0.0288      0.0000      0.1139      0.0000      0.0000      0.1304      0.0000      0.0000
  9      0.0000      0.0339      0.0429      0.0000      0.0000      0.0746      0.0382      0.0125      0.0000
 10      0.0000      0.0340      0.0100      0.0000      0.0000      0.0332      0.0000      0.0305      0.0000
 11      0.0000      0.0210      0.0000      0.0725      0.0455      0.0000      0.0000      0.0000      0.0000
 12      0.0000      0.0154      0.0000      0.0000      0.0000      0.0000      0.0399      0.0000      0.0000
 13     14.8876     15.0013     14.9194     14.9967     14.8808     14.8467     14.7216     15.0323     14.9152
 14      3.2956      3.3735      3.4778      3.2484      3.2407      3.4026      3.3352      3.3439      3.3691
 15      2.4002      2.2653      2.1665      2.1474      2.2051      2.2656      2.4078      2.3112      2.2392
 16      0.9580      1.7401      1.6083      1.5238      1.5661      1.5056      1.7865      1.4921      1.5971
 17      0.0000      0.0992      0.0915      0.0000      0.1324      0.0000      0.0000      0.0000      0.0000
 18      1.1461      1.1670      1.3367      1.0423      1.0607      1.0825      1.1967      1.1427      1.0994
 19     14.0386     12.1029     12.9033     13.0841     13.2599     13.2373     13.4912     12.3197     12.1714
 20      0.0000      0.0850      0.0000      0.0000      0.0728      0.0000      0.0000      0.0000      0.0390
 21      0.0000      0.1235      0.2048      0.0000      0.0603      0.2852      0.0384      0.0135      0.0000
 22      0.0000      0.0925      0.3009      0.4097      0.1188      0.0000      0.2893      0.1467      0.0673
 23      0.0000      0.0293      0.0273      0.0000      0.0000      0.0000      0.0000      0.0000      0.0000
 24      0.0000      0.0084      0.0000      0.0000      0.0000      0.0000      0.0000      0.0000      0.0058
 25      0.0000      0.0083      0.0000      0.0000      0.0000      0.0000      0.0000      0.0000      0.0000
 26      0.0000      0.0073      0.0000      0.0000      0.0000      0.0000      0.0000      0.0000      0.0000
 27      0.0000      0.0081      0.0303      0.0000      0.0000      0.0000      0.0000      0.0000      0.0000
 28      0.0000      0.0061      0.0000      0.0000      0.0000      0.0000      0.0000      0.0000      0.0000
 29      0.0000      0.0103      0.0000      0.0000      0.0471      0.0000      0.0000      0.0000      0.0000
 30      0.0000      0.1222      0.0000      0.0783      0.0890      0.1310      0.0567      0.0000      0.1419
 31      0.0000      0.0388      0.0000      0.0007      0.0000      0.0400      0.0294      0.0035      0.0436
 32      0.0000      0.0389      0.0020      0.0000      0.0406      0.0000      0.0000      0.0256      0.0000
 33      0.0000      0.0325      0.0000      0.0000      0.0000      0.0000      0.0000      0.0000      0.0000
 34      0.0000      0.0193      0.0000      0.0000      0.0000      0.0000      0.0071      0.0000      0.0000
 35      0.0000      0.0281      0.0000      0.0185      0.0000      0.0000      0.0000      0.0442      0.0000
 36      0.0000      0.0449      0.0000      0.0000      0.0148      0.0921      0.0525      0.0175      0.0000
 37      0.0000      0.0779      0.2234      0.0000      0.0520      0.2318      0.0000      0.0339      0.2651
 38      0.0000      0.0142      0.0000      0.0000      0.0000      0.0000      0.0000      0.0122      0.0000
 39      0.0000      0.0065      0.0089      0.0000      0.0000      0.0000      0.0000      0.0000      0.0000
 40      0.0000      0.0057      0.0000      0.0000      0.0000      0.0232      0.0000      0.0000      0.0000
 41      0.0000      0.0039      0.0000      0.0000      0.0000      0.0000      0.0000      0.0000      0.0000
 42      0.0000      0.0047      0.0000      0.0036      0.0000      0.0000      0.0000      0.0000      0.0000
 43      0.0000      0.2490      0.3071      0.2451      0.2274      0.2201      0.2603      0.2261      0.2829
 44      2.4592      2.4167      2.4387      2.4249      2.4074      2.3974      2.4726      2.4253      2.3966
 45      2.5675      2.3876      2.4398      2.4994      2.5144      2.4191      2.3548      2.4677      2.4890

# j      m_j: min, <> & last-chain-values for 1 ...  7 chains
  1  1.2709E-01  1.3336E-01  1.3238E-01  1.3349E-01  1.3077E-01  1.3085E-01  1.2702E-01  1.3408E-01  1.3426E-01
  2  7.1328E-02  7.2221E-02  7.1461E-02  7.1317E-02  7.2037E-02  7.1382E-02  6.9540E-02  7.1467E-02  7.1719E-02
  3  3.6165E-02  3.6235E-02  3.5706E-02  3.6275E-02  3.3977E-02  3.6240E-02  3.6015E-02  3.6278E-02  3.6855E-02
  4  1.3972E-01  1.3169E-01  1.3110E-01  1.3125E-01  1.3087E-01  1.3269E-01  1.3203E-01  1.3834E-01  1.3212E-01
  5  0.0000E+00  6.2612E-03  1.4100E-03  4.9756E-03  8.2201E-03  4.2936E-03  1.7258E-02  9.3626E-03  5.6692E-03
  6  0.0000E+00  2.1026E-03  0.0000E+00  0.0000E+00  0.0000E+00  4.0705E-03  5.5465E-03  0.0000E+00  0.0000E+00
  7  0.0000E+00  2.3803E-03  0.0000E+00  8.6385E-03  1.1886E-02  0.0000E+00  0.0000E+00  9.4705E-04  5.2651E-03
  8  0.0000E+00  2.4039E-03  0.0000E+00  9.4717E-03  0.0000E+00  0.0000E+00  1.0914E-02  0.0000E+00  0.0000E+00
  9  0.0000E+00  5.6245E-03  7.1218E-03  0.0000E+00  0.0000E+00  1.2401E-02  6.3728E-03  2.0692E-03  0.0000E+00
 10  0.0000E+00  7.8740E-03  2.3082E-03  0.0000E+00  0.0000E+00  7.7019E-03  0.0000E+00  7.0697E-03  0.0000E+00
 11  0.0000E+00  8.5604E-03  0.0000E+00  2.9450E-02  1.8415E-02  0.0000E+00  0.0000E+00  0.0000E+00  0.0000E+00
 12  0.0000E+00  1.1624E-02  0.0000E+00  0.0000E+00  0.0000E+00  0.0000E+00  3.0285E-02  0.0000E+00  0.0000E+00
 13  2.2308E+01  2.2621E+01  2.2482E+01  2.2549E+01  2.2317E+01  2.2416E+01  2.2281E+01  2.2640E+01  2.2268E+01
 14  1.0065E+01  1.0368E+01  1.0681E+01  9.9549E+00  9.9060E+00  1.0471E+01  1.0288E+01  1.0265E+01  1.0252E+01
 15  8.4924E+00  8.0658E+00  7.7090E+00  7.6244E+00  7.8090E+00  8.0773E+00  8.6048E+00  8.2196E+00  7.8939E+00
 16  6.5133E-03  1.1905E-02  1.0996E-02  1.0395E-02  1.0657E-02  1.0314E-02  1.2268E-02  1.0196E-02  1.0819E-02
 17  0.0000E+00  3.5269E-04  3.2526E-04  0.0000E+00  4.6848E-04  0.0000E+00  0.0000E+00  0.0000E+00  0.0000E+00
 18  4.4868E-03  4.5975E-03  5.2623E-03  4.0944E-03  4.1558E-03  4.2700E-03  4.7315E-03  4.4963E-03  4.2880E-03
 19  1.6432E-01  1.4256E-01  1.5188E-01  1.5368E-01  1.5534E-01  1.5612E-01  1.5950E-01  1.4494E-01  1.4194E-01
 20  0.0000E+00  2.2283E-03  0.0000E+00  0.0000E+00  1.8980E-03  0.0000E+00  0.0000E+00  0.0000E+00  1.0107E-03
 21  0.0000E+00  3.8853E-03  6.4409E-03  0.0000E+00  1.8873E-03  8.9852E-03  1.2141E-03  4.2270E-04  0.0000E+00
 22  0.0000E+00  4.8424E-03  1.5731E-02  2.1375E-02  6.1843E-03  0.0000E+00  1.5192E-02  7.6690E-03  3.4864E-03
 23  0.0000E+00  3.0128E-03  2.8074E-03  0.0000E+00  0.0000E+00  0.0000E+00  0.0000E+00  0.0000E+00  0.0000E+00
 24  0.0000E+00  1.9656E-03  0.0000E+00  0.0000E+00  0.0000E+00  0.0000E+00  0.0000E+00  0.0000E+00  1.3526E-03
 25  0.0000E+00  3.0142E-03  0.0000E+00  0.0000E+00  0.0000E+00  0.0000E+00  0.0000E+00  0.0000E+00  0.0000E+00
 26  0.0000E+00  4.9593E-03  0.0000E+00  0.0000E+00  0.0000E+00  0.0000E+00  0.0000E+00  0.0000E+00  0.0000E+00
 27  0.0000E+00  1.1180E-02  4.1976E-02  0.0000E+00  0.0000E+00  0.0000E+00  0.0000E+00  0.0000E+00  0.0000E+00
 28  0.0000E+00  1.7009E-02  0.0000E+00  0.0000E+00  0.0000E+00  0.0000E+00  0.0000E+00  0.0000E+00  0.0000E+00
 29  0.0000E+00  6.1221E-02  0.0000E+00  0.0000E+00  2.7846E-01  0.0000E+00  0.0000E+00  0.0000E+00  0.0000E+00
 30  0.0000E+00  8.6584E-01  0.0000E+00  5.5360E-01  6.2767E-01  9.2985E-01  4.0335E-01  0.0000E+00  9.9536E-01
 31  0.0000E+00  1.9925E-04  0.0000E+00  3.3850E-06  0.0000E+00  2.0577E-04  1.5167E-04  1.8048E-05  2.2148E-04
 32  0.0000E+00  1.0530E-04  5.3862E-06  0.0000E+00  1.0917E-04  0.0000E+00  0.0000E+00  6.9069E-05  0.0000E+00
 33  0.0000E+00  1.3063E-04  0.0000E+00  0.0000E+00  0.0000E+00  0.0000E+00  0.0000E+00  0.0000E+00  0.0000E+00
