###################################################################
## OUTPUT of StarlightChains_v04.for    [Cid@UFSC - 01/Apr/2007] ##
###################################################################

## Some input info
NGC6637_a_1.cxt                          [arq_obs]
Base.BC03.N                              [arq_base]
NGC6637_a_1.msk                          [arq_masks]
StCv04.C99.config                        [arq_config]
   45                                    [N_base]
    0                                    [N_YAV_components = # of components with extra extinction!]
    0                                    [i_FitPowerLaw (1/0 = Yes/No)]
-9.99                                    [alpha_PowerLaw]
CCM                                      [red_law_option]
 1.458241                                [q_norm = A(l_norm)/A(V)]

## (Re)Sampling Parameters
 3359.00                                 [l_ini (A)]
 6428.00                                 [l_fin (A)]
    1.00                                 [dl    (A)]     (OBS: dl_cushion =    50.00 A)

## Normalization info
 4020.00                                 [l_norm (A) - for base]
 4010.00                                 [llow_norm (A) - window for f_obs]
 4060.00                                 [lupp_norm (A) - window for f_obs]
1.782031E-14                             [fobs_norm (in input units)]

## S/N
 4730.00                                 [llow_SN (A) - window for S/N]
 4780.00                                 [lupp_SN (A) - window for S/N]
  44.619                                 [S/N in S/N window]
  30.665                                 [S/N in norm. window]
  98.004                                 [S/N_err in S/N window]
  67.353                                 [S/N_err in norm. window]
  1.0000                                 [fscale_chi2]

## etc...
  2147483594                             [idum_orig]
  3067                                   [NOl_eff]
  1282                                   [Nl_eff]
  1785    NSIGMA                         [Ntot_cliped & clip_method]
  1438360                                [Nglobal_steps]
   7                                     [N_chains]
   7                                     [NEX0s_base = N_base in EX0s-fits]
 0   0   1      151   2.0   8.103E+02    [Clip-Bug, RC-Crash & Burn-In warning-flags, n_censored_weights, wei_nsig_threshold & wei_limit]
    22     21.922     21.922      0.000  [idt_all, wdt_TotTime, wdt_UsrTime & wdt_SysTime (sec)]

## Synthesis Results - Best model ##

 2.62461E+00                             [chi2/Nl_eff]
     1.61384                             [adev (%)]

   100.55436                             [sum-of-x (%)]
 4.04487E-14                             [Flux_tot (units of input spectrum!)]
 1.48541E-09                             [Mini_tot (???)]
 7.46036E-10                             [Mcor_tot (???)]

   7.69                                  [v0_min  (km/s)]
  75.08                                  [vd_min  (km/s)]
 0.6062                                  [AV_min  (mag)]
 0.0000                                  [YAV_min (mag)]

# j     x_j(%)      Mini_j(%)     Mcor_j(%)     age_j(yr)     Z_j      (L/M)_j    YAV?  Mstars   component_j        a/Fe...       SSP_chi2r SSP_adev(%)   SSP_AV   SSP_x(%)
  1      1.3197     3.2082E-03    6.3877E-03    1.000000E+06  0.00400  1.114E-02    0   1.0000   age020_m42            0.0000     6.3836E+02    21.8720   4.0000    81.1666
  2      2.3803     1.5826E-03    3.1507E-03    3.160000E+06  0.00400  4.073E-02    0   0.9999   age045_m42            0.0000     1.1343E+02    10.4296   3.6327    93.5253
  3      0.0000     0.0000E+00    0.0000E+00    5.010000E+06  0.00400  2.534E-02    0   0.9488   age055_m42            0.0000     1.6951E+02    12.5368   4.0000    86.1368
  4      2.3885     5.0890E-03    8.9794E-03    1.000000E+07  0.00400  1.271E-02    0   0.8862   age070_m42            0.0000     1.5361E+02    12.9310   3.3052    88.9104
  5      0.0000     0.0000E+00    0.0000E+00    2.512000E+07  0.00400  5.070E-03    0   0.8174   age090_m42            0.0000     1.4327E+02    12.4217   3.1687    90.6788
  6      0.0000     0.0000E+00    0.0000E+00    4.000000E+07  0.00400  3.505E-03    0   0.7851   age104_m42            0.0000     1.1303E+02    10.7521   2.8174    94.9810
  7      0.0000     0.0000E+00    0.0000E+00    1.015200E+08  0.00400  2.268E-03    0   0.7207   age116_m42            0.0000     3.1745E+02    12.8656   2.5808   113.7762
  8      0.0000     0.0000E+00    0.0000E+00    2.861200E+08  0.00400  1.079E-03    0   0.6613   age125_m42            0.0000     3.2589E+02    12.9143   2.0732   116.7632
  9      0.0000     0.0000E+00    0.0000E+00    6.405400E+08  0.00400  5.077E-04    0   0.6197   age132_m42            0.0000     3.6018E+02    13.1812   1.6850   122.2921
 10      0.0000     0.0000E+00    0.0000E+00    9.047900E+08  0.00400  3.535E-04    0   0.6024   age135_m42            0.0000     2.4367E+02    11.0984   1.4835   119.8556
 11      0.0000     0.0000E+00    0.0000E+00    1.434000E+09  0.00400  1.910E-04    0   0.5716   age139_m42            0.0000     1.2290E+02     7.9630   0.9985   116.6200
 12      0.0000     0.0000E+00    0.0000E+00    2.500000E+09  0.00400  9.818E-05    0   0.5463   age150_m42            0.0000     3.1801E+01     4.1705   0.7907   108.8464
 13     23.9248     1.3732E+01    1.4295E+01    5.000000E+09  0.00400  4.718E-05    0   0.5228   age161_m42            0.0000     7.8102E+00     2.2657   0.6625   103.8377
 14     68.5010     8.4129E+01    8.3418E+01    1.100000E+10  0.00400  2.205E-05    0   0.4980   age185_m42            0.0000     5.9889E+00     2.3539   0.4045   101.4431
 15      0.0016     2.2679E-03    2.2248E-03    1.300000E+10  0.00400  1.883E-05    0   0.4927   age193_m42            0.0000     6.8922E+00     2.5527   0.3911   101.1509
 16      0.0000     0.0000E+00    0.0000E+00    1.000000E+06  0.02000  1.989E-02    0   1.0000   age020_m62            0.0000     6.0451E+02    21.1755   4.0000    81.6940
 17      0.0000     0.0000E+00    0.0000E+00    3.160000E+06  0.02000  3.772E-02    0   0.9858   age045_m62            0.0000     4.4659E+02    18.6332   4.0000    83.6376
 18      0.0000     0.0000E+00    0.0000E+00    5.010000E+06  0.02000  3.227E-02    0   0.9342   age055_m62            0.0000     1.3844E+02    12.0396   3.9260    88.8855
 19      0.0000     0.0000E+00    0.0000E+00    1.000000E+07  0.02000  1.011E-02    0   0.8751   age070_m62            0.0000     2.8434E+02    16.7058   3.3902    82.1344
 20      0.0000     0.0000E+00    0.0000E+00    2.512000E+07  0.02000  4.206E-03    0   0.8099   age090_m62            0.0000     2.2193E+02    14.8785   3.2993    84.0971
 21      0.0000     0.0000E+00    0.0000E+00    4.000000E+07  0.02000  3.373E-03    0   0.7799   age104_m62            0.0000     1.3549E+02    11.4083   2.9955    97.4165
 22      0.0000     0.0000E+00    0.0000E+00    1.015200E+08  0.02000  1.878E-03    0   0.7221   age116_m62            0.0000     2.7310E+02    12.5957   2.6461   112.5283
 23      0.0000     0.0000E+00    0.0000E+00    2.861200E+08  0.02000  8.869E-04    0   0.6700   age125_m62            0.0000     5.2308E+02    15.4505   2.0185   124.7425
 24      0.0000     0.0000E+00    0.0000E+00    6.405400E+08  0.02000  3.657E-04    0   0.6322   age132_m62            0.0000     3.5639E+02    13.0284   1.3483   127.8734
 25      0.0000     0.0000E+00    0.0000E+00    9.047900E+08  0.02000  2.312E-04    0   0.6152   age135_m62            0.0000     2.1389E+02    10.2091   1.0182   124.8239
 26      0.0000     0.0000E+00    0.0000E+00    1.434000E+09  0.02000  1.168E-04    0   0.5865   age139_m62            0.0000     6.1360E+01     5.8031   0.6947   114.5764
 27      0.0000     0.0000E+00    0.0000E+00    2.500000E+09  0.02000  5.505E-05    0   0.5610   age150_m62            0.0000     2.7525E+01     4.0580   0.3486   110.2740
 28      2.0385     2.1265E+00    2.2664E+00    5.000000E+09  0.02000  2.596E-05    0   0.5353   age161_m62            0.0000     4.1516E+01     5.5768   0.0081   110.4771
 29      0.0000     0.0000E+00    0.0000E+00    1.100000E+10  0.02000  1.169E-05    0   0.5103   age185_m62            0.0000     8.2426E+01     7.9722  -0.3867   112.9980
 30      0.0000     0.0000E+00    0.0000E+00    1.300000E+10  0.02000  9.691E-06    0   0.5047   age193_m62            0.0000     9.1311E+01     8.3705  -0.4370   113.4001
 31      0.0000     0.0000E+00    0.0000E+00    1.000000E+06  0.05000  2.651E-02    0   0.9998   age020_m72            0.0000     5.8142E+02    20.7876   4.0000    82.9001
 32      0.0000     0.0000E+00    0.0000E+00    3.160000E+06  0.05000  4.817E-02    0   0.9577   age045_m72            0.0000     2.7814E+02    15.2793   4.0000    86.9755
 33      0.0000     0.0000E+00    0.0000E+00    5.010000E+06  0.05000  3.101E-02    0   0.9147   age055_m72            0.0000     1.7764E+02    13.4074   3.9867    85.3413
 34      0.0000     0.0000E+00    0.0000E+00    1.000000E+07  0.05000  8.954E-03    0   0.8524   age070_m72            0.0000     2.2185E+02    13.5851   4.0000    86.7892
 35      0.0000     0.0000E+00    0.0000E+00    2.512000E+07  0.05000  4.207E-03    0   0.7902   age090_m72            0.0000     1.3319E+02    11.3656   3.7383    91.4108
 36      0.0000     0.0000E+00    0.0000E+00    4.000000E+07  0.05000  3.198E-03    0   0.7618   age104_m72            0.0000     1.7998E+02    11.1004   3.0776   105.3225
 37      0.0000     0.0000E+00    0.0000E+00    1.015200E+08  0.05000  1.716E-03    0   0.7092   age116_m72            0.0000     3.1580E+02    13.1996   2.7014   113.7410
 38      0.0000     0.0000E+00    0.0000E+00    2.861200E+08  0.05000  7.047E-04    0   0.6618   age125_m72            0.0000     5.0995E+02    15.1489   1.7895   125.8891
 39      0.0000     0.0000E+00    0.0000E+00    6.405400E+08  0.05000  2.633E-04    0   0.6253   age132_m72            0.0000     2.7387E+02    11.4928   0.9775   126.6952
 40      0.0000     0.0000E+00    0.0000E+00    9.047900E+08  0.05000  1.484E-04    0   0.6088   age135_m72            0.0000     9.8275E+01     7.4240   0.5790   117.5585
 41      0.0000     0.0000E+00    0.0000E+00    1.434000E+09  0.05000  7.827E-05    0   0.5847   age139_m72            0.0000     4.7531E+01     5.3734   0.2264   112.0456
 42      0.0000     0.0000E+00    0.0000E+00    2.500000E+09  0.05000  3.759E-05    0   0.5583   age150_m72            0.0000     4.7669E+01     6.0815  -0.0840   110.5690
 43      0.0000     0.0000E+00    0.0000E+00    5.000000E+09  0.05000  1.548E-05    0   0.5320   age161_m72            0.0000     8.0243E+01     7.8869  -0.5240   111.0102
 44      0.0000     0.0000E+00    0.0000E+00    1.100000E+10  0.05000  6.532E-06    0   0.5070   age185_m72            0.0000     1.5079E+02    10.4708  -0.9706   113.1111
 45      0.0000     0.0000E+00    0.0000E+00    1.300000E+10  0.05000  5.316E-06    0   0.5018   age193_m72            0.0000     1.9268E+02    10.9166  -1.0000   111.6898


## Synthesis Results - Average & Chains ##

# j      x_j: min, <> & last-chain-values for 1 ...  7 chains
  1      1.3197      1.3416      1.3379      1.5164      1.3141      1.4671      1.2374      1.3954      1.2766
  2      2.3803      0.4884      0.6984      0.5771      0.6108      0.4969      0.6676      0.6195      0.6049
  3      0.0000      0.2777      0.1955      0.2610      0.4290      0.3391      0.5097      0.3651      0.1452
  4      2.3885      1.9418      2.2012      2.2407      2.1767      1.9743      2.1674      2.2193      2.0306
  5      0.0000      0.1039      0.0000      0.0000      0.0000      0.2882      0.0803      0.0000      0.2147
  6      0.0000      0.0233      0.0000      0.0000      0.0000      0.0000      0.0155      0.0000      0.0000
  7      0.0000      0.0150      0.0000      0.0000      0.0173      0.0000      0.0000      0.0000      0.0000
  8      0.0000      0.0094      0.0000      0.0000      0.0000      0.0000      0.0000      0.0297      0.0000
  9      0.0000      0.0150      0.0000      0.0000      0.0000      0.0000      0.0000      0.0424      0.0000
 10      0.0000      0.0254      0.0000      0.0000      0.0000      0.0000      0.0000      0.0000      0.0060
 11      0.0000      0.0383      0.0000      0.0000      0.0209      0.0000      0.0000      0.0000      0.0000
 12      0.0000      0.2416      0.3473      0.4635      0.1637      0.0000      0.0628      0.1097      0.1855
 13     23.9248     25.9249     26.2429     26.0485     26.1511     26.2197     25.7714     26.0988     26.1944
 14     68.5010     66.5613     66.7088     66.2362     66.6774     68.0095     67.2723     67.4349     66.8521
 15      0.0016      0.6449      0.1218      0.9097      0.1107      0.0000      0.3690      0.5352      0.5633
 16      0.0000      0.2028      0.2064      0.0835      0.1037      0.0000      0.0197      0.0000      0.2463
 17      0.0000      0.0256      0.0000      0.0226      0.0000      0.0000      0.0000      0.0000      0.0000
 18      0.0000      0.4808      0.5139      0.4713      0.6615      0.6124      0.4124      0.4630      0.5555
 19      0.0000      0.0341      0.0000      0.0000      0.0000      0.0000      0.0000      0.0695      0.0000
 20      0.0000      0.0140      0.0000      0.0000      0.0000      0.0000      0.0000      0.0000      0.0000
 21      0.0000      0.0124      0.0000      0.0000      0.0000      0.0000      0.0000      0.0000      0.0000
 22      0.0000      0.0122      0.0000      0.0000      0.0000      0.0000      0.0000      0.0000      0.0000
 23      0.0000      0.0054      0.0005      0.0000      0.0000      0.0000      0.0000      0.0000      0.0000
 24      0.0000      0.0074      0.0000      0.0000      0.0000      0.0000      0.0000      0.0000      0.0040
 25      0.0000      0.0189      0.0000      0.0000      0.0000      0.0000      0.0000      0.0000      0.0000
 26      0.0000      0.0330      0.0000      0.0000      0.0000      0.0000      0.0000      0.0000      0.0000
 27      0.0000      0.1338      0.0000      0.0989      0.0000      0.0000      0.0629      0.0791      0.0000
 28      2.0385      0.3258      0.7389      0.7497      0.0000      0.2552      0.3932      0.6328      0.4283
 29      0.0000      0.5366      0.5282      0.4141      0.5726      0.0854      0.5849      0.0014      0.4963
 30      0.0000      0.4458      0.5416      0.0000      0.2541      0.6260      0.3167      0.0000      0.0000
 31      0.0000      0.0186      0.0000      0.0000      0.0365      0.0000      0.0000      0.0000      0.0000
 32      0.0000      0.0841      0.2121      0.0306      0.0000      0.0000      0.0496      0.0000      0.1630
 33      0.0000      0.0752      0.0000      0.0000      0.0000      0.1332      0.2496      0.1976      0.0000
 34      0.0000      0.0175      0.0000      0.0000      0.0715      0.0000      0.0000      0.0000      0.0000
 35      0.0000      0.0123      0.0000      0.0000      0.0000      0.0000      0.0054      0.0000      0.0000
 36      0.0000      0.0079      0.0000      0.0000      0.0000      0.0000      0.0000      0.0000      0.0000
 37      0.0000      0.0063      0.0000      0.0000      0.0000      0.0000      0.0000      0.0000      0.0000
 38      0.0000      0.0036      0.0000      0.0000      0.0000      0.0000      0.0000      0.0000      0.0000
 39      0.0000      0.0113      0.0000      0.0000      0.0000      0.0000      0.0000      0.0000      0.0000
 40      0.0000      0.0388      0.0000      0.0000      0.0000      0.0000      0.0000      0.0000      0.0000
 41      0.0000      0.1040      0.0000      0.0000      0.0000      0.0000      0.0387      0.0000      0.0074
 42      0.0000      0.2409      0.0000      0.4226      1.2149      0.0000      0.2901      0.2242      0.5788
 43      0.0000      0.0336      0.0000      0.0000      0.0000      0.0000      0.0000      0.0000      0.0000
 44      0.0000      0.0128      0.0000      0.0000      0.0000      0.0000      0.0000      0.0000      0.0000
 45      0.0000      0.0097      0.0000      0.0000      0.0000      0.0000      0.0000      0.0000      0.0000

# j      m_j: min, <> & last-chain-values for 1 ...  7 chains
  1  6.3877E-03  6.4337E-03  6.4247E-03  7.3496E-03  6.3552E-03  7.0484E-03  5.9382E-03  6.7910E-03  6.1763E-03
  2  3.1507E-03  6.4057E-04  9.1720E-04  7.6492E-04  8.0785E-04  6.5291E-04  8.7613E-04  8.2452E-04  8.0040E-04
  3  0.0000E+00  5.5551E-04  3.9153E-04  5.2769E-04  8.6545E-04  6.7944E-04  1.0203E-03  7.4116E-04  2.9299E-04
  4  8.9794E-03  7.2331E-03  8.2100E-03  8.4352E-03  8.1766E-03  7.3672E-03  8.0786E-03  8.3895E-03  7.6308E-03
  5  0.0000E+00  8.9485E-04  0.0000E+00  0.0000E+00  0.0000E+00  2.4870E-03  6.9165E-04  0.0000E+00  1.8654E-03
  6  0.0000E+00  2.7876E-04  0.0000E+00  0.0000E+00  0.0000E+00  0.0000E+00  1.8599E-04  0.0000E+00  0.0000E+00
  7  0.0000E+00  2.5443E-04  0.0000E+00  0.0000E+00  2.9568E-04  0.0000E+00  0.0000E+00  0.0000E+00  0.0000E+00
  8  0.0000E+00  3.0825E-04  0.0000E+00  0.0000E+00  0.0000E+00  0.0000E+00  0.0000E+00  9.8589E-04  0.0000E+00
  9  0.0000E+00  9.7933E-04  0.0000E+00  0.0000E+00  0.0000E+00  0.0000E+00  0.0000E+00  2.8082E-03  0.0000E+00
 10  0.0000E+00  2.3153E-03  0.0000E+00  0.0000E+00  0.0000E+00  0.0000E+00  0.0000E+00  0.0000E+00  5.4922E-04
 11  0.0000E+00  6.1206E-03  0.0000E+00  0.0000E+00  3.3618E-03  0.0000E+00  0.0000E+00  0.0000E+00  0.0000E+00
 12  0.0000E+00  7.1820E-02  1.0339E-01  1.3924E-01  4.9087E-02  0.0000E+00  1.8678E-02  3.3104E-02  5.5642E-02
 13  1.4295E+01  1.5347E+01  1.5556E+01  1.5584E+01  1.5612E+01  1.5549E+01  1.5266E+01  1.5679E+01  1.5644E+01
 14  8.3418E+01  8.0309E+01  8.0595E+01  8.0769E+01  8.1130E+01  8.2205E+01  8.1221E+01  8.2572E+01  8.1377E+01
 15  2.2248E-03  9.0149E-01  1.7043E-01  1.2852E+00  1.5604E-01  0.0000E+00  5.1619E-01  7.5924E-01  7.9435E-01
 16  0.0000E+00  5.4469E-04  5.5521E-04  2.2667E-04  2.8084E-04  0.0000E+00  5.2960E-05  0.0000E+00  6.6745E-04
 17  0.0000E+00  3.5795E-05  0.0000E+00  3.1878E-05  0.0000E+00  0.0000E+00  0.0000E+00  0.0000E+00  0.0000E+00
 18  0.0000E+00  7.4360E-04  7.9583E-04  7.3661E-04  1.0317E-03  9.4888E-04  6.3817E-04  7.2672E-04  8.6675E-04
 19  0.0000E+00  1.5768E-04  0.0000E+00  0.0000E+00  0.0000E+00  0.0000E+00  0.0000E+00  3.2620E-04  0.0000E+00
 20  0.0000E+00  1.4351E-04  0.0000E+00  0.0000E+00  0.0000E+00  0.0000E+00  0.0000E+00  0.0000E+00  0.0000E+00
 21  0.0000E+00  1.5289E-04  0.0000E+00  0.0000E+00  0.0000E+00  0.0000E+00  0.0000E+00  0.0000E+00  0.0000E+00
 22  0.0000E+00  2.5106E-04  0.0000E+00  0.0000E+00  0.0000E+00  0.0000E+00  0.0000E+00  0.0000E+00  0.0000E+00
 23  0.0000E+00  2.1976E-04  2.0533E-05  0.0000E+00  0.0000E+00  0.0000E+00  0.0000E+00  0.0000E+00  0.0000E+00
 24  0.0000E+00  6.8760E-04  0.0000E+00  0.0000E+00  0.0000E+00  0.0000E+00  0.0000E+00  0.0000E+00  3.7579E-04
 25  0.0000E+00  2.6797E-03  0.0000E+00  0.0000E+00  0.0000E+00  0.0000E+00  0.0000E+00  0.0000E+00  0.0000E+00
 26  0.0000E+00  8.8618E-03  0.0000E+00  0.0000E+00  0.0000E+00  0.0000E+00  0.0000E+00  0.0000E+00  0.0000E+00
 27  0.0000E+00  7.2844E-02  0.0000E+00  5.4426E-02  0.0000E+00  0.0000E+00  3.4283E-02  4.3699E-02  0.0000E+00
 28  2.2664E+00  3.5894E-01  8.1503E-01  8.3464E-01  0.0000E+00  2.8164E-01  4.3341E-01  7.0739E-01  4.7605E-01
 29  0.0000E+00  1.2514E+00  1.2333E+00  9.7591E-01  1.3465E+00  1.9940E-01  1.3649E+00  3.3300E-03  1.1677E+00
 30  0.0000E+00  1.2402E+00  1.5089E+00  0.0000E+00  7.1281E-01  1.7448E+00  8.8164E-01  0.0000E+00  0.0000E+00
 31  0.0000E+00  3.7550E-05  0.0000E+00  0.0000E+00  7.4130E-05  0.0000E+00  0.0000E+00  0.0000E+00  0.0000E+00
 32  0.0000E+00  8.9298E-05  2.2559E-04  3.2844E-05  0.0000E+00  0.0000E+00  5.2690E-05  0.0000E+00  1.7467E-04
 33  0.0000E+00  1.1854E-04  0.0000E+00  0.0000E+00  0.0000E+00  2.1032E-04  3.9361E-04  3.1595E-04  0.0000E+00
