###################################################################
## OUTPUT of StarlightChains_v04.for    [Cid@UFSC - 01/Apr/2007] ##
###################################################################

## Some input info
NGC6652_b_1.cxt                          [arq_obs]
Base.BC03.N                              [arq_base]
NGC6652_b_1.msk                          [arq_masks]
StCv04.C99.config                        [arq_config]
   45                                    [N_base]
    0                                    [N_YAV_components = # of components with extra extinction!]
    0                                    [i_FitPowerLaw (1/0 = Yes/No)]
-9.99                                    [alpha_PowerLaw]
CCM                                      [red_law_option]
 1.458241                                [q_norm = A(l_norm)/A(V)]

## (Re)Sampling Parameters
 3359.00                                 [l_ini (A)]
 6428.00                                 [l_fin (A)]
    1.00                                 [dl    (A)]     (OBS: dl_cushion =    50.00 A)

## Normalization info
 4020.00                                 [l_norm (A) - for base]
 4010.00                                 [llow_norm (A) - window for f_obs]
 4060.00                                 [lupp_norm (A) - window for f_obs]
1.611308E-14                             [fobs_norm (in input units)]

## S/N
 4730.00                                 [llow_SN (A) - window for S/N]
 4780.00                                 [lupp_SN (A) - window for S/N]
  60.034                                 [S/N in S/N window]
  49.598                                 [S/N in norm. window]
  73.857                                 [S/N_err in S/N window]
  61.019                                 [S/N_err in norm. window]
  1.0000                                 [fscale_chi2]

## etc...
  2147483591                             [idum_orig]
  3066                                   [NOl_eff]
  1940                                   [Nl_eff]
  1126    NSIGMA                         [Ntot_cliped & clip_method]
  1155560                                [Nglobal_steps]
   7                                     [N_chains]
   7                                     [NEX0s_base = N_base in EX0s-fits]
 0   0   1      173   2.0   7.711E+02    [Clip-Bug, RC-Crash & Burn-In warning-flags, n_censored_weights, wei_nsig_threshold & wei_limit]
    18     18.393     18.389      0.004  [idt_all, wdt_TotTime, wdt_UsrTime & wdt_SysTime (sec)]

## Synthesis Results - Best model ##

 2.18375E+00                             [chi2/Nl_eff]
     1.78725                             [adev (%)]

   101.03662                             [sum-of-x (%)]
 1.89444E-14                             [Flux_tot (units of input spectrum!)]
 3.62838E-10                             [Mini_tot (???)]
 1.87516E-10                             [Mcor_tot (???)]

  26.36                                  [v0_min  (km/s)]
  53.69                                  [vd_min  (km/s)]
 0.1128                                  [AV_min  (mag)]
 0.0000                                  [YAV_min (mag)]

# j     x_j(%)      Mini_j(%)     Mcor_j(%)     age_j(yr)     Z_j      (L/M)_j    YAV?  Mstars   component_j        a/Fe...       SSP_chi2r SSP_adev(%)   SSP_AV   SSP_x(%)
  1      0.0000     0.0000E+00    0.0000E+00    1.000000E+06  0.00400  1.114E-02    0   1.0000   age020_m42            0.0000     2.2443E+02    14.4476   4.0000    70.4677
  2      0.0000     0.0000E+00    0.0000E+00    3.160000E+06  0.00400  4.073E-02    0   0.9999   age045_m42            0.0000     7.3445E+01     9.8470   3.0444    87.6039
  3      0.0000     0.0000E+00    0.0000E+00    5.010000E+06  0.00400  2.534E-02    0   0.9488   age055_m42            0.0000     1.2767E+02    12.9161   3.5610    78.1935
  4      0.0000     0.0000E+00    0.0000E+00    1.000000E+07  0.00400  1.271E-02    0   0.8862   age070_m42            0.0000     1.1382E+02    12.6349   2.7480    82.5197
  5      0.0000     0.0000E+00    0.0000E+00    2.512000E+07  0.00400  5.070E-03    0   0.8174   age090_m42            0.0000     1.0397E+02    12.0361   2.6141    84.0850
  6      0.0000     0.0000E+00    0.0000E+00    4.000000E+07  0.00400  3.505E-03    0   0.7851   age104_m42            0.0000     7.7449E+01    10.1695   2.2632    88.0379
  7      0.0000     0.0000E+00    0.0000E+00    1.015200E+08  0.00400  2.268E-03    0   0.7207   age116_m42            0.0000     1.1707E+02     8.1279   1.8979   110.3100
  8      0.0000     0.0000E+00    0.0000E+00    2.861200E+08  0.00400  1.079E-03    0   0.6613   age125_m42            0.0000     1.1670E+02     8.2404   1.3917   112.9162
  9      0.0000     0.0000E+00    0.0000E+00    6.405400E+08  0.00400  5.077E-04    0   0.6197   age132_m42            0.0000     1.2625E+02     8.5410   1.0030   118.3086
 10      3.4817     5.0896E-01    5.9326E-01    9.047900E+08  0.00400  3.535E-04    0   0.6024   age135_m42            0.0000     7.1640E+01     6.7631   0.8376   114.5495
 11     26.7268     7.2311E+00    7.9978E+00    1.434000E+09  0.00400  1.910E-04    0   0.5716   age139_m42            0.0000     2.2912E+01     4.1782   0.3902   109.7275
 12     33.3298     1.7543E+01    1.8544E+01    2.500000E+09  0.00400  9.818E-05    0   0.5463   age150_m42            0.0000     2.6798E+00     1.7854   0.2287   100.7073
 13      0.0000     0.0000E+00    0.0000E+00    5.000000E+09  0.00400  4.718E-05    0   0.5228   age161_m42            0.0000     7.9374E+00     2.6480   0.1229    95.2238
 14     29.6785     6.9554E+01    6.7024E+01    1.100000E+10  0.00400  2.205E-05    0   0.4980   age185_m42            0.0000     1.8898E+01     3.6976  -0.1133    92.1389
 15      0.0000     0.0000E+00    0.0000E+00    1.300000E+10  0.00400  1.883E-05    0   0.4927   age193_m42            0.0000     2.1976E+01     3.9449  -0.1235    91.7258
 16      0.0000     0.0000E+00    0.0000E+00    1.000000E+06  0.02000  1.989E-02    0   1.0000   age020_m62            0.0000     2.1738E+02    14.4446   4.0000    70.7654
 17      0.0000     0.0000E+00    0.0000E+00    3.160000E+06  0.02000  3.772E-02    0   0.9858   age045_m62            0.0000     1.9104E+02    15.1137   4.0000    71.6170
 18      0.0000     0.0000E+00    0.0000E+00    5.010000E+06  0.02000  3.227E-02    0   0.9342   age055_m62            0.0000     9.7279E+01    11.4349   3.3614    82.8238
 19      0.0000     0.0000E+00    0.0000E+00    1.000000E+07  0.02000  1.011E-02    0   0.8751   age070_m62            0.0000     2.0701E+02    16.4943   2.8928    75.2819
 20      0.0000     0.0000E+00    0.0000E+00    2.512000E+07  0.02000  4.206E-03    0   0.8099   age090_m62            0.0000     1.6965E+02    14.6684   2.8064    76.8942
 21      0.0000     0.0000E+00    0.0000E+00    4.000000E+07  0.02000  3.373E-03    0   0.7799   age104_m62            0.0000     7.2708E+01     9.7946   2.4451    90.7631
 22      0.0000     0.0000E+00    0.0000E+00    1.015200E+08  0.02000  1.878E-03    0   0.7221   age116_m62            0.0000     9.5729E+01     7.9699   1.9956   108.1571
 23      0.0000     0.0000E+00    0.0000E+00    2.861200E+08  0.02000  8.869E-04    0   0.6700   age125_m62            0.0000     2.1690E+02    10.7380   1.2830   122.6604
 24      0.0000     0.0000E+00    0.0000E+00    6.405400E+08  0.02000  3.657E-04    0   0.6322   age132_m62            0.0000     1.2394E+02     8.9361   0.6645   123.4487
 25      0.0000     0.0000E+00    0.0000E+00    9.047900E+08  0.02000  2.312E-04    0   0.6152   age135_m62            0.0000     5.6687E+01     6.3253   0.3825   118.6566
 26      0.0000     0.0000E+00    0.0000E+00    1.434000E+09  0.02000  1.168E-04    0   0.5865   age139_m62            0.0000     6.8152E+00     2.6173   0.1260   106.3707
 27      0.0000     0.0000E+00    0.0000E+00    2.500000E+09  0.02000  5.505E-05    0   0.5610   age150_m62            0.0000     8.5004E+00     3.0179  -0.1968   101.4338
 28      0.0000     0.0000E+00    0.0000E+00    5.000000E+09  0.02000  2.596E-05    0   0.5353   age161_m62            0.0000     2.6090E+01     4.7286  -0.5259   101.0136
 29      0.0000     0.0000E+00    0.0000E+00    1.100000E+10  0.02000  1.169E-05    0   0.5103   age185_m62            0.0000     5.2804E+01     6.5593  -0.9036   102.5250
 30      0.0000     0.0000E+00    0.0000E+00    1.300000E+10  0.02000  9.691E-06    0   0.5047   age193_m62            0.0000     5.8873E+01     6.8767  -0.9493   102.6761
 31      0.0000     0.0000E+00    0.0000E+00    1.000000E+06  0.05000  2.651E-02    0   0.9998   age020_m72            0.0000     2.0771E+02    13.9615   4.0000    71.7021
 32      0.0000     0.0000E+00    0.0000E+00    3.160000E+06  0.05000  4.817E-02    0   0.9577   age045_m72            0.0000     1.4994E+02    13.6237   3.8315    75.8742
 33      0.0000     0.0000E+00    0.0000E+00    5.010000E+06  0.05000  3.101E-02    0   0.9147   age055_m72            0.0000     1.4129E+02    13.3819   3.4656    78.5204
 34      0.0000     0.0000E+00    0.0000E+00    1.000000E+07  0.05000  8.954E-03    0   0.8524   age070_m72            0.0000     1.4245E+02    13.2285   3.7273    76.7129
 35      0.0000     0.0000E+00    0.0000E+00    2.512000E+07  0.05000  4.207E-03    0   0.7902   age090_m72            0.0000     8.5316E+01    10.4387   3.2012    84.7373
 36      0.0000     0.0000E+00    0.0000E+00    4.000000E+07  0.05000  3.198E-03    0   0.7618   age104_m72            0.0000     5.9713E+01     7.1797   2.4716    99.9669
 37      0.0000     0.0000E+00    0.0000E+00    1.015200E+08  0.05000  1.716E-03    0   0.7092   age116_m72            0.0000     1.1353E+02     8.3071   2.0422   109.7632
 38      0.0000     0.0000E+00    0.0000E+00    2.861200E+08  0.05000  7.047E-04    0   0.6618   age125_m72            0.0000     2.0819E+02    10.8608   1.0592   123.5624
 39      0.0000     0.0000E+00    0.0000E+00    6.405400E+08  0.05000  2.633E-04    0   0.6253   age132_m72            0.0000     8.6795E+01     7.8605   0.3108   121.4799
 40      0.0000     0.0000E+00    0.0000E+00    9.047900E+08  0.05000  1.484E-04    0   0.6088   age135_m72            0.0000     1.7921E+01     4.0065  -0.0221   110.1365
 41      7.8198     5.1629E+00    5.8412E+00    1.434000E+09  0.05000  7.827E-05    0   0.5847   age139_m72            0.0000     1.3679E+01     3.7741  -0.3338   103.4763
 42      0.0000     0.0000E+00    0.0000E+00    2.500000E+09  0.05000  3.759E-05    0   0.5583   age150_m72            0.0000     2.9795E+01     5.0617  -0.6228   101.2787
 43      0.0000     0.0000E+00    0.0000E+00    5.000000E+09  0.05000  1.548E-05    0   0.5320   age161_m72            0.0000     5.4829E+01     6.7425  -1.0000   100.0464
 44      0.0000     0.0000E+00    0.0000E+00    1.100000E+10  0.05000  6.532E-06    0   0.5070   age185_m72            0.0000     1.6238E+02    12.0752  -1.0000    93.1885
 45      0.0000     0.0000E+00    0.0000E+00    1.300000E+10  0.05000  5.316E-06    0   0.5018   age193_m72            0.0000     2.2845E+02    14.1906  -1.0000    90.8290


## Synthesis Results - Average & Chains ##

# j      x_j: min, <> & last-chain-values for 1 ...  7 chains
  1      0.0000      0.0016      0.0000      0.0000      0.0000      0.0000      0.0000      0.0000      0.0000
  2      0.0000      0.0282      0.0243      0.0000      0.0000      0.1654      0.0000      0.0001      0.0000
  3      0.0000      0.0040      0.0000      0.0000      0.0000      0.0000      0.0000      0.0000      0.0000
  4      0.0000      0.0168      0.0000      0.0000      0.0000      0.0000      0.0000      0.0000      0.0000
  5      0.0000      0.0134      0.0000      0.0000      0.0000      0.0000      0.0000      0.0000      0.0000
  6      0.0000      0.0174      0.0000      0.0000      0.0000      0.0000      0.0000      0.0000      0.0000
  7      0.0000      0.1371      0.1958      0.1356      0.0000      0.4548      0.2753      0.0000      0.0000
  8      0.0000      0.0975      0.0000      0.0000      0.0000      0.0000      0.0000      0.0308      0.0000
  9      0.0000      0.3192      0.1596      0.0510      0.0000      0.0000      0.8435      0.4185      0.0000
 10      3.4817      7.9823      7.8297      6.5513      6.7562      7.5565      7.8364      7.1738      7.8517
 11     26.7268     31.2850     29.5271     31.7261     31.8245     30.2060     29.6402     31.3168     31.0300
 12     33.3298      8.8549     14.6883     14.0031     16.1524     13.1210     12.6367     11.1801     14.7854
 13      0.0000      2.6075      2.5204      3.6801      2.0194      3.3676      2.3324      4.6514      2.5150
 14     29.6785     41.5673     38.5700     37.3498     36.9767     37.3731     39.8039     39.1142     38.3077
 15      0.0000      0.1827      0.3822      0.2338      0.4173      0.0000      0.0000      0.0000      0.0000
 16      0.0000      0.0008      0.0000      0.0000      0.0000      0.0000      0.0000      0.0000      0.0000
 17      0.0000      0.0023      0.0000      0.0000      0.0000      0.0000      0.0000      0.0000      0.0000
 18      0.0000      0.0124      0.0000      0.0000      0.0000      0.0000      0.0000      0.0000      0.0000
 19      0.0000      0.0034      0.0000      0.0000      0.0000      0.0000      0.0000      0.0000      0.0000
 20      0.0000      0.0031      0.0000      0.0000      0.0000      0.0000      0.0000      0.0000      0.0000
 21      0.0000      0.0069      0.0000      0.0000      0.0000      0.0000      0.0000      0.0000      0.0000
 22      0.0000      0.0277      0.0000      0.0000      0.0000      0.0000      0.0000      0.0000      0.0000
 23      0.0000      0.0161      0.0000      0.0000      0.0000      0.0000      0.0000      0.0000      0.0000
 24      0.0000      0.0301      0.0000      0.0000      0.0000      0.0000      0.0000      0.0000      0.0000
 25      0.0000      0.1034      0.1150      0.0000      0.0000      0.0519      0.0000      0.0044      0.0000
 26      0.0000      0.5571      0.0000      0.0299      0.6019      0.4113      0.0512      0.0000      0.0000
 27      0.0000      1.0758      0.9472      0.7121      1.2282      0.8327      1.2408      1.1573      1.0250
 28      0.0000      0.7240      1.3809      0.7652      0.6547      0.9758      0.5541      0.9273      0.7245
 29      0.0000      0.0636      0.0000      0.1045      0.0000      0.0000      0.0000      0.0122      0.0757
 30      0.0000      0.0589      0.0000      0.0000      0.5794      0.0000      0.0000      0.0146      0.0000
 31      0.0000      0.0030      0.0000      0.0000      0.0000      0.0000      0.0000      0.0000      0.0000
 32      0.0000      0.0031      0.0000      0.0000      0.0000      0.0000      0.0000      0.0000      0.0000
 33      0.0000      0.0043      0.0000      0.0000      0.0000      0.0000      0.0325      0.0000      0.0000
 34      0.0000      0.0026      0.0000      0.0000      0.0000      0.0000      0.0000      0.0000      0.0000
 35      0.0000      0.0038      0.0000      0.0000      0.0000      0.0000      0.0000      0.0000      0.0000
 36      0.0000      0.0240      0.0000      0.0000      0.0000      0.0000      0.0000      0.0000      0.0000
 37      0.0000      0.0253      0.0000      0.0000      0.0000      0.1046      0.0000      0.0000      0.0078
 38      0.0000      0.0379      0.0000      0.0000      0.0000      0.0000      0.0000      0.0000      0.0000
 39      0.0000      0.9568      0.9796      0.6843      0.0248      0.3855      0.3597      0.9734      0.0000
 40      0.0000      0.4520      0.0865      0.0000      0.0000      0.0000      0.0000      0.0000      0.0000
 41      7.8198      2.8608      2.7768      4.1637      3.5376      5.3018      5.0998      3.5984      3.9809
 42      0.0000      0.7934      0.8157      0.8443      0.2784      0.7753      0.3561      0.4005      0.7086
 43      0.0000      0.0301      0.0000      0.0000      0.0000      0.0000      0.0000      0.0000      0.0000
 44      0.0000      0.0190      0.0000      0.0000      0.0000      0.0000      0.0007      0.0000      0.0000
 45      0.0000      0.0109      0.0296      0.0000      0.0527      0.0000      0.0000      0.0000      0.0000

# j      m_j: min, <> & last-chain-values for 1 ...  7 chains
  1  0.0000E+00  1.2024E-05  0.0000E+00  0.0000E+00  0.0000E+00  0.0000E+00  0.0000E+00  0.0000E+00  0.0000E+00
  2  0.0000E+00  5.7460E-05  5.1015E-05  0.0000E+00  0.0000E+00  3.5592E-04  0.0000E+00  1.4076E-07  0.0000E+00
  3  0.0000E+00  1.2331E-05  0.0000E+00  0.0000E+00  0.0000E+00  0.0000E+00  0.0000E+00  0.0000E+00  0.0000E+00
  4  0.0000E+00  9.7300E-05  0.0000E+00  0.0000E+00  0.0000E+00  0.0000E+00  0.0000E+00  0.0000E+00  0.0000E+00
  5  0.0000E+00  1.7987E-04  0.0000E+00  0.0000E+00  0.0000E+00  0.0000E+00  0.0000E+00  0.0000E+00  0.0000E+00
  6  0.0000E+00  3.2267E-04  0.0000E+00  0.0000E+00  0.0000E+00  0.0000E+00  0.0000E+00  0.0000E+00  0.0000E+00
  7  0.0000E+00  3.6155E-03  5.3201E-03  3.7546E-03  0.0000E+00  1.2668E-02  7.4968E-03  0.0000E+00  0.0000E+00
  8  0.0000E+00  4.9570E-03  0.0000E+00  0.0000E+00  0.0000E+00  0.0000E+00  0.0000E+00  1.6135E-03  0.0000E+00
  9  0.0000E+00  3.2332E-02  1.6660E-02  5.4285E-03  0.0000E+00  0.0000E+00  8.8231E-02  4.3625E-02  0.0000E+00
 10  5.9326E-01  1.1286E+00  1.1409E+00  9.7283E-01  9.9265E-01  1.1289E+00  1.1444E+00  1.0440E+00  1.1630E+00
 11  7.9978E+00  7.7683E+00  7.5558E+00  8.2735E+00  8.2114E+00  7.9246E+00  7.6014E+00  8.0036E+00  8.0714E+00
 12  1.8544E+01  4.0881E+00  6.9885E+00  6.7896E+00  7.7489E+00  6.4003E+00  6.0256E+00  5.3126E+00  7.1507E+00
 13  0.0000E+00  2.3973E+00  2.3881E+00  3.5535E+00  1.9293E+00  3.2713E+00  2.2148E+00  4.4016E+00  2.4223E+00
 14  6.7024E+01  7.7894E+01  7.4486E+01  7.3506E+01  7.2002E+01  7.3995E+01  7.7037E+01  7.5441E+01  7.5199E+01
 15  0.0000E+00  3.9656E-01  8.5522E-01  5.3301E-01  9.4139E-01  0.0000E+00  0.0000E+00  0.0000E+00  0.0000E+00
 16  0.0000E+00  3.4375E-06  0.0000E+00  0.0000E+00  0.0000E+00  0.0000E+00  0.0000E+00  0.0000E+00  0.0000E+00
 17  0.0000E+00  4.9537E-06  0.0000E+00  0.0000E+00  0.0000E+00  0.0000E+00  0.0000E+00  0.0000E+00  0.0000E+00
 18  0.0000E+00  2.9890E-05  0.0000E+00  0.0000E+00  0.0000E+00  0.0000E+00  0.0000E+00  0.0000E+00  0.0000E+00
 19  0.0000E+00  2.4430E-05  0.0000E+00  0.0000E+00  0.0000E+00  0.0000E+00  0.0000E+00  0.0000E+00  0.0000E+00
 20  0.0000E+00  4.9290E-05  0.0000E+00  0.0000E+00  0.0000E+00  0.0000E+00  0.0000E+00  0.0000E+00  0.0000E+00
 21  0.0000E+00  1.3292E-04  0.0000E+00  0.0000E+00  0.0000E+00  0.0000E+00  0.0000E+00  0.0000E+00  0.0000E+00
 22  0.0000E+00  8.8487E-04  0.0000E+00  0.0000E+00  0.0000E+00  0.0000E+00  0.0000E+00  0.0000E+00  0.0000E+00
 23  0.0000E+00  1.0070E-03  0.0000E+00  0.0000E+00  0.0000E+00  0.0000E+00  0.0000E+00  0.0000E+00  0.0000E+00
 24  0.0000E+00  4.3129E-03  0.0000E+00  0.0000E+00  0.0000E+00  0.0000E+00  0.0000E+00  0.0000E+00  0.0000E+00
 25  0.0000E+00  2.2820E-02  2.6167E-02  0.0000E+00  0.0000E+00  1.2105E-02  0.0000E+00  9.9209E-04  0.0000E+00
 26  0.0000E+00  2.3211E-01  0.0000E+00  1.3077E-02  2.6057E-01  1.8104E-01  2.2017E-02  0.0000E+00  0.0000E+00
 27  0.0000E+00  9.0961E-01  8.2536E-01  6.3233E-01  1.0791E+00  7.4393E-01  1.0835E+00  1.0071E+00  9.0791E-01
 28  0.0000E+00  1.2387E+00  2.4348E+00  1.3749E+00  1.1640E+00  1.7640E+00  9.7906E-01  1.6330E+00  1.2986E+00
 29  0.0000E+00  2.3034E-01  0.0000E+00  3.9766E-01  0.0000E+00  0.0000E+00  0.0000E+00  4.5381E-02  2.8722E-01
 30  0.0000E+00  2.5466E-01  0.0000E+00  0.0000E+00  2.6015E+00  0.0000E+00  0.0000E+00  6.4838E-02  0.0000E+00
 31  0.0000E+00  9.4229E-06  0.0000E+00  0.0000E+00  0.0000E+00  0.0000E+00  0.0000E+00  0.0000E+00  0.0000E+00
 32  0.0000E+00  5.1104E-06  0.0000E+00  0.0000E+00  0.0000E+00  0.0000E+00  0.0000E+00  0.0000E+00  0.0000E+00
 33  0.0000E+00  1.0580E-05  0.0000E+00  0.0000E+00  0.0000E+00  0.0000E+00  8.2127E-05  0.0000E+00  0.0000E+00
