###################################################################
## OUTPUT of StarlightChains_v04.for    [Cid@UFSC - 01/Apr/2007] ##
###################################################################

## Some input info
NGC6553_a_1.cxt                          [arq_obs]
Base.BC03.N                              [arq_base]
NGC6553_a_1.msk                          [arq_masks]
StCv04.C99.config                        [arq_config]
   45                                    [N_base]
    0                                    [N_YAV_components = # of components with extra extinction!]
    0                                    [i_FitPowerLaw (1/0 = Yes/No)]
-9.99                                    [alpha_PowerLaw]
CCM                                      [red_law_option]
 1.458241                                [q_norm = A(l_norm)/A(V)]

## (Re)Sampling Parameters
 3359.00                                 [l_ini (A)]
 6428.00                                 [l_fin (A)]
    1.00                                 [dl    (A)]     (OBS: dl_cushion =    50.00 A)

## Normalization info
 4020.00                                 [l_norm (A) - for base]
 4010.00                                 [llow_norm (A) - window for f_obs]
 4060.00                                 [lupp_norm (A) - window for f_obs]
3.120735E-15                             [fobs_norm (in input units)]

## S/N
 4730.00                                 [llow_SN (A) - window for S/N]
 4780.00                                 [lupp_SN (A) - window for S/N]
  23.083                                 [S/N in S/N window]
  11.394                                 [S/N in norm. window]
 239.013                                 [S/N_err in S/N window]
 117.980                                 [S/N_err in norm. window]
  1.0000                                 [fscale_chi2]

## etc...
  2147483599                             [idum_orig]
  3066                                   [NOl_eff]
  1746                                   [Nl_eff]
  1320    NSIGMA                         [Ntot_cliped & clip_method]
  2142000                                [Nglobal_steps]
   7                                     [N_chains]
  15                                     [NEX0s_base = N_base in EX0s-fits]
 0   0   1       98   2.0   2.803E+02    [Clip-Bug, RC-Crash & Burn-In warning-flags, n_censored_weights, wei_nsig_threshold & wei_limit]
    33     32.319     32.311      0.008  [idt_all, wdt_TotTime, wdt_UsrTime & wdt_SysTime (sec)]

## Synthesis Results - Best model ##

 2.39724E+00                             [chi2/Nl_eff]
     2.27863                             [adev (%)]

    96.17331                             [sum-of-x (%)]
 9.28545E-14                             [Flux_tot (units of input spectrum!)]
 5.61131E-09                             [Mini_tot (???)]
 2.83191E-09                             [Mcor_tot (???)]

 -23.29                                  [v0_min  (km/s)]
   4.07                                  [vd_min  (km/s)]
 2.5553                                  [AV_min  (mag)]
 0.0000                                  [YAV_min (mag)]

# j     x_j(%)      Mini_j(%)     Mcor_j(%)     age_j(yr)     Z_j      (L/M)_j    YAV?  Mstars   component_j        a/Fe...       SSP_chi2r SSP_adev(%)   SSP_AV   SSP_x(%)
  1      9.9958     1.5439E-02    3.0592E-02    1.000000E+06  0.00400  1.114E-02    0   1.0000   age020_m42            0.0000     2.0133E+03    47.2294   4.0000   115.2728
  2      5.8934     2.4896E-03    4.9326E-03    3.160000E+06  0.00400  4.073E-02    0   0.9999   age045_m42            0.0000     6.6817E+02    28.0395   4.0000   118.6581
  3      5.6520     3.8378E-03    7.2150E-03    5.010000E+06  0.00400  2.534E-02    0   0.9488   age055_m42            0.0000     1.1331E+03    36.3441   4.0000   118.6651
  4      5.3379     7.2262E-03    1.2689E-02    1.000000E+07  0.00400  1.271E-02    0   0.8862   age070_m42            0.0000     4.0994E+02    20.2105   4.0000   111.1142
  5      0.0000     0.0000E+00    0.0000E+00    2.512000E+07  0.00400  5.070E-03    0   0.8174   age090_m42            0.0000     3.0917E+02    17.3756   4.0000   110.2947
  6      0.0000     0.0000E+00    0.0000E+00    4.000000E+07  0.00400  3.505E-03    0   0.7851   age104_m42            0.0000     1.5652E+02    11.2593   4.0000   105.9938
  7      0.0000     0.0000E+00    0.0000E+00    1.015200E+08  0.00400  2.268E-03    0   0.7207   age116_m42            0.0000     3.3275E+02    17.1917   4.0000   111.7360
  8      0.0000     0.0000E+00    0.0000E+00    2.861200E+08  0.00400  1.079E-03    0   0.6613   age125_m42            0.0000     2.9045E+02    12.3258   3.9342   102.9720
  9      0.0000     0.0000E+00    0.0000E+00    6.405400E+08  0.00400  5.077E-04    0   0.6197   age132_m42            0.0000     2.9710E+02    12.5575   3.5743   107.0067
 10      0.0000     0.0000E+00    0.0000E+00    9.047900E+08  0.00400  3.535E-04    0   0.6024   age135_m42            0.0000     2.3467E+02    11.7448   3.3230   106.7463
 11      0.0000     0.0000E+00    0.0000E+00    1.434000E+09  0.00400  1.910E-04    0   0.5716   age139_m42            0.0000     1.5232E+02    10.8270   2.7959   105.2346
 12      0.0000     0.0000E+00    0.0000E+00    2.500000E+09  0.00400  9.818E-05    0   0.5463   age150_m42            0.0000     9.1258E+01    10.0130   2.4789   101.7116
 13      0.0000     0.0000E+00    0.0000E+00    5.000000E+09  0.00400  4.718E-05    0   0.5228   age161_m42            0.0000     6.5507E+01     9.2159   2.3016    99.0182
 14      4.0683     3.1746E+00    3.1326E+00    1.100000E+10  0.00400  2.205E-05    0   0.4980   age185_m42            0.0000     7.2349E+01     9.9851   2.0391    96.5356
 15     10.7355     9.8097E+00    9.5768E+00    1.300000E+10  0.00400  1.883E-05    0   0.4927   age193_m42            0.0000     7.3874E+01    10.0067   2.0235    96.3781
 16      6.0359     5.2215E-03    1.0346E-02    1.000000E+06  0.02000  1.989E-02    0   1.0000   age020_m62            0.0000     1.9554E+03    46.4173   4.0000   116.2023
 17      2.0572     9.3841E-04    1.8330E-03    3.160000E+06  0.02000  3.772E-02    0   0.9858   age045_m62            0.0000     1.7330E+03    43.9389   4.0000   117.9167
 18      0.0000     0.0000E+00    0.0000E+00    5.010000E+06  0.02000  3.227E-02    0   0.9342   age055_m62            0.0000     9.5763E+02    33.5808   4.0000   119.8149
 19      2.8368     4.8280E-03    8.3716E-03    1.000000E+07  0.02000  1.011E-02    0   0.8751   age070_m62            0.0000     4.8484E+02    20.0056   4.0000   110.3391
 20      0.0000     0.0000E+00    0.0000E+00    2.512000E+07  0.02000  4.206E-03    0   0.8099   age090_m62            0.0000     3.7207E+02    18.8040   4.0000   108.6834
 21      0.0000     0.0000E+00    0.0000E+00    4.000000E+07  0.02000  3.373E-03    0   0.7799   age104_m62            0.0000     2.7562E+02    15.8371   4.0000   111.8708
 22      0.0000     0.0000E+00    0.0000E+00    1.015200E+08  0.02000  1.878E-03    0   0.7221   age116_m62            0.0000     3.2770E+02    16.6168   4.0000   113.7233
 23      0.0000     0.0000E+00    0.0000E+00    2.861200E+08  0.02000  8.869E-04    0   0.6700   age125_m62            0.0000     3.7986E+02    13.2625   3.9828   106.6933
 24      0.0000     0.0000E+00    0.0000E+00    6.405400E+08  0.02000  3.657E-04    0   0.6322   age132_m62            0.0000     2.9476E+02    13.5726   3.2778   109.4352
 25      0.0000     0.0000E+00    0.0000E+00    9.047900E+08  0.02000  2.312E-04    0   0.6152   age135_m62            0.0000     2.1263E+02    12.7178   2.8840   109.1258
 26      0.0000     0.0000E+00    0.0000E+00    1.434000E+09  0.02000  1.168E-04    0   0.5865   age139_m62            0.0000     1.1783E+02    11.1276   2.4250   104.9916
 27      0.0000     0.0000E+00    0.0000E+00    2.500000E+09  0.02000  5.505E-05    0   0.5610   age150_m62            0.0000     9.5801E+01    11.2410   2.0354   102.4493
 28      0.0000     0.0000E+00    0.0000E+00    5.000000E+09  0.02000  2.596E-05    0   0.5353   age161_m62            0.0000     1.2470E+02    12.7088   1.7037   101.6665
 29     11.2480     1.6556E+01    1.6740E+01    1.100000E+10  0.02000  1.169E-05    0   0.5103   age185_m62            0.0000     1.7964E+02    14.1667   1.3556   102.0019
 30     14.1697     2.5158E+01    2.5159E+01    1.300000E+10  0.02000  9.691E-06    0   0.5047   age193_m62            0.0000     1.9145E+02    14.3536   1.3155   102.0131
 31      2.0301     1.3176E-03    2.6103E-03    1.000000E+06  0.05000  2.651E-02    0   0.9998   age020_m72            0.0000     1.9131E+03    46.3278   4.0000   117.4410
 32      0.0004     1.3074E-07    2.4809E-07    3.160000E+06  0.05000  4.817E-02    0   0.9577   age045_m72            0.0000     1.4394E+03    40.9997   4.0000   120.2332
 33      0.0000     0.0000E+00    0.0000E+00    5.010000E+06  0.05000  3.101E-02    0   0.9147   age055_m72            0.0000     9.9019E+02    33.8015   4.0000   119.1679
 34      0.0000     0.0000E+00    0.0000E+00    1.000000E+07  0.05000  8.954E-03    0   0.8524   age070_m72            0.0000     1.2356E+03    38.2926   4.0000   120.7419
 35      0.0000     0.0000E+00    0.0000E+00    2.512000E+07  0.05000  4.207E-03    0   0.7902   age090_m72            0.0000     7.1158E+02    29.4935   4.0000   120.0996
 36      0.0000     0.0000E+00    0.0000E+00    4.000000E+07  0.05000  3.198E-03    0   0.7618   age104_m72            0.0000     4.2000E+02    20.5954   4.0000   117.7218
 37      0.0000     0.0000E+00    0.0000E+00    1.015200E+08  0.05000  1.716E-03    0   0.7092   age116_m72            0.0000     3.8747E+02    18.3221   4.0000   115.6746
 38      0.0000     0.0000E+00    0.0000E+00    2.861200E+08  0.05000  7.047E-04    0   0.6618   age125_m72            0.0000     3.6372E+02    13.4802   3.7775   106.6150
 39      0.0000     0.0000E+00    0.0000E+00    6.405400E+08  0.05000  2.633E-04    0   0.6253   age132_m72            0.0000     2.4223E+02    12.9396   2.9128   108.4446
 40      0.0000     0.0000E+00    0.0000E+00    9.047900E+08  0.05000  1.484E-04    0   0.6088   age135_m72            0.0000     1.5163E+02    12.1863   2.3880   104.5076
 41      0.0000     0.0000E+00    0.0000E+00    1.434000E+09  0.05000  7.827E-05    0   0.5847   age139_m72            0.0000     1.2433E+02    12.5644   1.9609   101.7242
 42      0.0000     0.0000E+00    0.0000E+00    2.500000E+09  0.05000  3.759E-05    0   0.5583   age150_m72            0.0000     1.3560E+02    13.1660   1.6275   101.0631
 43      0.0000     0.0000E+00    0.0000E+00    5.000000E+09  0.05000  1.548E-05    0   0.5320   age161_m72            0.0000     1.8845E+02    13.5470   1.2729    99.2224
 44     11.4343     3.0119E+01    3.0258E+01    1.100000E+10  0.05000  6.532E-06    0   0.5070   age185_m72            0.0000     2.8718E+02    15.4575   0.9358    97.0312
 45      4.6780     1.5141E+01    1.5055E+01    1.300000E+10  0.05000  5.316E-06    0   0.5018   age193_m72            0.0000     3.3032E+02    16.2323   0.8345    96.3098


## Synthesis Results - Average & Chains ##

# j      x_j: min, <> & last-chain-values for 1 ...  7 chains
  1      9.9958      9.5105      9.7266      9.7243      9.4940      9.2881      9.5939      9.5175      9.4597
  2      5.8934      3.0478      3.2210      3.2867      3.2716      3.2710      3.3498      3.1267      3.2759
  3      5.6520      5.3879      5.2951      5.3718      5.5672      5.5707      5.7819      5.5133      5.2660
  4      5.3379      5.0290      5.2244      4.9683      5.0843      4.9571      5.1656      5.2528      5.0060
  5      0.0000      0.0745      0.0717      0.0000      0.0699      0.0000      0.0000      0.0000      0.0000
  6      0.0000      0.0515      0.0000      0.0125      0.1366      0.2226      0.0364      0.2237      0.0437
  7      0.0000      0.0453      0.0000      0.3977      0.0610      0.0000      0.0939      0.0472      0.1385
  8      0.0000      0.0938      0.1255      0.0647      0.1901      0.0753      0.1881      0.2456      0.3000
  9      0.0000      0.0497      0.1317      0.0813      0.0222      0.1968      0.0000      0.1380      0.0150
 10      0.0000      0.0542      0.0000      0.0000      0.0000      0.0000      0.0196      0.0597      0.0000
 11      0.0000      0.0595      0.1970      0.0000      0.0889      0.2153      0.0000      0.0000      0.0000
 12      0.0000      0.0462      0.0287      0.0000      0.0000      0.0000      0.1446      0.0000      0.0000
 13      0.0000      0.0510      0.0000      0.0000      0.1421      0.0000      0.0000      0.0000      0.0309
 14      4.0683      4.5296      4.3463      4.6550      4.2388      4.5325      4.0323      4.3647      4.1280
 15     10.7355      9.4797      9.5899      9.3697      9.3471      9.6172      9.3535      9.5481      9.8517
 16      6.0359      5.3999      5.3535      5.2744      5.3265      5.5901      5.3594      5.5020      5.3871
 17      2.0572      2.8706      2.8699      3.0580      2.7730      2.8016      2.7502      3.0603      2.9418
 18      0.0000      0.0284      0.0000      0.0000      0.0102      0.0000      0.1357      0.1238      0.0000
 19      2.8368      2.3818      2.5619      2.3482      2.4084      2.3940      2.3736      2.4333      2.4944
 20      0.0000      0.0258      0.0000      0.0000      0.0191      0.1998      0.0000      0.0000      0.0000
 21      0.0000      0.0389      0.0000      0.0043      0.1074      0.0000      0.1723      0.0000      0.1463
 22      0.0000      0.0380      0.0000      0.0000      0.0243      0.0180      0.0578      0.0000      0.0000
 23      0.0000      0.0443      0.0000      0.1115      0.0887      0.0636      0.0000      0.0000      0.0000
 24      0.0000      0.0329      0.0814      0.0000      0.0000      0.0000      0.0000      0.0000      0.3044
 25      0.0000      0.0241      0.0000      0.0171      0.0107      0.0000      0.0000      0.0000      0.0000
 26      0.0000      0.0201      0.0000      0.0000      0.0000      0.0000      0.0000      0.0000      0.0387
 27      0.0000      0.0162      0.0000      0.0000      0.0000      0.0000      0.0000      0.0000      0.0000
 28      0.0000      0.0154      0.0000      0.0000      0.0000      0.0000      0.0000      0.0000      0.0000
 29     11.2480     13.3124     13.0081     12.8830     12.9693     13.2208     12.9363     13.0507     12.9733
 30     14.1697     15.1763     15.0841     15.2722     15.1426     14.4347     15.3898     15.2175     14.7705
 31      2.0301      2.3243      2.3546      2.2073      2.2690      2.3021      2.2116      1.9404      2.4971
 32      0.0004      2.4439      2.0180      2.3782      2.4999      2.3669      2.1176      2.2225      2.3098
 33      0.0000      0.0200      0.0117      0.0000      0.0000      0.0000      0.0000      0.0000      0.0000
 34      0.0000      0.0145      0.0000      0.0000      0.0000      0.0000      0.0622      0.0000      0.0000
 35      0.0000      0.0241      0.0000      0.0043      0.0000      0.0000      0.0408      0.0000      0.0039
 36      0.0000      0.0415      0.0765      0.0000      0.0000      0.0000      0.0000      0.0000      0.0000
 37      0.0000      0.0594      0.1472      0.0000      0.0802      0.0000      0.0000      0.0893      0.0000
 38      0.0000      0.0377      0.0000      0.1649      0.0000      0.0162      0.0000      0.0000      0.0000
 39      0.0000      0.0414      0.0000      0.0000      0.0000      0.0000      0.0246      0.0000      0.0000
 40      0.0000      0.0359      0.0000      0.0000      0.0000      0.0126      0.0363      0.0000      0.0000
 41      0.0000      0.0171      0.0000      0.0000      0.0000      0.0000      0.0000      0.0000      0.0000
 42      0.0000      0.0144      0.0000      0.0000      0.0000      0.0000      0.0000      0.0000      0.0000
 43      0.0000      0.8454      1.2419      0.7749      1.0303      1.1728      0.9757      0.9438      0.8614
 44     11.4343      9.6765      9.7054      9.8083      9.9466      9.8599     10.0414      9.8360      9.9044
 45      4.6780      3.8213      3.8486      4.1262      3.9140      3.9216      3.8894      3.8783      4.1867

# j      m_j: min, <> & last-chain-values for 1 ...  7 chains
  1  3.0592E-02  2.9772E-02  3.0473E-02  3.0224E-02  2.9629E-02  2.9132E-02  2.9846E-02  2.9713E-02  2.9448E-02
  2  4.9326E-03  2.6093E-03  2.7598E-03  2.7937E-03  2.7922E-03  2.8058E-03  2.8499E-03  2.6696E-03  2.7889E-03
  3  7.2150E-03  7.0353E-03  6.9196E-03  6.9640E-03  7.2471E-03  7.2880E-03  7.5027E-03  7.1795E-03  6.8376E-03
  4  1.2689E-02  1.2228E-02  1.2714E-02  1.1994E-02  1.2325E-02  1.2077E-02  1.2482E-02  1.2738E-02  1.2104E-02
  5  0.0000E+00  4.1867E-04  4.0347E-04  0.0000E+00  3.9188E-04  0.0000E+00  0.0000E+00  0.0000E+00  0.0000E+00
  6  0.0000E+00  4.0193E-04  0.0000E+00  9.7249E-05  1.0634E-03  1.7423E-03  2.8274E-04  1.7424E-03  3.3925E-04
  7  0.0000E+00  5.0154E-04  0.0000E+00  4.3756E-03  6.7388E-04  0.0000E+00  1.0337E-03  5.2111E-04  1.5267E-03
  8  0.0000E+00  2.0052E-03  2.6837E-03  1.3731E-03  4.0510E-03  1.6132E-03  3.9943E-03  5.2354E-03  6.3752E-03
  9  0.0000E+00  2.1136E-03  5.6119E-03  3.4379E-03  9.4226E-04  8.3930E-03  0.0000E+00  5.8591E-03  6.3319E-04
 10  0.0000E+00  3.2214E-03  0.0000E+00  0.0000E+00  0.0000E+00  0.0000E+00  1.1557E-03  3.5374E-03  0.0000E+00
 11  0.0000E+00  6.2139E-03  2.0576E-02  0.0000E+00  9.2528E-03  2.2516E-02  0.0000E+00  0.0000E+00  0.0000E+00
 12  0.0000E+00  8.9630E-03  5.5722E-03  0.0000E+00  0.0000E+00  0.0000E+00  2.7891E-02  0.0000E+00  0.0000E+00
 13  0.0000E+00  1.9714E-02  0.0000E+00  0.0000E+00  5.4735E-02  0.0000E+00  0.0000E+00  0.0000E+00  1.1878E-02
 14  3.1326E+00  3.5676E+00  3.4260E+00  3.6401E+00  3.3283E+00  3.5768E+00  3.1561E+00  3.4284E+00  3.2331E+00
 15  9.5768E+00  8.6501E+00  8.7577E+00  8.4885E+00  8.5029E+00  8.7926E+00  8.4816E+00  8.6889E+00  8.9392E+00
 16  1.0346E-02  9.4678E-03  9.3939E-03  9.1814E-03  9.3103E-03  9.8202E-03  9.3380E-03  9.6205E-03  9.3924E-03
 17  1.8330E-03  2.6163E-03  2.6177E-03  2.7671E-03  2.5196E-03  2.5583E-03  2.4909E-03  2.7816E-03  2.6661E-03
 18  0.0000E+00  2.8722E-05  0.0000E+00  0.0000E+00  1.0311E-05  0.0000E+00  1.3610E-04  1.2466E-04  0.0000E+00
 19  8.3716E-03  7.1895E-03  7.7394E-03  7.0374E-03  7.2477E-03  7.2404E-03  7.1202E-03  7.3251E-03  7.4873E-03
 20  0.0000E+00  1.7298E-04  0.0000E+00  0.0000E+00  1.2796E-04  1.3444E-03  0.0000E+00  0.0000E+00  0.0000E+00
 21  0.0000E+00  3.1350E-04  0.0000E+00  3.4307E-05  8.6360E-04  0.0000E+00  1.3810E-03  0.0000E+00  1.1730E-03
 22  0.0000E+00  5.0929E-04  0.0000E+00  0.0000E+00  3.2499E-04  2.4235E-04  7.6955E-04  0.0000E+00  0.0000E+00
 23  0.0000E+00  1.1670E-03  0.0000E+00  2.9167E-03  2.3307E-03  1.6789E-03  0.0000E+00  0.0000E+00  0.0000E+00
 24  0.0000E+00  1.9841E-03  4.9127E-03  0.0000E+00  0.0000E+00  0.0000E+00  0.0000E+00  0.0000E+00  1.8250E-02
 25  0.0000E+00  2.2401E-03  0.0000E+00  1.5760E-03  9.9393E-04  0.0000E+00  0.0000E+00  0.0000E+00  0.0000E+00
 26  0.0000E+00  3.5193E-03  0.0000E+00  0.0000E+00  0.0000E+00  0.0000E+00  0.0000E+00  0.0000E+00  6.7442E-03
 27  0.0000E+00  5.7651E-03  0.0000E+00  0.0000E+00  0.0000E+00  0.0000E+00  0.0000E+00  0.0000E+00  0.0000E+00
 28  0.0000E+00  1.1066E-02  0.0000E+00  0.0000E+00  0.0000E+00  0.0000E+00  0.0000E+00  0.0000E+00  0.0000E+00
 29  1.6740E+01  2.0266E+01  1.9818E+01  1.9471E+01  1.9683E+01  2.0165E+01  1.9570E+01  1.9813E+01  1.9639E+01
 30  2.5159E+01  2.7563E+01  2.7418E+01  2.7538E+01  2.7417E+01  2.6267E+01  2.7776E+01  2.7563E+01  2.6676E+01
 31  2.6103E-03  3.0570E-03  3.0993E-03  2.8823E-03  2.9750E-03  3.0336E-03  2.8905E-03  2.5452E-03  3.2658E-03
 32  2.4809E-07  1.6945E-03  1.4003E-03  1.6371E-03  1.7279E-03  1.6442E-03  1.4591E-03  1.5368E-03  1.5925E-03
 33  0.0000E+00  2.0606E-05  1.2025E-05  0.0000E+00  0.0000E+00  0.0000E+00  0.0000E+00  0.0000E+00  0.0000E+00
