###################################################################
## OUTPUT of StarlightChains_v04.for    [Cid@UFSC - 01/Apr/2007] ##
###################################################################

## Some input info
NGC6752_a_1.cxt                          [arq_obs]
Base.BC03.N                              [arq_base]
NGC6752_a_1.msk                          [arq_masks]
StCv04.C99.config                        [arq_config]
   45                                    [N_base]
    0                                    [N_YAV_components = # of components with extra extinction!]
    0                                    [i_FitPowerLaw (1/0 = Yes/No)]
-9.99                                    [alpha_PowerLaw]
CCM                                      [red_law_option]
 1.458241                                [q_norm = A(l_norm)/A(V)]

## (Re)Sampling Parameters
 3359.00                                 [l_ini (A)]
 6428.00                                 [l_fin (A)]
    1.00                                 [dl    (A)]     (OBS: dl_cushion =    50.00 A)

## Normalization info
 4020.00                                 [l_norm (A) - for base]
 4010.00                                 [llow_norm (A) - window for f_obs]
 4060.00                                 [lupp_norm (A) - window for f_obs]
7.975786E-14                             [fobs_norm (in input units)]

## S/N
 4730.00                                 [llow_SN (A) - window for S/N]
 4780.00                                 [lupp_SN (A) - window for S/N]
 127.889                                 [S/N in S/N window]
 126.487                                 [S/N in norm. window]
 304.987                                 [S/N_err in S/N window]
 301.644                                 [S/N_err in norm. window]
  1.0000                                 [fscale_chi2]

## etc...
  2147483589                             [idum_orig]
  3069                                   [NOl_eff]
   868                                   [Nl_eff]
  2201    NSIGMA                         [Ntot_cliped & clip_method]
  1151360                                [Nglobal_steps]
   7                                     [N_chains]
   5                                     [NEX0s_base = N_base in EX0s-fits]
 0   0   1      258   2.0   6.334E+02    [Clip-Bug, RC-Crash & Burn-In warning-flags, n_censored_weights, wei_nsig_threshold & wei_limit]
    22     22.234     22.214      0.020  [idt_all, wdt_TotTime, wdt_UsrTime & wdt_SysTime (sec)]

## Synthesis Results - Best model ##

 2.86346E+00                             [chi2/Nl_eff]
     0.57961                             [adev (%)]

   102.10548                             [sum-of-x (%)]
 1.42162E-13                             [Flux_tot (units of input spectrum!)]
 7.53547E-10                             [Mini_tot (???)]
 4.17466E-10                             [Mcor_tot (???)]

 -13.63                                  [v0_min  (km/s)]
 107.22                                  [vd_min  (km/s)]
 0.4148                                  [AV_min  (mag)]
 0.0000                                  [YAV_min (mag)]

# j     x_j(%)      Mini_j(%)     Mcor_j(%)     age_j(yr)     Z_j      (L/M)_j    YAV?  Mstars   component_j        a/Fe...       SSP_chi2r SSP_adev(%)   SSP_AV   SSP_x(%)
  1      0.0000     0.0000E+00    0.0000E+00    1.000000E+06  0.00400  1.114E-02    0   1.0000   age020_m42            0.0000     1.6321E+03    10.5803   3.3230    78.7647
  2     14.3255     6.4986E-02    1.1729E-01    3.160000E+06  0.00400  4.073E-02    0   0.9999   age045_m42            0.0000     2.9246E+02     4.7556   2.3460    93.1536
  3      0.0000     0.0000E+00    0.0000E+00    5.010000E+06  0.00400  2.534E-02    0   0.9488   age055_m42            0.0000     7.9117E+02     7.6094   2.7612    86.5663
  4      3.7648     5.4729E-02    8.7546E-02    1.000000E+07  0.00400  1.271E-02    0   0.8862   age070_m42            0.0000     6.4191E+02     7.4218   1.9733    90.1959
  5      0.0000     0.0000E+00    0.0000E+00    2.512000E+07  0.00400  5.070E-03    0   0.8174   age090_m42            0.0000     5.4740E+02     6.8292   1.8463    91.5922
  6      0.0000     0.0000E+00    0.0000E+00    4.000000E+07  0.00400  3.505E-03    0   0.7851   age104_m42            0.0000     3.0262E+02     4.9926   1.5343    94.3196
  7     21.6832     1.7665E+00    2.2980E+00    1.015200E+08  0.00400  2.268E-03    0   0.7207   age116_m42            0.0000     4.3026E+02     3.7423   1.5352   104.1019
  8      0.0000     0.0000E+00    0.0000E+00    2.861200E+08  0.00400  1.079E-03    0   0.6613   age125_m42            0.0000     5.1831E+02     4.5412   1.0555   105.7349
  9      0.0000     0.0000E+00    0.0000E+00    6.405400E+08  0.00400  5.077E-04    0   0.6197   age132_m42            0.0000     6.2260E+02     4.9305   0.7069   109.1887
 10     14.1183     7.3793E+00    8.0240E+00    9.047900E+08  0.00400  3.535E-04    0   0.6024   age135_m42            0.0000     3.4756E+02     3.9446   0.4666   108.2732
 11      0.0000     0.0000E+00    0.0000E+00    1.434000E+09  0.00400  1.910E-04    0   0.5716   age139_m42            0.0000     1.6082E+02     3.5832  -0.0680   106.7850
 12     48.2137     9.0734E+01    8.9473E+01    2.500000E+09  0.00400  9.818E-05    0   0.5463   age150_m42            0.0000     1.4005E+02     3.1449  -0.3527   102.2448
 13      0.0000     0.0000E+00    0.0000E+00    5.000000E+09  0.00400  4.718E-05    0   0.5228   age161_m42            0.0000     2.4977E+02     3.4959  -0.5224    98.8763
 14      0.0000     0.0000E+00    0.0000E+00    1.100000E+10  0.00400  2.205E-05    0   0.4980   age185_m42            0.0000     5.0444E+02     4.9042  -0.7860    96.6252
 15      0.0000     0.0000E+00    0.0000E+00    1.300000E+10  0.00400  1.883E-05    0   0.4927   age193_m42            0.0000     5.4334E+02     5.0517  -0.8029    96.4325
 16      0.0000     0.0000E+00    0.0000E+00    1.000000E+06  0.02000  1.989E-02    0   1.0000   age020_m62            0.0000     1.6300E+03    10.5300   3.2897    79.3741
 17      0.0000     0.0000E+00    0.0000E+00    3.160000E+06  0.02000  3.772E-02    0   0.9858   age045_m62            0.0000     1.4391E+03     9.9309   3.1504    81.4898
 18      0.0000     0.0000E+00    0.0000E+00    5.010000E+06  0.02000  3.227E-02    0   0.9342   age055_m62            0.0000     4.8132E+02     5.9624   2.6209    89.5300
 19      0.0000     0.0000E+00    0.0000E+00    1.000000E+07  0.02000  1.011E-02    0   0.8751   age070_m62            0.0000     1.5966E+03    11.4981   2.0075    85.9814
 20      0.0000     0.0000E+00    0.0000E+00    2.512000E+07  0.02000  4.206E-03    0   0.8099   age090_m62            0.0000     1.1547E+03     9.4580   1.9490    86.7144
 21      0.0000     0.0000E+00    0.0000E+00    4.000000E+07  0.02000  3.373E-03    0   0.7799   age104_m62            0.0000     2.2343E+02     4.4146   1.7553    95.7461
 22      0.0000     0.0000E+00    0.0000E+00    1.015200E+08  0.02000  1.878E-03    0   0.7221   age116_m62            0.0000     3.0905E+02     3.1365   1.5671   104.1320
 23      0.0000     0.0000E+00    0.0000E+00    2.861200E+08  0.02000  8.869E-04    0   0.6700   age125_m62            0.0000     1.0568E+03     6.4376   1.0623   110.6242
 24      0.0000     0.0000E+00    0.0000E+00    6.405400E+08  0.02000  3.657E-04    0   0.6322   age132_m62            0.0000     7.5333E+02     6.5259   0.3918   113.2215
 25      0.0000     0.0000E+00    0.0000E+00    9.047900E+08  0.02000  2.312E-04    0   0.6152   age135_m62            0.0000     4.2374E+02     5.5505   0.0124   112.1939
 26      0.0000     0.0000E+00    0.0000E+00    1.434000E+09  0.02000  1.168E-04    0   0.5865   age139_m62            0.0000     2.0983E+02     4.1495  -0.4148   106.4266
 27      0.0000     0.0000E+00    0.0000E+00    2.500000E+09  0.02000  5.505E-05    0   0.5610   age150_m62            0.0000     4.0403E+02     5.1254  -0.7929   103.3958
 28      0.0000     0.0000E+00    0.0000E+00    5.000000E+09  0.02000  2.596E-05    0   0.5353   age161_m62            0.0000     8.6342E+02     6.6731  -1.0000    99.9823
 29      0.0000     0.0000E+00    0.0000E+00    1.100000E+10  0.02000  1.169E-05    0   0.5103   age185_m62            0.0000     2.1448E+03    11.2447  -1.0000    91.2480
 30      0.0000     0.0000E+00    0.0000E+00    1.300000E+10  0.02000  9.691E-06    0   0.5047   age193_m62            0.0000     2.4006E+03    11.9475  -1.0000    90.1300
 31      0.0000     0.0000E+00    0.0000E+00    1.000000E+06  0.05000  2.651E-02    0   0.9998   age020_m72            0.0000     1.5148E+03     9.9602   3.2979    80.1258
 32      0.0000     0.0000E+00    0.0000E+00    3.160000E+06  0.05000  4.817E-02    0   0.9577   age045_m72            0.0000     9.8567E+02     8.0265   3.0088    84.8321
 33      0.0000     0.0000E+00    0.0000E+00    5.010000E+06  0.05000  3.101E-02    0   0.9147   age055_m72            0.0000     8.8747E+02     7.9389   2.6489    87.3583
 34      0.0000     0.0000E+00    0.0000E+00    1.000000E+07  0.05000  8.954E-03    0   0.8524   age070_m72            0.0000     9.5222E+02     7.8995   2.8959    85.8303
 35      0.0000     0.0000E+00    0.0000E+00    2.512000E+07  0.05000  4.207E-03    0   0.7902   age090_m72            0.0000     3.9978E+02     5.2169   2.4583    91.4619
 36      0.0000     0.0000E+00    0.0000E+00    4.000000E+07  0.05000  3.198E-03    0   0.7618   age104_m72            0.0000     1.3324E+02     2.3609   1.9372    99.8611
 37      0.0000     0.0000E+00    0.0000E+00    1.015200E+08  0.05000  1.716E-03    0   0.7092   age116_m72            0.0000     4.2561E+02     3.7698   1.6517   104.4621
 38      0.0000     0.0000E+00    0.0000E+00    2.861200E+08  0.05000  7.047E-04    0   0.6618   age125_m72            0.0000     1.0495E+03     6.8876   0.8505   111.1199
 39      0.0000     0.0000E+00    0.0000E+00    6.405400E+08  0.05000  2.633E-04    0   0.6253   age132_m72            0.0000     5.9605E+02     6.3373  -0.0003   112.8405
 40      0.0000     0.0000E+00    0.0000E+00    9.047900E+08  0.05000  1.484E-04    0   0.6088   age135_m72            0.0000     3.4373E+02     5.4836  -0.4899   107.6294
 41      0.0000     0.0000E+00    0.0000E+00    1.434000E+09  0.05000  7.827E-05    0   0.5847   age139_m72            0.0000     5.4870E+02     6.3381  -0.8885   104.1170
 42      0.0000     0.0000E+00    0.0000E+00    2.500000E+09  0.05000  3.759E-05    0   0.5583   age150_m72            0.0000     1.0273E+03     7.5364  -1.0000    97.6350
 43      0.0000     0.0000E+00    0.0000E+00    5.000000E+09  0.05000  1.548E-05    0   0.5320   age161_m72            0.0000     2.6858E+03    12.9724  -1.0000    85.9563
 44      0.0000     0.0000E+00    0.0000E+00    1.100000E+10  0.05000  6.532E-06    0   0.5070   age185_m72            0.0000     5.1623E+03    17.7033  -1.0000    75.4116
 45      0.0000     0.0000E+00    0.0000E+00    1.300000E+10  0.05000  5.316E-06    0   0.5018   age193_m72            0.0000     6.0843E+03    19.0148  -1.0000    72.3220


## Synthesis Results - Average & Chains ##

# j      x_j: min, <> & last-chain-values for 1 ...  7 chains
  1      0.0000      0.0024      0.0000      0.0000      0.0000      0.0000      0.0000      0.0000      0.0000
  2     14.3255     13.6109     13.7197     13.8120     13.7808     13.6417     13.8287     13.6748     13.6056
  3      0.0000      0.0115      0.0000      0.0000      0.0000      0.0000      0.0000      0.0000      0.0000
  4      3.7648      4.7878      4.7559      4.6929      4.6893      4.7858      4.5968      4.7033      4.8766
  5      0.0000      0.0212      0.0000      0.0000      0.0000      0.0000      0.0000      0.0000      0.0000
  6      0.0000      0.0225      0.0000      0.0095      0.0000      0.0000      0.0000      0.0000      0.0000
  7     21.6832     20.6072     20.7134     20.6510     20.9018     21.0287     21.0200     20.8063     20.7018
  8      0.0000      0.0448      0.0000      0.0000      0.0000      0.0000      0.0635      0.0000      0.0000
  9      0.0000      0.0580      0.0000      0.0321      0.0000      0.1369      0.1168      0.0361      0.0000
 10     14.1183     15.4211     15.5877     15.4346     15.1869     15.0766     14.7872     15.4468     15.5659
 11      0.0000      0.4043      0.0000      0.4535      0.3488      0.2310      0.0000      0.3387      0.3697
 12     48.2137     46.0401     46.5060     46.0269     46.4110     46.6523     46.4691     46.7243     46.4007
 13      0.0000      0.1013      0.1710      0.1212      0.1073      0.0000      0.2538      0.0000      0.0000
 14      0.0000      0.0307      0.0000      0.1031      0.0000      0.0955      0.0000      0.0000      0.0000
 15      0.0000      0.0195      0.0000      0.0007      0.0000      0.0000      0.0000      0.0000      0.0000
 16      0.0000      0.0022      0.0000      0.0000      0.0000      0.0000      0.0000      0.0000      0.0000
 17      0.0000      0.0043      0.0000      0.0000      0.0000      0.0000      0.0000      0.0000      0.0000
 18      0.0000      0.0222      0.0236      0.0000      0.0000      0.0000      0.0000      0.0527      0.0000
 19      0.0000      0.0052      0.0000      0.0000      0.0000      0.0000      0.0000      0.0000      0.0000
 20      0.0000      0.0053      0.0000      0.0000      0.0000      0.0000      0.0000      0.0000      0.0000
 21      0.0000      0.0100      0.0000      0.0000      0.0000      0.0000      0.0000      0.0000      0.0000
 22      0.0000      0.0198      0.0000      0.0000      0.0037      0.0000      0.0000      0.0000      0.0000
 23      0.0000      0.0209      0.0000      0.0000      0.0000      0.0000      0.0000      0.0000      0.0000
 24      0.0000      0.0356      0.0000      0.0775      0.0080      0.0000      0.0000      0.0000      0.0000
 25      0.0000      0.0901      0.0000      0.0000      0.0000      0.0387      0.0895      0.0000      0.0000
 26      0.0000      0.0443      0.0000      0.0662      0.0720      0.0000      0.0414      0.1760      0.0062
 27      0.0000      0.0137      0.0000      0.0000      0.0000      0.0000      0.0000      0.0000      0.0018
 28      0.0000      0.0086      0.0000      0.0000      0.0002      0.0000      0.0000      0.0000      0.0000
 29      0.0000      0.0081      0.0000      0.0000      0.0000      0.0000      0.0000      0.0000      0.0000
 30      0.0000      0.0035      0.0000      0.0000      0.0000      0.0000      0.0000      0.0000      0.0000
 31      0.0000      0.0044      0.0000      0.0000      0.0000      0.0000      0.0000      0.0000      0.0000
 32      0.0000      0.0044      0.0000      0.0028      0.0000      0.0000      0.0000      0.0000      0.0000
 33      0.0000      0.0077      0.0146      0.0000      0.0000      0.0000      0.0000      0.0000      0.0000
 34      0.0000      0.0027      0.0000      0.0049      0.0000      0.0000      0.0000      0.0000      0.0000
 35      0.0000      0.0056      0.0000      0.0000      0.0000      0.0000      0.0000      0.0000      0.0000
 36      0.0000      0.0129      0.0034      0.0000      0.0233      0.0000      0.0000      0.0000      0.0079
 37      0.0000      0.0239      0.0000      0.0000      0.0000      0.0065      0.0239      0.0000      0.0000
 38      0.0000      0.0280      0.0000      0.0000      0.0066      0.0000      0.0000      0.0000      0.0000
 39      0.0000      0.1195      0.2641      0.0000      0.1854      0.0000      0.3161      0.0000      0.0568
 40      0.0000      0.3455      0.2870      0.5524      0.2619      0.2956      0.4315      0.0852      0.3883
 41      0.0000      0.0875      0.0585      0.0857      0.1334      0.1006      0.0951      0.0000      0.1239
 42      0.0000      0.0076      0.0000      0.0000      0.0000      0.0000      0.0000      0.0730      0.0000
 43      0.0000      0.0026      0.0000      0.0000      0.0000      0.0000      0.0017      0.0000      0.0207
 44      0.0000      0.0008      0.0163      0.0000      0.0000      0.0000      0.0000      0.0000      0.0000
 45      0.0000      0.0012      0.0000      0.0000      0.0000      0.0000      0.0000      0.0000      0.0000

# j      m_j: min, <> & last-chain-values for 1 ...  7 chains
  1  0.0000E+00  7.1613E-05  0.0000E+00  0.0000E+00  0.0000E+00  0.0000E+00  0.0000E+00  0.0000E+00  0.0000E+00
  2  1.1729E-01  1.1232E-01  1.1303E-01  1.1375E-01  1.1408E-01  1.1249E-01  1.1398E-01  1.1305E-01  1.1266E-01
  3  0.0000E+00  1.4445E-04  0.0000E+00  0.0000E+00  0.0000E+00  0.0000E+00  0.0000E+00  0.0000E+00  0.0000E+00
  4  8.7546E-02  1.1221E-01  1.1128E-01  1.0977E-01  1.1025E-01  1.1208E-01  1.0761E-01  1.1043E-01  1.1468E-01
  5  0.0000E+00  1.1510E-03  0.0000E+00  0.0000E+00  0.0000E+00  0.0000E+00  0.0000E+00  0.0000E+00  0.0000E+00
  6  0.0000E+00  1.6938E-03  0.0000E+00  7.1021E-04  0.0000E+00  0.0000E+00  0.0000E+00  0.0000E+00  0.0000E+00
  7  2.2980E+00  2.2011E+00  2.2089E+00  2.2014E+00  2.2396E+00  2.2445E+00  2.2426E+00  2.2264E+00  2.2188E+00
  8  0.0000E+00  9.2251E-03  0.0000E+00  0.0000E+00  0.0000E+00  0.0000E+00  1.3058E-02  0.0000E+00  0.0000E+00
  9  0.0000E+00  2.3809E-02  0.0000E+00  1.3154E-02  0.0000E+00  5.6109E-02  4.7867E-02  1.4833E-02  0.0000E+00
 10  8.0240E+00  8.8333E+00  8.9142E+00  8.8233E+00  8.7265E+00  8.6298E+00  8.4605E+00  8.8641E+00  8.9468E+00
 11  0.0000E+00  4.0673E-01  0.0000E+00  4.5525E-01  3.5200E-01  2.3225E-01  0.0000E+00  3.4133E-01  3.7320E-01
 12  8.9473E+01  8.6111E+01  8.6841E+01  8.5913E+01  8.7077E+01  8.7193E+01  8.6813E+01  8.7549E+01  8.7082E+01
 13  0.0000E+00  3.7725E-01  6.3581E-01  4.5040E-01  4.0101E-01  0.0000E+00  9.4419E-01  0.0000E+00  0.0000E+00
 14  0.0000E+00  2.3325E-01  0.0000E+00  7.8123E-01  0.0000E+00  7.2443E-01  0.0000E+00  0.0000E+00  0.0000E+00
 15  0.0000E+00  1.7172E-01  0.0000E+00  6.0559E-03  0.0000E+00  0.0000E+00  0.0000E+00  0.0000E+00  0.0000E+00
 16  0.0000E+00  3.6606E-05  0.0000E+00  0.0000E+00  0.0000E+00  0.0000E+00  0.0000E+00  0.0000E+00  0.0000E+00
 17  0.0000E+00  3.7400E-05  0.0000E+00  0.0000E+00  0.0000E+00  0.0000E+00  0.0000E+00  0.0000E+00  0.0000E+00
 18  0.0000E+00  2.1594E-04  2.2928E-04  0.0000E+00  0.0000E+00  0.0000E+00  0.0000E+00  5.1347E-04  0.0000E+00
 19  0.0000E+00  1.5256E-04  0.0000E+00  0.0000E+00  0.0000E+00  0.0000E+00  0.0000E+00  0.0000E+00  0.0000E+00
 20  0.0000E+00  3.4288E-04  0.0000E+00  0.0000E+00  0.0000E+00  0.0000E+00  0.0000E+00  0.0000E+00  0.0000E+00
 21  0.0000E+00  7.7370E-04  0.0000E+00  0.0000E+00  0.0000E+00  0.0000E+00  0.0000E+00  0.0000E+00  0.0000E+00
 22  0.0000E+00  2.5579E-03  0.0000E+00  0.0000E+00  4.7736E-04  0.0000E+00  0.0000E+00  0.0000E+00  0.0000E+00
 23  0.0000E+00  5.3072E-03  0.0000E+00  0.0000E+00  0.0000E+00  0.0000E+00  0.0000E+00  0.0000E+00  0.0000E+00
 24  0.0000E+00  2.0692E-02  0.0000E+00  4.4924E-02  4.6413E-03  0.0000E+00  0.0000E+00  0.0000E+00  0.0000E+00
 25  0.0000E+00  8.0628E-02  0.0000E+00  0.0000E+00  0.0000E+00  3.4558E-02  7.9950E-02  0.0000E+00  0.0000E+00
 26  0.0000E+00  7.4779E-02  0.0000E+00  1.1153E-01  1.2184E-01  0.0000E+00  6.9780E-02  2.9759E-01  1.0456E-02
 27  0.0000E+00  4.6901E-02  0.0000E+00  0.0000E+00  0.0000E+00  0.0000E+00  0.0000E+00  0.0000E+00  6.1196E-03
 28  0.0000E+00  5.9451E-02  0.0000E+00  0.0000E+00  1.4890E-03  0.0000E+00  0.0000E+00  0.0000E+00  0.0000E+00
 29  0.0000E+00  1.1949E-01  0.0000E+00  0.0000E+00  0.0000E+00  0.0000E+00  0.0000E+00  0.0000E+00  0.0000E+00
 30  0.0000E+00  6.0433E-02  0.0000E+00  0.0000E+00  0.0000E+00  0.0000E+00  0.0000E+00  0.0000E+00  0.0000E+00
 31  0.0000E+00  5.5292E-05  0.0000E+00  0.0000E+00  0.0000E+00  0.0000E+00  0.0000E+00  0.0000E+00  0.0000E+00
 32  0.0000E+00  2.9449E-05  0.0000E+00  1.8631E-05  0.0000E+00  0.0000E+00  0.0000E+00  0.0000E+00  0.0000E+00
 33  0.0000E+00  7.6244E-05  1.4480E-04  0.0000E+00  0.0000E+00  0.0000E+00  0.0000E+00  0.0000E+00  0.0000E+00
