###################################################################
## OUTPUT of StarlightChains_v04.for    [Cid@UFSC - 01/Apr/2007] ##
###################################################################

## Some input info
NGC6441_a_1.cxt                          [arq_obs]
Base.BC03.N                              [arq_base]
NGC6441_a_1.msk                          [arq_masks]
StCv04.C99.config                        [arq_config]
   45                                    [N_base]
    0                                    [N_YAV_components = # of components with extra extinction!]
    0                                    [i_FitPowerLaw (1/0 = Yes/No)]
-9.99                                    [alpha_PowerLaw]
CCM                                      [red_law_option]
 1.458241                                [q_norm = A(l_norm)/A(V)]

## (Re)Sampling Parameters
 3359.00                                 [l_ini (A)]
 6428.00                                 [l_fin (A)]
    1.00                                 [dl    (A)]     (OBS: dl_cushion =    50.00 A)

## Normalization info
 4020.00                                 [l_norm (A) - for base]
 4010.00                                 [llow_norm (A) - window for f_obs]
 4060.00                                 [lupp_norm (A) - window for f_obs]
2.855491E-14                             [fobs_norm (in input units)]

## S/N
 4730.00                                 [llow_SN (A) - window for S/N]
 4780.00                                 [lupp_SN (A) - window for S/N]
  36.149                                 [S/N in S/N window]
  21.540                                 [S/N in norm. window]
 181.134                                 [S/N_err in S/N window]
 107.930                                 [S/N_err in norm. window]
  1.0000                                 [fscale_chi2]

## etc...
  2147483609                             [idum_orig]
  3067                                   [NOl_eff]
   848                                   [Nl_eff]
  2219    NSIGMA                         [Ntot_cliped & clip_method]
  1715280                                [Nglobal_steps]
   7                                     [N_chains]
   8                                     [NEX0s_base = N_base in EX0s-fits]
 0   0   1      126   2.0   2.568E+02    [Clip-Bug, RC-Crash & Burn-In warning-flags, n_censored_weights, wei_nsig_threshold & wei_limit]
    24     24.093     24.093      0.000  [idt_all, wdt_TotTime, wdt_UsrTime & wdt_SysTime (sec)]

## Synthesis Results - Best model ##

 2.47907E+00                             [chi2/Nl_eff]
     1.76518                             [adev (%)]

    99.74776                             [sum-of-x (%)]
 1.78654E-13                             [Flux_tot (units of input spectrum!)]
 6.96411E-09                             [Mini_tot (???)]
 3.57066E-09                             [Mcor_tot (???)]

 -12.59                                  [v0_min  (km/s)]
  27.74                                  [vd_min  (km/s)]
 1.3671                                  [AV_min  (mag)]
 0.0000                                  [YAV_min (mag)]

# j     x_j(%)      Mini_j(%)     Mcor_j(%)     age_j(yr)     Z_j      (L/M)_j    YAV?  Mstars   component_j        a/Fe...       SSP_chi2r SSP_adev(%)   SSP_AV   SSP_x(%)
  1      0.0000     0.0000E+00    0.0000E+00    1.000000E+06  0.00400  1.114E-02    0   1.0000   age020_m42            0.0000     2.4687E+03    41.3177   4.0000   104.4447
  2      0.0000     0.0000E+00    0.0000E+00    3.160000E+06  0.00400  4.073E-02    0   0.9999   age045_m42            0.0000     3.6490E+02    16.1530   4.0000   101.1351
  3      0.0000     0.0000E+00    0.0000E+00    5.010000E+06  0.00400  2.534E-02    0   0.9488   age055_m42            0.0000     9.3892E+02    27.0090   4.0000   104.0364
  4      5.8649     1.1868E-02    2.0512E-02    1.000000E+07  0.00400  1.271E-02    0   0.8862   age070_m42            0.0000     3.3508E+02    15.8803   3.8853    92.2395
  5      0.0000     0.0000E+00    0.0000E+00    2.512000E+07  0.00400  5.070E-03    0   0.8174   age090_m42            0.0000     3.0613E+02    15.2156   3.7643    93.7220
  6      0.0000     0.0000E+00    0.0000E+00    4.000000E+07  0.00400  3.505E-03    0   0.7851   age104_m42            0.0000     2.3419E+02    13.1546   3.4701    96.1904
  7      0.0000     0.0000E+00    0.0000E+00    1.015200E+08  0.00400  2.268E-03    0   0.7207   age116_m42            0.0000     3.4656E+02    11.9629   3.5551   102.2979
  8      0.0000     0.0000E+00    0.0000E+00    2.861200E+08  0.00400  1.079E-03    0   0.6613   age125_m42            0.0000     3.3771E+02    11.8753   3.0729   103.9710
  9      0.0000     0.0000E+00    0.0000E+00    6.405400E+08  0.00400  5.077E-04    0   0.6197   age132_m42            0.0000     3.3734E+02    12.2406   2.7022   108.3615
 10      1.7014     1.2379E-01    1.4544E-01    9.047900E+08  0.00400  3.535E-04    0   0.6024   age135_m42            0.0000     2.3765E+02    10.0295   2.4606   107.7463
 11      0.0000     0.0000E+00    0.0000E+00    1.434000E+09  0.00400  1.910E-04    0   0.5716   age139_m42            0.0000     1.0324E+02     6.3815   1.9609   105.8770
 12     17.5300     4.5920E+00    4.8927E+00    2.500000E+09  0.00400  9.818E-05    0   0.5463   age150_m42            0.0000     2.7382E+01     3.2063   1.6896   101.2076
 13     45.5520     2.4831E+01    2.5319E+01    5.000000E+09  0.00400  4.718E-05    0   0.5228   age161_m42            0.0000     8.7553E+00     2.2798   1.5224    98.1505
 14      0.0000     0.0000E+00    0.0000E+00    1.100000E+10  0.00400  2.205E-05    0   0.4980   age185_m42            0.0000     1.3382E+01     3.0491   1.2825    95.6571
 15      0.0000     0.0000E+00    0.0000E+00    1.300000E+10  0.00400  1.883E-05    0   0.4927   age193_m42            0.0000     1.6905E+01     3.3862   1.2666    95.5096
 16      0.0000     0.0000E+00    0.0000E+00    1.000000E+06  0.02000  1.989E-02    0   1.0000   age020_m62            0.0000     2.3583E+03    40.3083   4.0000   104.8263
 17      0.0000     0.0000E+00    0.0000E+00    3.160000E+06  0.02000  3.772E-02    0   0.9858   age045_m62            0.0000     1.9325E+03    37.4347   4.0000   105.6781
 18      0.5370     4.2795E-04    7.7973E-04    5.010000E+06  0.02000  3.227E-02    0   0.9342   age055_m62            0.0000     7.0196E+02    23.2142   4.0000   104.2802
 19      0.0000     0.0000E+00    0.0000E+00    1.000000E+07  0.02000  1.011E-02    0   0.8751   age070_m62            0.0000     5.0428E+02    20.2400   3.9164    89.6353
 20      0.0000     0.0000E+00    0.0000E+00    2.512000E+07  0.02000  4.206E-03    0   0.8099   age090_m62            0.0000     3.9503E+02    18.2027   3.8566    90.0810
 21      0.0000     0.0000E+00    0.0000E+00    4.000000E+07  0.02000  3.373E-03    0   0.7799   age104_m62            0.0000     2.5569E+02    12.8371   3.7132    97.1528
 22      0.0000     0.0000E+00    0.0000E+00    1.015200E+08  0.02000  1.878E-03    0   0.7221   age116_m62            0.0000     3.3567E+02    11.4995   3.5729   103.3467
 23      0.0000     0.0000E+00    0.0000E+00    2.861200E+08  0.02000  8.869E-04    0   0.6700   age125_m62            0.0000     4.7155E+02    14.4786   3.1025   108.6039
 24      0.0000     0.0000E+00    0.0000E+00    6.405400E+08  0.02000  3.657E-04    0   0.6322   age132_m62            0.0000     2.9974E+02    11.1348   2.4428   111.0290
 25      0.0084     9.3917E-04    1.1269E-03    9.047900E+08  0.02000  2.312E-04    0   0.6152   age135_m62            0.0000     1.6806E+02     8.0532   2.0746   109.9266
 26      0.0000     0.0000E+00    0.0000E+00    1.434000E+09  0.02000  1.168E-04    0   0.5865   age139_m62            0.0000     4.4215E+01     4.1895   1.6667   104.3397
 27      0.0000     0.0000E+00    0.0000E+00    2.500000E+09  0.02000  5.505E-05    0   0.5610   age150_m62            0.0000     1.8333E+01     3.4246   1.3150   101.1980
 28      0.0000     0.0000E+00    0.0000E+00    5.000000E+09  0.02000  2.596E-05    0   0.5353   age161_m62            0.0000     4.8333E+01     5.3928   1.0177   100.1821
 29     11.7626     2.5878E+01    2.5756E+01    1.100000E+10  0.02000  1.169E-05    0   0.5103   age185_m62            0.0000     1.1758E+02     7.9234   0.6919   100.5769
 30     16.7914     4.4562E+01    4.3865E+01    1.300000E+10  0.02000  9.691E-06    0   0.5047   age193_m62            0.0000     1.3337E+02     8.3700   0.6516   100.6647
 31      0.0000     0.0000E+00    0.0000E+00    1.000000E+06  0.05000  2.651E-02    0   0.9998   age020_m72            0.0000     2.3345E+03    39.9500   4.0000   106.0220
 32      0.0000     0.0000E+00    0.0000E+00    3.160000E+06  0.05000  4.817E-02    0   0.9577   age045_m72            0.0000     1.4760E+03    32.8821   4.0000   107.1257
 33      0.0000     0.0000E+00    0.0000E+00    5.010000E+06  0.05000  3.101E-02    0   0.9147   age055_m72            0.0000     7.8629E+02    25.3586   4.0000   103.3150
 34      0.0000     0.0000E+00    0.0000E+00    1.000000E+07  0.05000  8.954E-03    0   0.8524   age070_m72            0.0000     1.2205E+03    30.0864   4.0000   106.6873
 35      0.0000     0.0000E+00    0.0000E+00    2.512000E+07  0.05000  4.207E-03    0   0.7902   age090_m72            0.0000     4.7895E+02    19.2497   4.0000   103.3198
 36      0.0000     0.0000E+00    0.0000E+00    4.000000E+07  0.05000  3.198E-03    0   0.7618   age104_m72            0.0000     2.8250E+02    10.7539   3.9653    98.9728
 37      0.0000     0.0000E+00    0.0000E+00    1.015200E+08  0.05000  1.716E-03    0   0.7092   age116_m72            0.0000     3.6916E+02    12.1055   3.7081   102.5801
 38      0.0000     0.0000E+00    0.0000E+00    2.861200E+08  0.05000  7.047E-04    0   0.6618   age125_m72            0.0000     4.3186E+02    13.7452   2.9380   108.1400
 39      0.0000     0.0000E+00    0.0000E+00    6.405400E+08  0.05000  2.633E-04    0   0.6253   age132_m72            0.0000     2.0250E+02     9.0965   2.1034   109.6716
 40      0.0000     0.0000E+00    0.0000E+00    9.047900E+08  0.05000  1.484E-04    0   0.6088   age135_m72            0.0000     6.7873E+01     5.4675   1.6275   104.5199
 41      0.0000     0.0000E+00    0.0000E+00    1.434000E+09  0.05000  7.827E-05    0   0.5847   age139_m72            0.0000     4.2471E+01     4.8555   1.2670   100.5386
 42      0.0000     0.0000E+00    0.0000E+00    2.500000E+09  0.05000  3.759E-05    0   0.5583   age150_m72            0.0000     6.6173E+01     6.1098   0.9669    99.3999
 43      0.0000     0.0000E+00    0.0000E+00    5.000000E+09  0.05000  1.548E-05    0   0.5320   age161_m72            0.0000     1.4581E+02     8.4403   0.6230    97.8367
 44      0.0000     0.0000E+00    0.0000E+00    1.100000E+10  0.05000  6.532E-06    0   0.5070   age185_m72            0.0000     2.7549E+02    11.4271   0.2992    96.3170
 45      0.0000     0.0000E+00    0.0000E+00    1.300000E+10  0.05000  5.316E-06    0   0.5018   age193_m72            0.0000     3.3612E+02    12.6571   0.2037    95.8130


## Synthesis Results - Average & Chains ##

# j      x_j: min, <> & last-chain-values for 1 ...  7 chains
  1      0.0000      0.0370      0.0000      0.0000      0.0311      0.0000      0.0000      0.0000      0.0000
  2      0.0000      0.2788      0.1637      0.3734      0.2870      0.2479      0.2503      0.3412      0.2516
  3      0.0000      0.0472      0.0000      0.0000      0.0633      0.0000      0.0994      0.0000      0.1835
  4      5.8649      4.4719      4.8234      4.5287      4.9003      5.0152      4.5382      4.4657      4.6228
  5      0.0000      0.1415      0.1825      0.1968      0.0483      0.1151      0.3524      0.2095      0.1460
  6      0.0000      0.1665      0.2014      0.0000      0.0104      0.1668      0.0000      0.3100      0.1037
  7      0.0000      0.0464      0.0155      0.0000      0.0188      0.0000      0.0184      0.0000      0.0000
  8      0.0000      0.0482      0.0000      0.0000      0.0000      0.0000      0.0000      0.0000      0.0968
  9      0.0000      0.1011      0.0933      0.0000      0.3433      0.1030      0.0182      0.0000      0.0894
 10      1.7014      0.1727      0.1636      0.3452      0.3928      0.3530      0.2208      0.5427      0.3759
 11      0.0000      0.2660      0.1647      0.6583      0.2823      0.2186      0.3194      0.0508      0.2680
 12     17.5300     17.0511     16.8127     17.0154     17.2876     17.2617     17.8829     17.0765     17.3657
 13     45.5520     47.1827     47.5943     47.6027     47.4588     47.0573     46.7744     47.6257     47.2706
 14      0.0000      0.1527      0.0000      0.0000      0.0000      0.0183      0.0000      0.0000      0.0000
 15      0.0000      0.1491      0.0000      0.0000      0.0681      0.0000      0.0000      0.0077      0.0000
 16      0.0000      0.0133      0.0000      0.0570      0.0524      0.0007      0.0000      0.0817      0.0000
 17      0.0000      0.0290      0.0555      0.0000      0.0118      0.0000      0.0000      0.0000      0.0000
 18      0.5370      0.3837      0.3998      0.4512      0.3828      0.3238      0.4061      0.4464      0.4955
 19      0.0000      0.0682      0.1575      0.0000      0.0000      0.1431      0.0295      0.0000      0.0000
 20      0.0000      0.0692      0.0546      0.0000      0.0000      0.0000      0.0000      0.1857      0.0000
 21      0.0000      0.0505      0.0000      0.0000      0.0000      0.1004      0.0000      0.0000      0.0000
 22      0.0000      0.0470      0.0002      0.0000      0.1218      0.0000      0.0000      0.1381      0.0000
 23      0.0000      0.0396      0.0000      0.0095      0.0161      0.0000      0.0515      0.0000      0.0000
 24      0.0000      0.0863      0.4287      0.3813      0.0399      0.0000      0.0000      0.2470      0.0115
 25      0.0084      0.1899      0.1855      0.2035      0.0000      0.3262      0.2330      0.2760      0.1589
 26      0.0000      0.1397      0.0444      0.0000      0.0000      0.0557      0.3458      0.0000      0.0000
 27      0.0000      0.2667      0.0000      0.0000      0.0867      0.0000      0.0000      0.0000      0.0694
 28      0.0000      0.2372      0.0000      0.0000      0.1504      0.1104      0.3851      0.0000      0.0000
 29     11.7626     10.5163     10.9160     11.0101     10.7999     10.7408     10.6760     10.6301     10.5025
 30     16.7914     16.2841     16.6560     16.2434     16.6051     16.7881     16.4194     16.6661     16.9618
 31      0.0000      0.0485      0.0000      0.0000      0.0000      0.0000      0.0000      0.0000      0.0000
 32      0.0000      0.0313      0.0000      0.0000      0.0000      0.1108      0.0000      0.0000      0.0667
 33      0.0000      0.0809      0.2018      0.4291      0.0000      0.0000      0.3385      0.0000      0.1890
 34      0.0000      0.0543      0.0000      0.0000      0.1411      0.0853      0.0748      0.0873      0.0396
 35      0.0000      0.0239      0.0000      0.0000      0.0000      0.0000      0.0306      0.0000      0.0000
 36      0.0000      0.0186      0.0144      0.0747      0.0000      0.0000      0.0000      0.0000      0.0000
 37      0.0000      0.0503      0.0000      0.0000      0.0000      0.0000      0.0158      0.0000      0.0000
 38      0.0000      0.0242      0.0000      0.0000      0.0000      0.1376      0.0000      0.0013      0.0135
 39      0.0000      0.0651      0.2332      0.0000      0.0000      0.0578      0.0413      0.0000      0.0000
 40      0.0000      0.1071      0.0000      0.0349      0.0440      0.0935      0.0000      0.2361      0.3544
 41      0.0000      0.0807      0.0106      0.0000      0.0457      0.0000      0.0114      0.0000      0.0006
 42      0.0000      0.0640      0.0000      0.0628      0.0000      0.0000      0.0000      0.0000      0.0000
 43      0.0000      0.0578      0.0000      0.0136      0.0000      0.0000      0.0000      0.0000      0.0000
 44      0.0000      0.0620      0.0000      0.0000      0.0000      0.0171      0.0000      0.0561      0.0000
 45      0.0000      0.1437      0.0770      0.0000      0.0000      0.0000      0.1085      0.0000      0.0000

# j      m_j: min, <> & last-chain-values for 1 ...  7 chains
  1  0.0000E+00  1.6900E-04  0.0000E+00  0.0000E+00  1.4183E-04  0.0000E+00  0.0000E+00  0.0000E+00  0.0000E+00
  2  0.0000E+00  3.4829E-04  2.0340E-04  4.6897E-04  3.5824E-04  3.0922E-04  3.1329E-04  4.2664E-04  3.1397E-04
  3  0.0000E+00  9.0009E-05  0.0000E+00  0.0000E+00  1.2054E-04  0.0000E+00  1.8974E-04  0.0000E+00  3.4938E-04
  4  2.0512E-02  1.5864E-02  1.7023E-02  1.6156E-02  1.7370E-02  1.7765E-02  1.6132E-02  1.5861E-02  1.6387E-02
  5  0.0000E+00  1.1605E-03  1.4893E-03  1.6233E-03  3.9591E-04  9.4263E-04  2.8965E-03  1.7208E-03  1.1964E-03
  6  0.0000E+00  1.8976E-03  2.2835E-03  0.0000E+00  1.1834E-04  1.8987E-03  0.0000E+00  3.5368E-03  1.1814E-03
  7  0.0000E+00  7.5037E-04  2.4917E-04  0.0000E+00  3.0444E-04  0.0000E+00  2.9804E-04  0.0000E+00  0.0000E+00
  8  0.0000E+00  1.5027E-03  0.0000E+00  0.0000E+00  0.0000E+00  0.0000E+00  0.0000E+00  0.0000E+00  3.0170E-03
  9  0.0000E+00  6.2760E-03  5.7668E-03  0.0000E+00  2.1302E-02  6.3901E-03  1.1343E-03  0.0000E+00  5.5451E-03
 10  1.4544E-01  1.4971E-02  1.4115E-02  3.0101E-02  3.4032E-02  3.0561E-02  1.9184E-02  4.7114E-02  3.2568E-02
 11  0.0000E+00  4.0498E-02  2.4951E-02  1.0080E-01  4.2947E-02  3.3236E-02  4.8732E-02  7.7484E-03  4.0780E-02
 12  4.8927E+00  4.8272E+00  4.7353E+00  4.8443E+00  4.8902E+00  4.8797E+00  5.0729E+00  4.8404E+00  4.9127E+00
 13  2.5319E+01  2.6601E+01  2.6695E+01  2.6989E+01  2.6735E+01  2.6491E+01  2.6424E+01  2.6884E+01  2.6631E+01
 14  0.0000E+00  1.7547E-01  0.0000E+00  0.0000E+00  0.0000E+00  2.0974E-02  0.0000E+00  0.0000E+00  0.0000E+00
 15  0.0000E+00  1.9844E-01  0.0000E+00  0.0000E+00  9.0535E-02  0.0000E+00  0.0000E+00  1.0319E-02  0.0000E+00
 16  0.0000E+00  3.4010E-05  0.0000E+00  1.4655E-04  1.3399E-04  1.9015E-06  0.0000E+00  2.0920E-04  0.0000E+00
 17  0.0000E+00  3.8530E-05  7.3423E-05  0.0000E+00  1.5615E-05  0.0000E+00  0.0000E+00  0.0000E+00  0.0000E+00
 18  7.7973E-04  5.6523E-04  5.8584E-04  6.6837E-04  5.6338E-04  4.7629E-04  5.9940E-04  6.5825E-04  7.2931E-04
 19  0.0000E+00  3.0041E-04  6.8998E-04  0.0000E+00  0.0000E+00  6.2949E-04  1.3013E-04  0.0000E+00  0.0000E+00
 20  0.0000E+00  6.7791E-04  5.3209E-04  0.0000E+00  0.0000E+00  0.0000E+00  0.0000E+00  1.8212E-03  0.0000E+00
 21  0.0000E+00  5.9431E-04  0.0000E+00  0.0000E+00  0.0000E+00  1.1792E-03  0.0000E+00  0.0000E+00  0.0000E+00
 22  0.0000E+00  9.1984E-04  3.7405E-06  0.0000E+00  2.3802E-03  0.0000E+00  0.0000E+00  2.7054E-03  0.0000E+00
 23  0.0000E+00  1.5218E-03  0.0000E+00  3.6904E-04  6.1967E-04  0.0000E+00  1.9847E-03  0.0000E+00  0.0000E+00
 24  0.0000E+00  7.5922E-03  3.7512E-02  3.3723E-02  3.5033E-03  0.0000E+00  0.0000E+00  2.1750E-02  1.0140E-03
 25  1.1269E-03  2.5707E-02  2.4979E-02  2.7701E-02  0.0000E+00  4.4095E-02  3.1602E-02  3.7409E-02  2.1496E-02
 26  0.0000E+00  3.5696E-02  1.1283E-02  0.0000E+00  0.0000E+00  1.4220E-02  8.8522E-02  0.0000E+00  0.0000E+00
 27  0.0000E+00  1.3830E-01  0.0000E+00  0.0000E+00  4.4893E-02  0.0000E+00  0.0000E+00  0.0000E+00  3.5958E-02
 28  0.0000E+00  2.4886E-01  0.0000E+00  0.0000E+00  1.5770E-01  1.1570E-01  4.0484E-01  0.0000E+00  0.0000E+00
 29  2.5756E+01  2.3357E+01  2.4120E+01  2.4591E+01  2.3967E+01  2.3820E+01  2.3759E+01  2.3638E+01  2.3309E+01
 30  4.3865E+01  4.3149E+01  4.3907E+01  4.3283E+01  4.3963E+01  4.4419E+01  4.3595E+01  4.4215E+01  4.4911E+01
 31  0.0000E+00  9.3135E-05  0.0000E+00  0.0000E+00  0.0000E+00  0.0000E+00  0.0000E+00  0.0000E+00  0.0000E+00
 32  0.0000E+00  3.1682E-05  0.0000E+00  0.0000E+00  0.0000E+00  1.1193E-04  0.0000E+00  0.0000E+00  6.7443E-05
 33  0.0000E+00  1.2147E-04  3.0131E-04  6.4755E-04  0.0000E+00  0.0000E+00  5.0907E-04  0.0000E+00  2.8340E-04
