###################################################################
## OUTPUT of StarlightChains_v04.for    [Cid@UFSC - 01/Apr/2007] ##
###################################################################

## Some input info
NGC6218_a_1.cxt                          [arq_obs]
Base.BC03.N                              [arq_base]
NGC6218_a_1.msk                          [arq_masks]
StCv04.C99.config                        [arq_config]
   45                                    [N_base]
    0                                    [N_YAV_components = # of components with extra extinction!]
    0                                    [i_FitPowerLaw (1/0 = Yes/No)]
-9.99                                    [alpha_PowerLaw]
CCM                                      [red_law_option]
 1.458241                                [q_norm = A(l_norm)/A(V)]

## (Re)Sampling Parameters
 3359.00                                 [l_ini (A)]
 6428.00                                 [l_fin (A)]
    1.00                                 [dl    (A)]     (OBS: dl_cushion =    50.00 A)

## Normalization info
 4020.00                                 [l_norm (A) - for base]
 4010.00                                 [llow_norm (A) - window for f_obs]
 4060.00                                 [lupp_norm (A) - window for f_obs]
1.427242E-14                             [fobs_norm (in input units)]

## S/N
 4730.00                                 [llow_SN (A) - window for S/N]
 4780.00                                 [lupp_SN (A) - window for S/N]
  89.798                                 [S/N in S/N window]
  81.145                                 [S/N in norm. window]
  59.740                                 [S/N_err in S/N window]
  53.984                                 [S/N_err in norm. window]
  1.0000                                 [fscale_chi2]

## etc...
  2147483625                             [idum_orig]
  3068                                   [NOl_eff]
  2429                                   [Nl_eff]
   639    NSIGMA                         [Ntot_cliped & clip_method]
  1286600                                [Nglobal_steps]
   7                                     [N_chains]
   7                                     [NEX0s_base = N_base in EX0s-fits]
 0   0   1      282   2.0   8.248E+02    [Clip-Bug, RC-Crash & Burn-In warning-flags, n_censored_weights, wei_nsig_threshold & wei_limit]
    21     20.791     20.791      0.000  [idt_all, wdt_TotTime, wdt_UsrTime & wdt_SysTime (sec)]

## Synthesis Results - Best model ##

 1.74830E+00                             [chi2/Nl_eff]
     1.77730                             [adev (%)]

   101.23203                             [sum-of-x (%)]
 3.23119E-14                             [Flux_tot (units of input spectrum!)]
 3.43566E-10                             [Mini_tot (???)]
 1.81707E-10                             [Mcor_tot (???)]

  -1.80                                  [v0_min  (km/s)]
  88.25                                  [vd_min  (km/s)]
 0.5993                                  [AV_min  (mag)]
 0.0000                                  [YAV_min (mag)]

# j     x_j(%)      Mini_j(%)     Mcor_j(%)     age_j(yr)     Z_j      (L/M)_j    YAV?  Mstars   component_j        a/Fe...       SSP_chi2r SSP_adev(%)   SSP_AV   SSP_x(%)
  1      0.0000     0.0000E+00    0.0000E+00    1.000000E+06  0.00400  1.114E-02    0   1.0000   age020_m42            0.0000     1.1255E+02    11.1986   4.0000    70.0258
  2      8.3437     1.9032E-02    3.5981E-02    3.160000E+06  0.00400  4.073E-02    0   0.9999   age045_m42            0.0000     2.6151E+01     4.5898   2.8183    90.1444
  3      0.0000     0.0000E+00    0.0000E+00    5.010000E+06  0.00400  2.534E-02    0   0.9488   age055_m42            0.0000     5.2299E+01     7.9118   3.3496    80.0431
  4     12.6193     9.2240E-02    1.5456E-01    1.000000E+07  0.00400  1.271E-02    0   0.8862   age070_m42            0.0000     4.4411E+01     7.7349   2.5557    84.1548
  5      0.0000     0.0000E+00    0.0000E+00    2.512000E+07  0.00400  5.070E-03    0   0.8174   age090_m42            0.0000     3.7406E+01     7.0445   2.4013    86.5582
  6      0.0000     0.0000E+00    0.0000E+00    4.000000E+07  0.00400  3.505E-03    0   0.7851   age104_m42            0.0000     2.4301E+01     4.9376   2.0125    92.0445
  7     13.2320     5.4202E-01    7.3860E-01    1.015200E+08  0.00400  2.268E-03    0   0.7207   age116_m42            0.0000     1.4949E+02    10.4296   1.4694   121.5318
  8      0.0000     0.0000E+00    0.0000E+00    2.861200E+08  0.00400  1.079E-03    0   0.6613   age125_m42            0.0000     1.4647E+02    11.7734   0.9079   126.7500
  9      3.0535     5.5876E-01    6.5471E-01    6.405400E+08  0.00400  5.077E-04    0   0.6197   age132_m42            0.0000     1.6136E+02    12.2988   0.5169   132.7323
 10     11.5603     3.0382E+00    3.4605E+00    9.047900E+08  0.00400  3.535E-04    0   0.6024   age135_m42            0.0000     8.8973E+01     9.5786   0.4173   126.0925
 11      0.0000     0.0000E+00    0.0000E+00    1.434000E+09  0.00400  1.910E-04    0   0.5716   age139_m42            0.0000     3.7095E+01     7.5794   0.0000   118.8223
 12      7.3115     6.9186E+00    7.1464E+00    2.500000E+09  0.00400  9.818E-05    0   0.5463   age150_m42            0.0000     1.5703E+01     4.4606  -0.0626   106.6120
 13     45.1118     8.8831E+01    8.7809E+01    5.000000E+09  0.00400  4.718E-05    0   0.5228   age161_m42            0.0000     2.4580E+01     4.0813  -0.1456   100.0993
 14      0.0000     0.0000E+00    0.0000E+00    1.100000E+10  0.00400  2.205E-05    0   0.4980   age185_m42            0.0000     5.5590E+01     5.4626  -0.3781    96.8368
 15      0.0000     0.0000E+00    0.0000E+00    1.300000E+10  0.00400  1.883E-05    0   0.4927   age193_m42            0.0000     6.3205E+01     5.6338  -0.3908    96.5027
 16      0.0000     0.0000E+00    0.0000E+00    1.000000E+06  0.02000  1.989E-02    0   1.0000   age020_m62            0.0000     1.1566E+02    11.2678   3.9689    70.6245
 17      0.0000     0.0000E+00    0.0000E+00    3.160000E+06  0.02000  3.772E-02    0   0.9858   age045_m62            0.0000     9.8004E+01    10.6288   3.8123    73.1628
 18      0.0000     0.0000E+00    0.0000E+00    5.010000E+06  0.02000  3.227E-02    0   0.9342   age055_m62            0.0000     3.7294E+01     6.1087   3.1426    84.9585
 19      0.0000     0.0000E+00    0.0000E+00    1.000000E+07  0.02000  1.011E-02    0   0.8751   age070_m62            0.0000     1.0525E+02    12.3469   2.7082    76.9348
 20      0.0000     0.0000E+00    0.0000E+00    2.512000E+07  0.02000  4.206E-03    0   0.8099   age090_m62            0.0000     8.3605E+01    10.0112   2.5808    79.8189
 21      0.0000     0.0000E+00    0.0000E+00    4.000000E+07  0.02000  3.373E-03    0   0.7799   age104_m62            0.0000     2.8132E+01     4.2880   2.1573    96.1819
 22      0.0000     0.0000E+00    0.0000E+00    1.015200E+08  0.02000  1.878E-03    0   0.7221   age116_m62            0.0000     1.1443E+02     8.8924   1.5704   119.5992
 23      0.0000     0.0000E+00    0.0000E+00    2.861200E+08  0.02000  8.869E-04    0   0.6700   age125_m62            0.0000     2.9156E+02    16.6232   0.6690   142.9607
 24      0.0000     0.0000E+00    0.0000E+00    6.405400E+08  0.02000  3.657E-04    0   0.6322   age132_m62            0.0000     1.5861E+02    13.8867   0.1561   139.5720
 25      0.0000     0.0000E+00    0.0000E+00    9.047900E+08  0.02000  2.312E-04    0   0.6152   age135_m62            0.0000     7.9836E+01    10.3070  -0.0170   129.8389
 26      0.0000     0.0000E+00    0.0000E+00    1.434000E+09  0.02000  1.168E-04    0   0.5865   age139_m62            0.0000     2.6668E+01     5.9588  -0.1844   113.3527
 27      0.0000     0.0000E+00    0.0000E+00    2.500000E+09  0.02000  5.505E-05    0   0.5610   age150_m62            0.0000     4.6626E+01     6.1327  -0.4680   106.7472
 28      0.0000     0.0000E+00    0.0000E+00    5.000000E+09  0.02000  2.596E-05    0   0.5353   age161_m62            0.0000     1.0519E+02     7.9776  -0.7910   106.1683
 29      0.0000     0.0000E+00    0.0000E+00    1.100000E+10  0.02000  1.169E-05    0   0.5103   age185_m62            0.0000     2.0330E+02    10.0978  -1.0000   107.1372
 30      0.0000     0.0000E+00    0.0000E+00    1.300000E+10  0.02000  9.691E-06    0   0.5047   age193_m62            0.0000     2.3190E+02    11.1590  -1.0000   107.0643
 31      0.0000     0.0000E+00    0.0000E+00    1.000000E+06  0.05000  2.651E-02    0   0.9998   age020_m72            0.0000     1.1051E+02    10.7478   3.9593    71.7912
 32      0.0000     0.0000E+00    0.0000E+00    3.160000E+06  0.05000  4.817E-02    0   0.9577   age045_m72            0.0000     6.7529E+01     8.6586   3.6113    77.9386
 33      0.0000     0.0000E+00    0.0000E+00    5.010000E+06  0.05000  3.101E-02    0   0.9147   age055_m72            0.0000     5.9812E+01     8.3283   3.2443    80.7933
 34      0.0000     0.0000E+00    0.0000E+00    1.000000E+07  0.05000  8.954E-03    0   0.8524   age070_m72            0.0000     7.4715E+01     8.4960   3.4916    79.3901
 35      0.0000     0.0000E+00    0.0000E+00    2.512000E+07  0.05000  4.207E-03    0   0.7902   age090_m72            0.0000     3.7666E+01     5.2398   2.9298    89.0000
 36      0.0000     0.0000E+00    0.0000E+00    4.000000E+07  0.05000  3.198E-03    0   0.7618   age104_m72            0.0000     5.6068E+01     5.7414   2.1020   108.6883
 37      0.0000     0.0000E+00    0.0000E+00    1.015200E+08  0.05000  1.716E-03    0   0.7092   age116_m72            0.0000     1.4444E+02    10.3210   1.5877   122.4276
 38      0.0000     0.0000E+00    0.0000E+00    2.861200E+08  0.05000  7.047E-04    0   0.6618   age125_m72            0.0000     2.8286E+02    16.8408   0.4618   143.2191
 39      0.0000     0.0000E+00    0.0000E+00    6.405400E+08  0.05000  2.633E-04    0   0.6253   age132_m72            0.0000     1.1741E+02    12.3424  -0.1285   134.5863
 40      0.0000     0.0000E+00    0.0000E+00    9.047900E+08  0.05000  1.484E-04    0   0.6088   age135_m72            0.0000     4.6717E+01     8.1063  -0.3503   118.0223
 41      0.0000     0.0000E+00    0.0000E+00    1.434000E+09  0.05000  7.827E-05    0   0.5847   age139_m72            0.0000     6.4903E+01     7.6535  -0.6087   109.0066
 42      0.0000     0.0000E+00    0.0000E+00    2.500000E+09  0.05000  3.759E-05    0   0.5583   age150_m72            0.0000     1.1716E+02     8.4144  -0.8761   106.0229
 43      0.0000     0.0000E+00    0.0000E+00    5.000000E+09  0.05000  1.548E-05    0   0.5320   age161_m72            0.0000     2.1803E+02    12.7832  -1.0000   104.0965
 44      0.0000     0.0000E+00    0.0000E+00    1.100000E+10  0.05000  6.532E-06    0   0.5070   age185_m72            0.0000     5.1957E+02    23.5913  -1.0000   100.9634
 45      0.0000     0.0000E+00    0.0000E+00    1.300000E+10  0.05000  5.316E-06    0   0.5018   age193_m72            0.0000     6.7631E+02    26.8646  -1.0000    99.6323


## Synthesis Results - Average & Chains ##

# j      x_j: min, <> & last-chain-values for 1 ...  7 chains
  1      0.0000      0.0057      0.0000      0.0000      0.0000      0.0000      0.0000      0.0000      0.0000
  2      8.3437      6.1914      6.2971      6.4121      6.6844      6.4397      6.2428      6.5053      6.3224
  3      0.0000      0.1116      0.0603      0.0000      0.0000      0.1236      0.2115      0.0668      0.1172
  4     12.6193     12.7405     13.0559     12.5781     13.0520     12.8376     12.8928     12.8940     12.7613
  5      0.0000      0.0637      0.0000      0.0000      0.0000      0.0854      0.0000      0.0000      0.0000
  6      0.0000      0.0169      0.0000      0.0570      0.0000      0.0000      0.0000      0.0000      0.0000
  7     13.2320     13.3880     13.3849     13.4414     13.2420     13.4019     13.4833     13.3847     13.4044
  8      0.0000      0.0299      0.1072      0.0000      0.0000      0.0000      0.0000      0.0000      0.0000
  9      3.0535      4.6816      4.1891      4.2675      4.5642      4.4902      4.4765      4.6124      4.4138
 10     11.5603      9.7450     10.2276      9.8047      9.7189      9.9140      9.2868      9.7686      9.9297
 11      0.0000      0.0855      0.0000      0.0000      0.1739      0.0000      0.6198      0.0670      0.0000
 12      7.3115      8.1081      8.0014      8.6037      8.0811      7.6174      8.3408      8.2894      8.2332
 13     45.1118     44.7369     44.6959     44.7316     44.8187     45.3977     44.8577     44.6607     44.8224
 14      0.0000      0.0683      0.1796      0.2974      0.1267      0.0000      0.0000      0.0000      0.0000
 15      0.0000      0.0343      0.1045      0.0000      0.0000      0.0000      0.0000      0.0000      0.0000
 16      0.0000      0.0053      0.0000      0.0000      0.0000      0.0689      0.0000      0.0000      0.0000
 17      0.0000      0.0055      0.0000      0.0000      0.0000      0.0000      0.0000      0.0000      0.0000
 18      0.0000      0.7612      0.7571      1.0444      0.7339      0.7642      0.7174      0.7451      1.0881
 19      0.0000      0.0161      0.0855      0.0000      0.0000      0.0000      0.0000      0.0000      0.0000
 20      0.0000      0.0049      0.0000      0.0320      0.0085      0.0000      0.0000      0.0000      0.0000
 21      0.0000      0.0147      0.0000      0.0000      0.0000      0.0000      0.0000      0.0000      0.0000
 22      0.0000      0.0261      0.0000      0.0000      0.0000      0.0000      0.0000      0.0000      0.0000
 23      0.0000      0.0127      0.0000      0.0000      0.0000      0.0000      0.0000      0.0000      0.0000
 24      0.0000      0.0099      0.0000      0.0000      0.0000      0.0000      0.0000      0.0000      0.0000
 25      0.0000      0.0243      0.0000      0.0000      0.0000      0.0000      0.0000      0.0000      0.0000
 26      0.0000      0.0383      0.0345      0.0000      0.0000      0.0000      0.0000      0.0000      0.1430
 27      0.0000      0.0436      0.0000      0.0000      0.0393      0.0000      0.0000      0.0000      0.0000
 28      0.0000      0.0237      0.0000      0.0000      0.0000      0.0000      0.0000      0.0000      0.0970
 29      0.0000      0.0167      0.0017      0.0000      0.0000      0.0000      0.0000      0.1513      0.0000
 30      0.0000      0.0114      0.0000      0.0425      0.0000      0.0000      0.0000      0.0000      0.0000
 31      0.0000      0.0083      0.0000      0.0000      0.0000      0.0000      0.0000      0.0000      0.0000
 32      0.0000      0.0133      0.0000      0.0000      0.0000      0.0000      0.0000      0.0000      0.0000
 33      0.0000      0.0285      0.0040      0.0000      0.0240      0.0000      0.0000      0.0000      0.0000
 34      0.0000      0.0052      0.0000      0.0000      0.0000      0.0000      0.0000      0.0000      0.0000
 35      0.0000      0.0109      0.0000      0.0000      0.0000      0.0000      0.0000      0.0000      0.0000
 36      0.0000      0.0144      0.0000      0.0000      0.0000      0.0000      0.0000      0.0000      0.0000
 37      0.0000      0.0202      0.0000      0.0000      0.0000      0.0000      0.0000      0.0000      0.0000
 38      0.0000      0.0076      0.0000      0.0000      0.0000      0.0000      0.0000      0.0000      0.0022
 39      0.0000      0.0168      0.0000      0.0000      0.0000      0.0000      0.0000      0.0000      0.0116
 40      0.0000      0.0319      0.0000      0.0000      0.0000      0.0000      0.0000      0.0000      0.0000
 41      0.0000      0.0443      0.0000      0.0000      0.0000      0.1656      0.2323      0.0000      0.0000
 42      0.0000      0.0458      0.1505      0.0000      0.0000      0.0003      0.0123      0.2040      0.0000
 43      0.0000      0.0234      0.0000      0.0231      0.0000      0.0000      0.0000      0.0714      0.0000
 44      0.0000      0.0388      0.0000      0.0000      0.0000      0.0000      0.0000      0.0000      0.0000
 45      0.0000      0.1355      0.0000      0.0000      0.0000      0.0000      0.0000      0.0000      0.0000

# j      m_j: min, <> & last-chain-values for 1 ...  7 chains
  1  0.0000E+00  8.6070E-05  0.0000E+00  0.0000E+00  0.0000E+00  0.0000E+00  0.0000E+00  0.0000E+00  0.0000E+00
  2  3.5981E-02  2.5693E-02  2.6791E-02  2.7115E-02  2.8647E-02  2.7522E-02  2.6704E-02  2.7492E-02  2.7093E-02
  3  0.0000E+00  7.0665E-04  3.9142E-04  0.0000E+00  0.0000E+00  8.0570E-04  1.3796E-03  4.3065E-04  7.6629E-04
  4  1.5456E-01  1.5016E-01  1.5776E-01  1.5107E-01  1.5887E-01  1.5583E-01  1.5664E-01  1.5476E-01  1.5532E-01
  5  0.0000E+00  1.7357E-03  0.0000E+00  0.0000E+00  0.0000E+00  2.3967E-03  0.0000E+00  0.0000E+00  0.0000E+00
  6  0.0000E+00  6.3818E-04  0.0000E+00  2.1990E-03  0.0000E+00  0.0000E+00  0.0000E+00  0.0000E+00  0.0000E+00
  7  7.3860E-01  7.1913E-01  7.3711E-01  7.3574E-01  7.3459E-01  7.4141E-01  7.4656E-01  7.3217E-01  7.4352E-01
  8  0.0000E+00  3.1016E-03  1.1383E-02  0.0000E+00  0.0000E+00  0.0000E+00  0.0000E+00  0.0000E+00  0.0000E+00
  9  6.5471E-01  9.6594E-01  8.8613E-01  8.9726E-01  9.7258E-01  9.5416E-01  9.5208E-01  9.6917E-01  9.4041E-01
 10  3.4605E+00  2.8071E+00  3.0205E+00  2.8780E+00  2.8913E+00  2.9412E+00  2.7575E+00  2.8656E+00  2.9537E+00
 11  0.0000E+00  4.3258E-02  0.0000E+00  0.0000E+00  9.0850E-02  0.0000E+00  3.2320E-01  3.4534E-02  0.0000E+00
 12  7.1464E+00  7.6263E+00  7.7157E+00  8.2464E+00  7.8499E+00  7.3789E+00  8.0868E+00  7.9400E+00  7.9967E+00
 13  8.7809E+01  8.3797E+01  8.5832E+01  8.5381E+01  8.6700E+01  8.7577E+01  8.6611E+01  8.5192E+01  8.6697E+01
 14  0.0000E+00  2.6094E-01  7.0308E-01  1.1569E+00  4.9941E-01  0.0000E+00  0.0000E+00  0.0000E+00  0.0000E+00
 15  0.0000E+00  1.5185E-01  4.7375E-01  0.0000E+00  0.0000E+00  0.0000E+00  0.0000E+00  0.0000E+00  0.0000E+00
 16  0.0000E+00  4.4784E-05  0.0000E+00  0.0000E+00  0.0000E+00  6.0265E-04  0.0000E+00  0.0000E+00  0.0000E+00
 17  0.0000E+00  2.4413E-05  0.0000E+00  0.0000E+00  0.0000E+00  0.0000E+00  0.0000E+00  0.0000E+00  0.0000E+00
 18  0.0000E+00  3.7249E-03  3.7981E-03  5.2080E-03  3.7092E-03  3.8514E-03  3.6186E-03  3.7131E-03  5.4983E-03
 19  0.0000E+00  2.3538E-04  1.2822E-03  0.0000E+00  0.0000E+00  0.0000E+00  0.0000E+00  0.0000E+00  0.0000E+00
 20  0.0000E+00  1.6106E-04  0.0000E+00  1.0600E-03  2.8445E-04  0.0000E+00  0.0000E+00  0.0000E+00  0.0000E+00
 21  0.0000E+00  5.7629E-04  0.0000E+00  0.0000E+00  0.0000E+00  0.0000E+00  0.0000E+00  0.0000E+00  0.0000E+00
 22  0.0000E+00  1.6992E-03  0.0000E+00  0.0000E+00  0.0000E+00  0.0000E+00  0.0000E+00  0.0000E+00  0.0000E+00
 23  0.0000E+00  1.6154E-03  0.0000E+00  0.0000E+00  0.0000E+00  0.0000E+00  0.0000E+00  0.0000E+00  0.0000E+00
 24  0.0000E+00  2.8960E-03  0.0000E+00  0.0000E+00  0.0000E+00  0.0000E+00  0.0000E+00  0.0000E+00  0.0000E+00
 25  0.0000E+00  1.0923E-02  0.0000E+00  0.0000E+00  0.0000E+00  0.0000E+00  0.0000E+00  0.0000E+00  0.0000E+00
 26  0.0000E+00  3.2475E-02  3.0026E-02  0.0000E+00  0.0000E+00  0.0000E+00  0.0000E+00  0.0000E+00  1.2532E-01
 27  0.0000E+00  7.5066E-02  0.0000E+00  0.0000E+00  6.9931E-02  0.0000E+00  0.0000E+00  0.0000E+00  0.0000E+00
 28  0.0000E+00  8.2505E-02  0.0000E+00  0.0000E+00  0.0000E+00  0.0000E+00  0.0000E+00  0.0000E+00  3.4913E-01
 29  0.0000E+00  1.2349E-01  1.2620E-02  0.0000E+00  0.0000E+00  0.0000E+00  0.0000E+00  1.1369E+00  0.0000E+00
 30  0.0000E+00  9.9986E-02  0.0000E+00  3.8171E-01  0.0000E+00  0.0000E+00  0.0000E+00  0.0000E+00  0.0000E+00
 31  0.0000E+00  5.2790E-05  0.0000E+00  0.0000E+00  0.0000E+00  0.0000E+00  0.0000E+00  0.0000E+00  0.0000E+00
 32  0.0000E+00  4.4547E-05  0.0000E+00  0.0000E+00  0.0000E+00  0.0000E+00  0.0000E+00  0.0000E+00  0.0000E+00
 33  0.0000E+00  1.4194E-04  2.0600E-05  0.0000E+00  1.2356E-04  0.0000E+00  0.0000E+00  0.0000E+00  0.0000E+00
