###################################################################
## OUTPUT of StarlightChains_v04.for    [Cid@UFSC - 01/Apr/2007] ##
###################################################################

## Some input info
NGC6723_a_1.cxt                          [arq_obs]
Base.BC03.N                              [arq_base]
NGC6723_a_1.msk                          [arq_masks]
StCv04.C99.config                        [arq_config]
   45                                    [N_base]
    0                                    [N_YAV_components = # of components with extra extinction!]
    0                                    [i_FitPowerLaw (1/0 = Yes/No)]
-9.99                                    [alpha_PowerLaw]
CCM                                      [red_law_option]
 1.458241                                [q_norm = A(l_norm)/A(V)]

## (Re)Sampling Parameters
 3359.00                                 [l_ini (A)]
 6428.00                                 [l_fin (A)]
    1.00                                 [dl    (A)]     (OBS: dl_cushion =    50.00 A)

## Normalization info
 4020.00                                 [l_norm (A) - for base]
 4010.00                                 [llow_norm (A) - window for f_obs]
 4060.00                                 [lupp_norm (A) - window for f_obs]
2.195815E-14                             [fobs_norm (in input units)]

## S/N
 4730.00                                 [llow_SN (A) - window for S/N]
 4780.00                                 [lupp_SN (A) - window for S/N]
  66.760                                 [S/N in S/N window]
  58.282                                 [S/N in norm. window]
  95.225                                 [S/N_err in S/N window]
  83.132                                 [S/N_err in norm. window]
  1.0000                                 [fscale_chi2]

## etc...
  2147483590                             [idum_orig]
  3065                                   [NOl_eff]
  1735                                   [Nl_eff]
  1330    NSIGMA                         [Ntot_cliped & clip_method]
  1293180                                [Nglobal_steps]
   7                                     [N_chains]
   6                                     [NEX0s_base = N_base in EX0s-fits]
 0   0   1      119   2.0   1.985E+02    [Clip-Bug, RC-Crash & Burn-In warning-flags, n_censored_weights, wei_nsig_threshold & wei_limit]
    19     19.810     19.810      0.000  [idt_all, wdt_TotTime, wdt_UsrTime & wdt_SysTime (sec)]

## Synthesis Results - Best model ##

 2.67583E+00                             [chi2/Nl_eff]
     1.93840                             [adev (%)]

   102.67241                             [sum-of-x (%)]
 2.87315E-14                             [Flux_tot (units of input spectrum!)]
 3.13382E-10                             [Mini_tot (???)]
 1.68588E-10                             [Mcor_tot (???)]

   5.66                                  [v0_min  (km/s)]
  50.34                                  [vd_min  (km/s)]
 0.1805                                  [AV_min  (mag)]
 0.0000                                  [YAV_min (mag)]

# j     x_j(%)      Mini_j(%)     Mcor_j(%)     age_j(yr)     Z_j      (L/M)_j    YAV?  Mstars   component_j        a/Fe...       SSP_chi2r SSP_adev(%)   SSP_AV   SSP_x(%)
  1      0.0000     0.0000E+00    0.0000E+00    1.000000E+06  0.00400  1.114E-02    0   1.0000   age020_m42            0.0000     1.3624E+02    12.5887   3.6245    81.3707
  2      2.7495     6.0279E-03    1.1204E-02    3.160000E+06  0.00400  4.073E-02    0   0.9999   age045_m42            0.0000     4.5314E+01     7.1320   2.7022    94.2236
  3      0.0000     0.0000E+00    0.0000E+00    5.010000E+06  0.00400  2.534E-02    0   0.9488   age055_m42            0.0000     7.9783E+01     9.9721   3.0883    88.5186
  4      4.7926     3.3671E-02    5.5467E-02    1.000000E+07  0.00400  1.271E-02    0   0.8862   age070_m42            0.0000     7.7088E+01    10.0225   2.3067    91.9716
  5      0.0000     0.0000E+00    0.0000E+00    2.512000E+07  0.00400  5.070E-03    0   0.8174   age090_m42            0.0000     6.9657E+01     9.5023   2.1833    93.2810
  6      0.0000     0.0000E+00    0.0000E+00    4.000000E+07  0.00400  3.505E-03    0   0.7851   age104_m42            0.0000     4.8873E+01     7.7914   1.8782    95.8329
  7      5.1920     2.0442E-01    2.7386E-01    1.015200E+08  0.00400  2.268E-03    0   0.7207   age116_m42            0.0000     9.4953E+01     6.7335   1.9431   103.0660
  8      0.0000     0.0000E+00    0.0000E+00    2.861200E+08  0.00400  1.079E-03    0   0.6613   age125_m42            0.0000     9.7635E+01     6.9577   1.4612   104.7815
  9      0.0000     0.0000E+00    0.0000E+00    6.405400E+08  0.00400  5.077E-04    0   0.6197   age132_m42            0.0000     9.9165E+01     7.3641   1.0990   108.7632
 10      4.5745     1.1555E+00    1.2940E+00    9.047900E+08  0.00400  3.535E-04    0   0.6024   age135_m42            0.0000     6.0844E+01     5.9400   0.8469   108.3910
 11      0.0000     0.0000E+00    0.0000E+00    1.434000E+09  0.00400  1.910E-04    0   0.5716   age139_m42            0.0000     2.0794E+01     3.8187   0.2981   107.6298
 12     64.0437     5.8248E+01    5.9151E+01    2.500000E+09  0.00400  9.818E-05    0   0.5463   age150_m42            0.0000     4.7070E+00     2.4879  -0.0003   103.6793
 13     21.3201     4.0352E+01    3.9214E+01    5.000000E+09  0.00400  4.718E-05    0   0.5228   age161_m42            0.0000     1.0486E+01     3.1120  -0.1777   100.6266
 14      0.0000     0.0000E+00    0.0000E+00    1.100000E+10  0.00400  2.205E-05    0   0.4980   age185_m42            0.0000     3.2275E+01     4.7699  -0.4475    98.6236
 15      0.0000     0.0000E+00    0.0000E+00    1.300000E+10  0.00400  1.883E-05    0   0.4927   age193_m42            0.0000     3.6427E+01     5.0062  -0.4647    98.4492
 16      0.0000     0.0000E+00    0.0000E+00    1.000000E+06  0.02000  1.989E-02    0   1.0000   age020_m62            0.0000     1.3944E+02    12.5640   3.5935    81.9079
 17      0.0000     0.0000E+00    0.0000E+00    3.160000E+06  0.02000  3.772E-02    0   0.9858   age045_m62            0.0000     1.2870E+02    12.2659   3.4560    84.0369
 18      0.0000     0.0000E+00    0.0000E+00    5.010000E+06  0.02000  3.227E-02    0   0.9342   age055_m62            0.0000     6.2671E+01     8.6397   2.9594    91.0401
 19      0.0000     0.0000E+00    0.0000E+00    1.000000E+07  0.02000  1.011E-02    0   0.8751   age070_m62            0.0000     1.5761E+02    14.1521   2.3231    88.4840
 20      0.0000     0.0000E+00    0.0000E+00    2.512000E+07  0.02000  4.206E-03    0   0.8099   age090_m62            0.0000     1.1753E+02    12.2724   2.2632    89.2000
 21      0.0000     0.0000E+00    0.0000E+00    4.000000E+07  0.02000  3.373E-03    0   0.7799   age104_m62            0.0000     5.5912E+01     7.7442   2.1102    96.8052
 22      0.0000     0.0000E+00    0.0000E+00    1.015200E+08  0.02000  1.878E-03    0   0.7221   age116_m62            0.0000     8.9602E+01     6.8569   1.9691   103.3310
 23      0.0000     0.0000E+00    0.0000E+00    2.861200E+08  0.02000  8.869E-04    0   0.6700   age125_m62            0.0000     1.5794E+02     8.6674   1.4872   108.9408
 24      0.0000     0.0000E+00    0.0000E+00    6.405400E+08  0.02000  3.657E-04    0   0.6322   age132_m62            0.0000     9.3165E+01     7.0445   0.7847   112.9139
 25      0.0000     0.0000E+00    0.0000E+00    9.047900E+08  0.02000  2.312E-04    0   0.6152   age135_m62            0.0000     4.6212E+01     5.3543   0.3913   112.5105
 26      0.0000     0.0000E+00    0.0000E+00    1.434000E+09  0.02000  1.168E-04    0   0.5865   age139_m62            0.0000     1.2037E+01     3.4336  -0.0511   107.4771
 27      0.0000     0.0000E+00    0.0000E+00    2.500000E+09  0.02000  5.505E-05    0   0.5610   age150_m62            0.0000     2.3514E+01     4.5180  -0.4375   104.8669
 28      0.0000     0.0000E+00    0.0000E+00    5.000000E+09  0.02000  2.596E-05    0   0.5353   age161_m62            0.0000     6.2620E+01     6.5795  -0.7737   104.7771
 29      0.0000     0.0000E+00    0.0000E+00    1.100000E+10  0.02000  1.169E-05    0   0.5103   age185_m62            0.0000     1.1975E+02     8.1969  -1.0000   102.4671
 30      0.0000     0.0000E+00    0.0000E+00    1.300000E+10  0.02000  9.691E-06    0   0.5047   age193_m62            0.0000     1.3483E+02     8.6327  -1.0000   101.4523
 31      0.0000     0.0000E+00    0.0000E+00    1.000000E+06  0.05000  2.651E-02    0   0.9998   age020_m72            0.0000     1.3010E+02    12.0312   3.6017    82.6631
 32      0.0000     0.0000E+00    0.0000E+00    3.160000E+06  0.05000  4.817E-02    0   0.9577   age045_m72            0.0000     9.5704E+01    10.5699   3.3244    87.0753
 33      0.0000     0.0000E+00    0.0000E+00    5.010000E+06  0.05000  3.101E-02    0   0.9147   age055_m72            0.0000     9.0589E+01    10.5071   2.9727    89.4904
 34      0.0000     0.0000E+00    0.0000E+00    1.000000E+07  0.05000  8.954E-03    0   0.8524   age070_m72            0.0000     9.2694E+01    10.2713   3.2183    87.8940
 35      0.0000     0.0000E+00    0.0000E+00    2.512000E+07  0.05000  4.207E-03    0   0.7902   age090_m72            0.0000     5.7241E+01     7.9120   2.8019    92.8603
 36      0.0000     0.0000E+00    0.0000E+00    4.000000E+07  0.05000  3.198E-03    0   0.7618   age104_m72            0.0000     6.1217E+01     5.9033   2.3282    99.6370
 37      0.0000     0.0000E+00    0.0000E+00    1.015200E+08  0.05000  1.716E-03    0   0.7092   age116_m72            0.0000     1.0394E+02     7.1915   2.0664   103.2615
 38      0.0000     0.0000E+00    0.0000E+00    2.861200E+08  0.05000  7.047E-04    0   0.6618   age125_m72            0.0000     1.4530E+02     8.1419   1.2748   109.5935
 39      0.0000     0.0000E+00    0.0000E+00    6.405400E+08  0.05000  2.633E-04    0   0.6253   age132_m72            0.0000     6.3352E+01     6.1360   0.3904   112.7709
 40      0.0000     0.0000E+00    0.0000E+00    9.047900E+08  0.05000  1.484E-04    0   0.6088   age135_m72            0.0000     2.3157E+01     4.5997  -0.1199   108.4975
 41      0.0000     0.0000E+00    0.0000E+00    1.434000E+09  0.05000  7.827E-05    0   0.5847   age139_m72            0.0000     3.6087E+01     5.5460  -0.5255   105.3214
 42      0.0000     0.0000E+00    0.0000E+00    2.500000E+09  0.05000  3.759E-05    0   0.5583   age150_m72            0.0000     6.9249E+01     7.0062  -0.8541   104.5663
 43      0.0000     0.0000E+00    0.0000E+00    5.000000E+09  0.05000  1.548E-05    0   0.5320   age161_m72            0.0000     1.4035E+02     9.2376  -1.0000    97.2975
 44      0.0000     0.0000E+00    0.0000E+00    1.100000E+10  0.05000  6.532E-06    0   0.5070   age185_m72            0.0000     3.0436E+02    14.5164  -1.0000    86.9230
 45      0.0000     0.0000E+00    0.0000E+00    1.300000E+10  0.05000  5.316E-06    0   0.5018   age193_m72            0.0000     3.7509E+02    16.2470  -1.0000    83.7875


## Synthesis Results - Average & Chains ##

# j      x_j: min, <> & last-chain-values for 1 ...  7 chains
  1      0.0000      0.0052      0.0000      0.0000      0.0000      0.0000      0.0000      0.0000      0.0000
  2      2.7495      1.2718      1.2852      1.6734      1.7318      1.1277      1.7057      1.5445      1.9307
  3      0.0000      0.0429      0.0000      0.0000      0.0000      0.0000      0.0000      0.0000      0.0000
  4      4.7926      5.7852      6.0151      6.1627      5.4542      6.0067      5.9519      6.1893      5.9486
  5      0.0000      0.1325      0.0286      0.0000      0.1068      0.0000      0.0000      0.0000      0.0000
  6      0.0000      0.0414      0.0000      0.0306      0.1906      0.1171      0.0315      0.0000      0.0000
  7      5.1920      2.6543      3.3993      2.8490      2.7428      3.0619      3.1781      2.8288      3.0639
  8      0.0000      0.0773      0.0092      0.1633      0.0000      0.0000      0.0000      0.0000      0.0000
  9      0.0000      0.1054      0.0000      0.0000      0.0000      0.0000      0.0030      0.0000      0.0000
 10      4.5745      8.5513      8.2067      8.7054      8.5945      8.4280      7.9953      8.3098      8.6902
 11      0.0000      0.1963      0.0586      0.0000      0.0000      0.0790      0.1916      0.0000      0.0382
 12     64.0437     60.9225     61.7387     61.2837     61.9341     61.4421     61.1643     62.0280     61.2891
 13     21.3201     20.3898     20.2993     20.5253     20.3731     20.5968     20.6506     20.3297     20.1197
 14      0.0000      0.0756      0.1340      0.0727      0.0000      0.0000      0.0000      0.0413      0.0000
 15      0.0000      0.0687      0.0511      0.0000      0.0000      0.0000      0.0000      0.0000      0.0000
 16      0.0000      0.0042      0.0000      0.0000      0.0000      0.0000      0.0000      0.0000      0.0000
 17      0.0000      0.0057      0.0000      0.0000      0.0000      0.0000      0.0000      0.0000      0.0000
 18      0.0000      0.4547      0.4624      0.0000      0.5396      0.5387      0.3192      0.3312      0.0000
 19      0.0000      0.0122      0.0000      0.0000      0.0000      0.0000      0.0000      0.0000      0.0000
 20      0.0000      0.0107      0.0000      0.0000      0.0000      0.0000      0.0023      0.0000      0.0000
 21      0.0000      0.0201      0.0000      0.0000      0.0000      0.0000      0.0000      0.0000      0.0049
 22      0.0000      0.0482      0.0000      0.0000      0.0000      0.0000      0.0156      0.0000      0.0000
 23      0.0000      0.0215      0.0000      0.0159      0.0000      0.0000      0.0000      0.0000      0.0000
 24      0.0000      0.0115      0.0000      0.0000      0.0000      0.0000      0.0000      0.0408      0.0000
 25      0.0000      0.0234      0.0000      0.0000      0.0039      0.0000      0.0000      0.0000      0.0000
 26      0.0000      0.0677      0.0000      0.0000      0.0000      0.0000      0.0000      0.0000      0.0000
 27      0.0000      0.0868      0.0000      0.0000      0.0000      0.0000      0.0019      0.0000      0.0000
 28      0.0000      0.0403      0.0000      0.0179      0.0000      0.0333      0.0000      0.0000      0.0000
 29      0.0000      0.0143      0.0000      0.0087      0.0000      0.0000      0.0000      0.0000      0.0000
 30      0.0000      0.0143      0.0000      0.0000      0.0000      0.0000      0.1471      0.0000      0.0000
 31      0.0000      0.0032      0.0000      0.0000      0.0000      0.0000      0.0000      0.0000      0.0000
 32      0.0000      0.0129      0.0000      0.0218      0.0000      0.0018      0.0000      0.0000      0.0000
 33      0.0000      0.0298      0.0000      0.0000      0.0000      0.0000      0.0000      0.0000      0.0000
 34      0.0000      0.0071      0.0000      0.0000      0.0000      0.0000      0.0000      0.0000      0.0000
 35      0.0000      0.0121      0.0000      0.0000      0.0000      0.0000      0.0000      0.0000      0.0000
 36      0.0000      0.0283      0.0000      0.0000      0.0000      0.0000      0.0000      0.0000      0.0000
 37      0.0000      0.0563      0.0000      0.0400      0.0000      0.0368      0.0065      0.0000      0.0000
 38      0.0000      0.0315      0.0000      0.0000      0.0000      0.0000      0.0105      0.0388      0.0000
 39      0.0000      0.0373      0.0000      0.0000      0.0000      0.0000      0.0000      0.0000      0.0000
 40      0.0000      0.0829      0.0000      0.0000      0.0000      0.0000      0.0448      0.0000      0.0000
 41      0.0000      0.2264      0.3143      0.0000      0.0000      0.2407      0.3557      0.1350      0.5691
 42      0.0000      0.0707      0.0000      0.0018      0.0033      0.1379      0.0000      0.0000      0.0907
 43      0.0000      0.2497      0.0000      0.4601      0.4936      0.3248      0.1593      0.2250      0.3134
 44      0.0000      0.5267      0.5193      0.5533      0.4422      0.5481      0.5316      0.5510      0.4758
 45      0.0000      0.3281      0.3516      0.2838      0.1813      0.0685      0.3255      0.2500      0.3500

# j      m_j: min, <> & last-chain-values for 1 ...  7 chains
  1  0.0000E+00  6.8868E-05  0.0000E+00  0.0000E+00  0.0000E+00  0.0000E+00  0.0000E+00  0.0000E+00  0.0000E+00
  2  1.1204E-02  4.6438E-03  4.7489E-03  6.1066E-03  6.4922E-03  4.2531E-03  6.2235E-03  5.7269E-03  7.1098E-03
  3  0.0000E+00  2.3899E-04  0.0000E+00  0.0000E+00  0.0000E+00  0.0000E+00  0.0000E+00  0.0000E+00  0.0000E+00
  4  5.5467E-02  5.9996E-02  6.3126E-02  6.3871E-02  5.8074E-02  6.4344E-02  6.1677E-02  6.5179E-02  6.2214E-02
  5  0.0000E+00  3.1770E-03  6.9447E-04  0.0000E+00  2.6292E-03  0.0000E+00  0.0000E+00  0.0000E+00  0.0000E+00
  6  0.0000E+00  1.3791E-03  0.0000E+00  1.0189E-03  6.5188E-03  4.0312E-03  1.0478E-03  0.0000E+00  0.0000E+00
  7  2.7386E-01  1.2546E-01  1.6258E-01  1.3457E-01  1.3310E-01  1.4948E-01  1.5009E-01  1.3577E-01  1.4604E-01
  8  0.0000E+00  7.0431E-03  8.5053E-04  1.4880E-02  0.0000E+00  0.0000E+00  0.0000E+00  0.0000E+00  0.0000E+00
  9  0.0000E+00  1.9135E-02  0.0000E+00  0.0000E+00  0.0000E+00  0.0000E+00  5.3616E-04  0.0000E+00  0.0000E+00
 10  1.2940E+00  2.1674E+00  2.1049E+00  2.2051E+00  2.2365E+00  2.2065E+00  2.0249E+00  2.1388E+00  2.2213E+00
 11  0.0000E+00  8.7381E-02  2.6414E-02  0.0000E+00  0.0000E+00  3.6329E-02  8.5223E-02  0.0000E+00  1.7153E-02
 12  5.9151E+01  5.0421E+01  5.1706E+01  5.0687E+01  5.2626E+01  5.2525E+01  5.0581E+01  5.2128E+01  5.1154E+01
 13  3.9214E+01  3.3606E+01  3.3856E+01  3.3807E+01  3.4475E+01  3.5064E+01  3.4009E+01  3.4024E+01  3.3442E+01
 14  0.0000E+00  2.5400E-01  4.5550E-01  2.4404E-01  0.0000E+00  0.0000E+00  0.0000E+00  1.4078E-01  0.0000E+00
 15  0.0000E+00  2.6742E-01  2.0112E-01  0.0000E+00  0.0000E+00  0.0000E+00  0.0000E+00  0.0000E+00  0.0000E+00
 16  0.0000E+00  3.1747E-05  0.0000E+00  0.0000E+00  0.0000E+00  0.0000E+00  0.0000E+00  0.0000E+00  0.0000E+00
 17  0.0000E+00  2.1998E-05  0.0000E+00  0.0000E+00  0.0000E+00  0.0000E+00  0.0000E+00  0.0000E+00  0.0000E+00
 18  0.0000E+00  1.9578E-03  2.0149E-03  0.0000E+00  2.3856E-03  2.3958E-03  1.3735E-03  1.4481E-03  0.0000E+00
 19  0.0000E+00  1.5689E-04  0.0000E+00  0.0000E+00  0.0000E+00  0.0000E+00  0.0000E+00  0.0000E+00  0.0000E+00
 20  0.0000E+00  3.0530E-04  0.0000E+00  0.0000E+00  0.0000E+00  0.0000E+00  6.5640E-05  0.0000E+00  0.0000E+00
 21  0.0000E+00  6.9188E-04  0.0000E+00  0.0000E+00  0.0000E+00  0.0000E+00  0.0000E+00  0.0000E+00  1.6986E-04
 22  0.0000E+00  2.7565E-03  0.0000E+00  0.0000E+00  0.0000E+00  0.0000E+00  8.9095E-04  0.0000E+00  0.0000E+00
 23  0.0000E+00  2.4207E-03  0.0000E+00  1.7863E-03  0.0000E+00  0.0000E+00  0.0000E+00  0.0000E+00  0.0000E+00
 24  0.0000E+00  2.9563E-03  0.0000E+00  0.0000E+00  0.0000E+00  0.0000E+00  0.0000E+00  1.0642E-02  0.0000E+00
 25  0.0000E+00  9.2673E-03  0.0000E+00  0.0000E+00  1.5921E-03  0.0000E+00  0.0000E+00  0.0000E+00  0.0000E+00
 26  0.0000E+00  5.0583E-02  0.0000E+00  0.0000E+00  0.0000E+00  0.0000E+00  0.0000E+00  0.0000E+00  0.0000E+00
 27  0.0000E+00  1.3164E-01  0.0000E+00  0.0000E+00  0.0000E+00  0.0000E+00  2.9448E-03  0.0000E+00  0.0000E+00
 28  0.0000E+00  1.2346E-01  0.0000E+00  5.4794E-02  0.0000E+00  1.0565E-01  0.0000E+00  0.0000E+00  0.0000E+00
 29  0.0000E+00  9.3004E-02  0.0000E+00  5.6306E-02  0.0000E+00  0.0000E+00  0.0000E+00  0.0000E+00  0.0000E+00
 30  0.0000E+00  1.1099E-01  0.0000E+00  0.0000E+00  0.0000E+00  0.0000E+00  1.1384E+00  0.0000E+00  0.0000E+00
 31  0.0000E+00  1.7846E-05  0.0000E+00  0.0000E+00  0.0000E+00  0.0000E+00  0.0000E+00  0.0000E+00  0.0000E+00
 32  0.0000E+00  3.8237E-05  0.0000E+00  6.4548E-05  0.0000E+00  5.6107E-06  0.0000E+00  0.0000E+00  0.0000E+00
 33  0.0000E+00  1.3095E-04  0.0000E+00  0.0000E+00  0.0000E+00  0.0000E+00  0.0000E+00  0.0000E+00  0.0000E+00
