###################################################################
## OUTPUT of StarlightChains_v04.for    [Cid@UFSC - 01/Apr/2007] ##
###################################################################

## Some input info
NGC6342_a_2.cxt                          [arq_obs]
Base.BC03.N                              [arq_base]
NGC6342_a_2.msk                          [arq_masks]
StCv04.C99.config                        [arq_config]
   45                                    [N_base]
    0                                    [N_YAV_components = # of components with extra extinction!]
    0                                    [i_FitPowerLaw (1/0 = Yes/No)]
-9.99                                    [alpha_PowerLaw]
CCM                                      [red_law_option]
 1.458241                                [q_norm = A(l_norm)/A(V)]

## (Re)Sampling Parameters
 3359.00                                 [l_ini (A)]
 6428.00                                 [l_fin (A)]
    1.00                                 [dl    (A)]     (OBS: dl_cushion =    50.00 A)

## Normalization info
 4020.00                                 [l_norm (A) - for base]
 4010.00                                 [llow_norm (A) - window for f_obs]
 4060.00                                 [lupp_norm (A) - window for f_obs]
3.704827E-15                             [fobs_norm (in input units)]

## S/N
 4730.00                                 [llow_SN (A) - window for S/N]
 4780.00                                 [lupp_SN (A) - window for S/N]
  43.866                                 [S/N in S/N window]
  28.421                                 [S/N in norm. window]
 215.944                                 [S/N_err in S/N window]
 139.911                                 [S/N_err in norm. window]
  1.0000                                 [fscale_chi2]

## etc...
  2147483614                             [idum_orig]
  3067                                   [NOl_eff]
   664                                   [Nl_eff]
  2403    NSIGMA                         [Ntot_cliped & clip_method]
  1594320                                [Nglobal_steps]
   7                                     [N_chains]
   9                                     [NEX0s_base = N_base in EX0s-fits]
 0   0   1      177   2.0   3.168E+02    [Clip-Bug, RC-Crash & Burn-In warning-flags, n_censored_weights, wei_nsig_threshold & wei_limit]
    23     23.109     23.105      0.004  [idt_all, wdt_TotTime, wdt_UsrTime & wdt_SysTime (sec)]

## Synthesis Results - Best model ##

 2.77162E+00                             [chi2/Nl_eff]
     1.64733                             [adev (%)]

    97.43163                             [sum-of-x (%)]
 2.08966E-14                             [Flux_tot (units of input spectrum!)]
 5.26443E-10                             [Mini_tot (???)]
 2.71935E-10                             [Mcor_tot (???)]

 -22.73                                  [v0_min  (km/s)]
  46.30                                  [vd_min  (km/s)]
 1.3074                                  [AV_min  (mag)]
 0.0000                                  [YAV_min (mag)]

# j     x_j(%)      Mini_j(%)     Mcor_j(%)     age_j(yr)     Z_j      (L/M)_j    YAV?  Mstars   component_j        a/Fe...       SSP_chi2r SSP_adev(%)   SSP_AV   SSP_x(%)
  1      0.0000     0.0000E+00    0.0000E+00    1.000000E+06  0.00400  1.114E-02    0   1.0000   age020_m42            0.0000     3.2048E+03    39.0577   4.0000    99.4084
  2      4.2064     4.2074E-03    8.1444E-03    3.160000E+06  0.00400  4.073E-02    0   0.9999   age045_m42            0.0000     2.5648E+02    12.0885   4.0000    93.7448
  3      0.0000     0.0000E+00    0.0000E+00    5.010000E+06  0.00400  2.534E-02    0   0.9488   age055_m42            0.0000     8.9526E+02    22.9888   4.0000    97.5759
  4      2.2970     7.3627E-03    1.2632E-02    1.000000E+07  0.00400  1.271E-02    0   0.8862   age070_m42            0.0000     3.4406E+02    14.5088   3.6861    89.0769
  5      0.0000     0.0000E+00    0.0000E+00    2.512000E+07  0.00400  5.070E-03    0   0.8174   age090_m42            0.0000     3.1802E+02    13.9283   3.5624    90.5658
  6      0.0000     0.0000E+00    0.0000E+00    4.000000E+07  0.00400  3.505E-03    0   0.7851   age104_m42            0.0000     2.3768E+02    11.8661   3.2632    93.3244
  7      0.0000     0.0000E+00    0.0000E+00    1.015200E+08  0.00400  2.268E-03    0   0.7207   age116_m42            0.0000     4.7366E+02    12.4090   3.3340   100.9983
  8      0.0000     0.0000E+00    0.0000E+00    2.861200E+08  0.00400  1.079E-03    0   0.6613   age125_m42            0.0000     4.9968E+02    12.4489   2.8558   102.5163
  9      0.0000     0.0000E+00    0.0000E+00    6.405400E+08  0.00400  5.077E-04    0   0.6197   age132_m42            0.0000     5.0962E+02    12.7366   2.4834   106.7959
 10      0.0000     0.0000E+00    0.0000E+00    9.047900E+08  0.00400  3.535E-04    0   0.6024   age135_m42            0.0000     3.4320E+02    10.3249   2.2373   106.3219
 11      0.0000     0.0000E+00    0.0000E+00    1.434000E+09  0.00400  1.910E-04    0   0.5716   age139_m42            0.0000     1.4658E+02     6.7462   1.7234   105.1016
 12      9.1115     3.7809E+00    3.9986E+00    2.500000E+09  0.00400  9.818E-05    0   0.5463   age150_m42            0.0000     2.9274E+01     3.2147   1.4479   100.4925
 13     65.7305     5.6759E+01    5.7446E+01    5.000000E+09  0.00400  4.718E-05    0   0.5228   age161_m42            0.0000     4.7051E+00     1.9296   1.2748    97.4185
 14      7.3992     1.3671E+01    1.3180E+01    1.100000E+10  0.00400  2.205E-05    0   0.4980   age185_m42            0.0000     2.3324E+01     3.3498   1.0227    95.3167
 15      1.9567     4.2335E+00    4.0381E+00    1.300000E+10  0.00400  1.883E-05    0   0.4927   age193_m42            0.0000     2.8763E+01     3.6773   1.0049    95.2114
 16      0.0000     0.0000E+00    0.0000E+00    1.000000E+06  0.02000  1.989E-02    0   1.0000   age020_m62            0.0000     3.0060E+03    37.8308   4.0000    99.7088
 17      0.0000     0.0000E+00    0.0000E+00    3.160000E+06  0.02000  3.772E-02    0   0.9858   age045_m62            0.0000     2.3079E+03    34.3157   4.0000   100.0435
 18      0.0000     0.0000E+00    0.0000E+00    5.010000E+06  0.02000  3.227E-02    0   0.9342   age055_m62            0.0000     5.6912E+02    18.8985   4.0000    97.3625
 19      0.0000     0.0000E+00    0.0000E+00    1.000000E+07  0.02000  1.011E-02    0   0.8751   age070_m62            0.0000     6.8602E+02    19.6215   3.6813    85.6870
 20      0.0000     0.0000E+00    0.0000E+00    2.512000E+07  0.02000  4.206E-03    0   0.8099   age090_m62            0.0000     5.0665E+02    17.3906   3.6328    86.1725
 21      0.0000     0.0000E+00    0.0000E+00    4.000000E+07  0.02000  3.373E-03    0   0.7799   age104_m62            0.0000     2.7752E+02    11.5962   3.4834    94.4744
 22      0.0000     0.0000E+00    0.0000E+00    1.015200E+08  0.02000  1.878E-03    0   0.7221   age116_m62            0.0000     4.4412E+02    11.6223   3.3482   101.6065
 23      0.0000     0.0000E+00    0.0000E+00    2.861200E+08  0.02000  8.869E-04    0   0.6700   age125_m62            0.0000     7.4869E+02    15.3489   2.8818   107.1696
 24      0.0000     0.0000E+00    0.0000E+00    6.405400E+08  0.02000  3.657E-04    0   0.6322   age132_m62            0.0000     4.9431E+02    12.1551   2.2181   110.0536
 25      0.0000     0.0000E+00    0.0000E+00    9.047900E+08  0.02000  2.312E-04    0   0.6152   age135_m62            0.0000     2.8160E+02     8.9939   1.8403   109.2716
 26      0.0000     0.0000E+00    0.0000E+00    1.434000E+09  0.02000  1.168E-04    0   0.5865   age139_m62            0.0000     7.9304E+01     4.8658   1.4214   103.7107
 27      0.0000     0.0000E+00    0.0000E+00    2.500000E+09  0.02000  5.505E-05    0   0.5610   age150_m62            0.0000     5.5017E+01     4.7398   1.0574   100.8114
 28      1.9270     3.0241E+00    3.1339E+00    5.000000E+09  0.02000  2.596E-05    0   0.5353   age161_m62            0.0000     1.1956E+02     7.0550   0.7464   100.4615
 29      2.3271     8.1103E+00    8.0121E+00    1.100000E+10  0.02000  1.169E-05    0   0.5103   age185_m62            0.0000     2.3482E+02     9.5713   0.4037   101.5056
 30      2.4762     1.0410E+01    1.0171E+01    1.300000E+10  0.02000  9.691E-06    0   0.5047   age193_m62            0.0000     2.5757E+02     9.9558   0.3595   101.7381
 31      0.0000     0.0000E+00    0.0000E+00    1.000000E+06  0.05000  2.651E-02    0   0.9998   age020_m72            0.0000     2.9904E+03    37.4781   4.0000   100.8328
 32      0.0000     0.0000E+00    0.0000E+00    3.160000E+06  0.05000  4.817E-02    0   0.9577   age045_m72            0.0000     1.6370E+03    29.3922   4.0000   101.2434
 33      0.0000     0.0000E+00    0.0000E+00    5.010000E+06  0.05000  3.101E-02    0   0.9147   age055_m72            0.0000     6.7765E+02    20.8070   4.0000    95.6030
 34      0.0000     0.0000E+00    0.0000E+00    1.000000E+07  0.05000  8.954E-03    0   0.8524   age070_m72            0.0000     1.2534E+03    26.1991   4.0000    99.8882
 35      0.0000     0.0000E+00    0.0000E+00    2.512000E+07  0.05000  4.207E-03    0   0.7902   age090_m72            0.0000     3.6573E+02    14.7152   4.0000    94.9892
 36      0.0000     0.0000E+00    0.0000E+00    4.000000E+07  0.05000  3.198E-03    0   0.7618   age104_m72            0.0000     3.4205E+02    10.2423   3.7177    97.3545
 37      0.0000     0.0000E+00    0.0000E+00    1.015200E+08  0.05000  1.716E-03    0   0.7092   age116_m72            0.0000     5.1638E+02    12.5195   3.4464   101.6145
 38      0.0000     0.0000E+00    0.0000E+00    2.861200E+08  0.05000  7.047E-04    0   0.6618   age125_m72            0.0000     7.0118E+02    14.8208   2.6895   107.5169
 39      0.0000     0.0000E+00    0.0000E+00    6.405400E+08  0.05000  2.633E-04    0   0.6253   age132_m72            0.0000     3.5810E+02    10.3180   1.8536   109.4620
 40      0.0000     0.0000E+00    0.0000E+00    9.047900E+08  0.05000  1.484E-04    0   0.6088   age135_m72            0.0000     1.4061E+02     6.5367   1.3762   104.3176
 41      0.0000     0.0000E+00    0.0000E+00    1.434000E+09  0.05000  7.827E-05    0   0.5847   age139_m72            0.0000     1.0315E+02     6.3437   0.9962   100.7718
 42      0.0000     0.0000E+00    0.0000E+00    2.500000E+09  0.05000  3.759E-05    0   0.5583   age150_m72            0.0000     1.4500E+02     7.6717   0.6806    99.9394
 43      0.0000     0.0000E+00    0.0000E+00    5.000000E+09  0.05000  1.548E-05    0   0.5320   age161_m72            0.0000     2.5495E+02     9.4854   0.2826    99.7372
 44      0.0000     0.0000E+00    0.0000E+00    1.100000E+10  0.05000  6.532E-06    0   0.5070   age185_m72            0.0000     4.3541E+02    11.9609  -0.0638    99.1950
 45      0.0000     0.0000E+00    0.0000E+00    1.300000E+10  0.05000  5.316E-06    0   0.5018   age193_m72            0.0000     5.1945E+02    13.0214  -0.1666    99.0113


## Synthesis Results - Average & Chains ##

# j      x_j: min, <> & last-chain-values for 1 ...  7 chains
  1      0.0000      0.0120      0.0000      0.0000      0.0000      0.0000      0.0000      0.0000      0.0000
  2      4.2064      3.7327      3.6583      3.9323      3.7329      3.6686      3.8187      4.1199      3.8342
  3      0.0000      0.2260      0.2298      0.2153      0.3291      0.0000      0.2720      0.2291      0.2589
  4      2.2970      2.1035      2.2361      2.2669      2.1178      2.1227      2.0837      2.1034      2.2231
  5      0.0000      0.0535      0.0039      0.0000      0.0000      0.0054      0.0641      0.0000      0.0000
  6      0.0000      0.0415      0.0000      0.0000      0.0000      0.0000      0.0152      0.0000      0.0000
  7      0.0000      0.0172      0.0637      0.0000      0.0192      0.0000      0.0000      0.0000      0.0000
  8      0.0000      0.0244      0.0000      0.0000      0.0000      0.0000      0.0000      0.0000      0.0000
  9      0.0000      0.0426      0.0938      0.0000      0.0103      0.0000      0.0000      0.0656      0.1015
 10      0.0000      0.1582      0.1683      0.2455      0.3701      0.4770      0.3798      0.3839      0.0000
 11      0.0000      0.2110      0.1083      0.1946      0.1495      0.0000      0.0000      0.2764      0.1293
 12      9.1115      7.2410      7.0875      7.6198      7.1985      7.4962      7.2319      6.7608      7.3234
 13     65.7305     66.6709     67.4983     66.5305     66.7955     66.8834     67.4935     67.0758     67.0609
 14      7.3992      7.8113      7.7572      8.0249      8.4273      7.8730      8.1781      7.2836      7.9232
 15      1.9567      0.7782      0.7739      1.0042      0.5529      0.7728      0.2655      1.4193      0.7560
 16      0.0000      0.0134      0.0000      0.0000      0.0000      0.0000      0.0000      0.0000      0.0000
 17      0.0000      0.0121      0.0000      0.0000      0.0000      0.0000      0.0000      0.0000      0.0000
 18      0.0000      0.0534      0.1015      0.0000      0.0000      0.3430      0.0212      0.0000      0.0840
 19      0.0000      0.0179      0.0000      0.0000      0.0288      0.0000      0.0000      0.0000      0.0000
 20      0.0000      0.0178      0.0000      0.0000      0.0000      0.0000      0.0000      0.0000      0.0000
 21      0.0000      0.0258      0.0000      0.0000      0.0645      0.0000      0.0000      0.0163      0.0000
 22      0.0000      0.0157      0.0000      0.0209      0.0094      0.0000      0.0000      0.0000      0.0484
 23      0.0000      0.0153      0.0000      0.0000      0.0164      0.0000      0.0000      0.0000      0.0000
 24      0.0000      0.0196      0.0000      0.0000      0.0000      0.0431      0.0000      0.0000      0.0110
 25      0.0000      0.0332      0.0000      0.0000      0.0000      0.0000      0.0000      0.0000      0.0000
 26      0.0000      0.0598      0.0000      0.0000      0.0000      0.0000      0.0000      0.0000      0.0000
 27      0.0000      0.1106      0.0000      0.0669      0.0109      0.1694      0.0000      0.0000      0.0000
 28      1.9270      2.9241      2.6598      2.3140      2.4397      2.7815      2.8475      3.0680      3.0127
 29      2.3271      2.9726      2.9957      3.2350      3.3298      2.8775      2.9943      2.9475      2.8241
 30      2.4762      1.6021      1.6262      1.6299      1.5796      1.7865      1.6706      1.6225      1.6221
 31      0.0000      0.0147      0.0000      0.0000      0.0000      0.0000      0.0000      0.0000      0.0000
 32      0.0000      0.0227      0.0000      0.0000      0.0093      0.1759      0.0000      0.0041      0.0000
 33      0.0000      0.0248      0.0000      0.0151      0.1175      0.0000      0.0718      0.0000      0.0000
 34      0.0000      0.0114      0.0000      0.0000      0.0000      0.0000      0.0000      0.0000      0.0008
 35      0.0000      0.0222      0.1878      0.0000      0.0000      0.0000      0.0000      0.0000      0.0000
 36      0.0000      0.0141      0.0000      0.0000      0.0000      0.0000      0.0000      0.0000      0.0364
 37      0.0000      0.0122      0.0000      0.0000      0.0000      0.0000      0.0000      0.0001      0.0000
 38      0.0000      0.0116      0.0000      0.0000      0.0000      0.0044      0.0000      0.0000      0.0000
 39      0.0000      0.0369      0.0000      0.0584      0.0000      0.0000      0.0000      0.0000      0.0000
 40      0.0000      0.0698      0.0683      0.0000      0.0000      0.0000      0.0482      0.0000      0.0000
 41      0.0000      0.1071      0.1182      0.0000      0.0885      0.0000      0.0000      0.0930      0.0000
 42      0.0000      0.0767      0.0000      0.1149      0.0544      0.0000      0.0000      0.0000      0.1808
 43      0.0000      0.0230      0.0000      0.0000      0.0000      0.0000      0.0000      0.0000      0.0000
 44      0.0000      0.0093      0.0000      0.0000      0.0000      0.0000      0.0000      0.0000      0.0000
 45      0.0000      0.0069      0.0000      0.0000      0.0000      0.0000      0.0000      0.0000      0.0000

# j      m_j: min, <> & last-chain-values for 1 ...  7 chains
  1  0.0000E+00  8.5993E-05  0.0000E+00  0.0000E+00  0.0000E+00  0.0000E+00  0.0000E+00  0.0000E+00  0.0000E+00
  2  8.1444E-03  7.2920E-03  7.1541E-03  7.6328E-03  7.2392E-03  7.1492E-03  7.4562E-03  8.0178E-03  7.4944E-03
  3  0.0000E+00  6.7352E-04  6.8546E-04  6.3731E-04  9.7338E-04  0.0000E+00  8.1011E-04  6.7996E-04  7.7191E-04
  4  1.2632E-02  1.1671E-02  1.2420E-02  1.2497E-02  1.1665E-02  1.1748E-02  1.1555E-02  1.1626E-02  1.2341E-02
  5  0.0000E+00  6.8588E-04  5.0648E-05  0.0000E+00  0.0000E+00  6.9226E-05  8.2166E-04  0.0000E+00  0.0000E+00
  6  0.0000E+00  7.3917E-04  0.0000E+00  0.0000E+00  0.0000E+00  0.0000E+00  2.7064E-04  0.0000E+00  0.0000E+00
  7  0.0000E+00  4.3516E-04  1.6122E-03  0.0000E+00  4.8086E-04  0.0000E+00  0.0000E+00  0.0000E+00  0.0000E+00
  8  0.0000E+00  1.1922E-03  0.0000E+00  0.0000E+00  0.0000E+00  0.0000E+00  0.0000E+00  0.0000E+00  0.0000E+00
  9  0.0000E+00  4.1382E-03  9.1199E-03  0.0000E+00  9.9209E-04  0.0000E+00  0.0000E+00  6.3450E-03  9.8690E-03
 10  0.0000E+00  2.1447E-02  2.2849E-02  3.3085E-02  4.9827E-02  6.4525E-02  5.1481E-02  5.1861E-02  0.0000E+00
 11  0.0000E+00  5.0242E-02  2.5823E-02  4.6048E-02  3.5354E-02  0.0000E+00  0.0000E+00  6.5568E-02  3.0820E-02
 12  3.9986E+00  3.2062E+00  3.1415E+00  3.3523E+00  3.1641E+00  3.3110E+00  3.2005E+00  2.9821E+00  3.2445E+00
 13  5.7446E+01  5.8789E+01  5.9581E+01  5.8290E+01  5.8469E+01  5.8832E+01  5.9483E+01  5.8921E+01  5.9166E+01
 14  1.3180E+01  1.4039E+01  1.3956E+01  1.4330E+01  1.5035E+01  1.4115E+01  1.4690E+01  1.3040E+01  1.4248E+01
 15  4.0381E+00  1.6204E+00  1.6130E+00  2.0775E+00  1.1429E+00  1.6051E+00  5.5249E-01  2.9440E+00  1.5750E+00
 16  0.0000E+00  5.3509E-05  0.0000E+00  0.0000E+00  0.0000E+00  0.0000E+00  0.0000E+00  0.0000E+00  0.0000E+00
 17  0.0000E+00  2.5167E-05  0.0000E+00  0.0000E+00  0.0000E+00  0.0000E+00  0.0000E+00  0.0000E+00  0.0000E+00
 18  0.0000E+00  1.2309E-04  2.3400E-04  0.0000E+00  0.0000E+00  7.8817E-04  4.8901E-05  0.0000E+00  1.9357E-04
 19  0.0000E+00  1.2315E-04  0.0000E+00  0.0000E+00  1.9667E-04  0.0000E+00  0.0000E+00  0.0000E+00  0.0000E+00
 20  0.0000E+00  2.7280E-04  0.0000E+00  0.0000E+00  0.0000E+00  0.0000E+00  0.0000E+00  0.0000E+00  0.0000E+00
 21  0.0000E+00  4.7488E-04  0.0000E+00  0.0000E+00  1.1773E-03  0.0000E+00  0.0000E+00  2.9873E-04  0.0000E+00
 22  0.0000E+00  4.8187E-04  0.0000E+00  6.3512E-04  2.8600E-04  0.0000E+00  0.0000E+00  0.0000E+00  1.4818E-03
 23  0.0000E+00  9.1958E-04  0.0000E+00  0.0000E+00  9.7876E-04  0.0000E+00  0.0000E+00  0.0000E+00  0.0000E+00
 24  0.0000E+00  2.6894E-03  0.0000E+00  0.0000E+00  0.0000E+00  5.9153E-03  0.0000E+00  0.0000E+00  1.5123E-03
 25  0.0000E+00  7.0287E-03  0.0000E+00  0.0000E+00  0.0000E+00  0.0000E+00  0.0000E+00  0.0000E+00  0.0000E+00
 26  0.0000E+00  2.3899E-02  0.0000E+00  0.0000E+00  0.0000E+00  0.0000E+00  0.0000E+00  0.0000E+00  0.0000E+00
 27  0.0000E+00  8.9650E-02  0.0000E+00  5.3894E-02  8.7689E-03  1.3705E-01  0.0000E+00  0.0000E+00  0.0000E+00
 28  3.1339E+00  4.7981E+00  4.3690E+00  3.7726E+00  3.9740E+00  4.5529E+00  4.6699E+00  5.0151E+00  4.9463E+00
 29  8.0121E+00  1.0326E+01  1.0417E+01  1.1166E+01  1.1482E+01  9.9711E+00  1.0396E+01  1.0200E+01  9.8154E+00
 30  1.0171E+01  6.6396E+00  6.7466E+00  6.7114E+00  6.4985E+00  7.3855E+00  6.9197E+00  6.6985E+00  6.7261E+00
 31  0.0000E+00  4.4083E-05  0.0000E+00  0.0000E+00  0.0000E+00  0.0000E+00  0.0000E+00  0.0000E+00  0.0000E+00
 32  0.0000E+00  3.5870E-05  0.0000E+00  0.0000E+00  1.4636E-05  2.7766E-04  0.0000E+00  6.4106E-06  0.0000E+00
 33  0.0000E+00  5.8135E-05  0.0000E+00  3.5254E-05  2.7381E-04  0.0000E+00  1.6838E-04  0.0000E+00  0.0000E+00
