###################################################################
## OUTPUT of StarlightChains_v04.for    [Cid@UFSC - 01/Apr/2007] ##
###################################################################

## Some input info
NGC6356_a_1.cxt                          [arq_obs]
Base.BC03.N                              [arq_base]
NGC6356_a_1.msk                          [arq_masks]
StCv04.C99.config                        [arq_config]
   45                                    [N_base]
    0                                    [N_YAV_components = # of components with extra extinction!]
    0                                    [i_FitPowerLaw (1/0 = Yes/No)]
-9.99                                    [alpha_PowerLaw]
CCM                                      [red_law_option]
 1.458241                                [q_norm = A(l_norm)/A(V)]

## (Re)Sampling Parameters
 3359.00                                 [l_ini (A)]
 6428.00                                 [l_fin (A)]
    1.00                                 [dl    (A)]     (OBS: dl_cushion =    50.00 A)

## Normalization info
 4020.00                                 [l_norm (A) - for base]
 4010.00                                 [llow_norm (A) - window for f_obs]
 4060.00                                 [lupp_norm (A) - window for f_obs]
1.105556E-14                             [fobs_norm (in input units)]

## S/N
 4730.00                                 [llow_SN (A) - window for S/N]
 4780.00                                 [lupp_SN (A) - window for S/N]
  43.679                                 [S/N in S/N window]
  28.435                                 [S/N in norm. window]
  64.165                                 [S/N_err in S/N window]
  41.771                                 [S/N_err in norm. window]
  1.0000                                 [fscale_chi2]

## etc...
  2147483612                             [idum_orig]
  3068                                   [NOl_eff]
  1643                                   [Nl_eff]
  1425    NSIGMA                         [Ntot_cliped & clip_method]
  1603420                                [Nglobal_steps]
   7                                     [N_chains]
  10                                     [NEX0s_base = N_base in EX0s-fits]
 0   0   1      257   2.0   8.798E+02    [Clip-Bug, RC-Crash & Burn-In warning-flags, n_censored_weights, wei_nsig_threshold & wei_limit]
    22     21.848     21.844      0.004  [idt_all, wdt_TotTime, wdt_UsrTime & wdt_SysTime (sec)]

## Synthesis Results - Best model ##

 2.76516E+00                             [chi2/Nl_eff]
     1.81433                             [adev (%)]

   102.07759                             [sum-of-x (%)]
 2.99476E-14                             [Flux_tot (units of input spectrum!)]
 1.40322E-09                             [Mini_tot (???)]
 7.22040E-10                             [Mcor_tot (???)]

   8.38                                  [v0_min  (km/s)]
  71.85                                  [vd_min  (km/s)]
 0.7266                                  [AV_min  (mag)]
 0.0000                                  [YAV_min (mag)]

# j     x_j(%)      Mini_j(%)     Mcor_j(%)     age_j(yr)     Z_j      (L/M)_j    YAV?  Mstars   component_j        a/Fe...       SSP_chi2r SSP_adev(%)   SSP_AV   SSP_x(%)
  1      0.0000     0.0000E+00    0.0000E+00    1.000000E+06  0.00400  1.114E-02    0   1.0000   age020_m42            0.0000     1.4721E+03    30.9981   4.0000    77.5841
  2      5.4442     2.7946E-03    5.4306E-03    3.160000E+06  0.00400  4.073E-02    0   0.9999   age045_m42            0.0000     4.0349E+02     7.8216   4.0000    88.5540
  3      0.0000     0.0000E+00    0.0000E+00    5.010000E+06  0.00400  2.534E-02    0   0.9488   age055_m42            0.0000     6.4070E+02    16.7883   4.0000    84.4200
  4      9.2990     1.5297E-02    2.6345E-02    1.000000E+07  0.00400  1.271E-02    0   0.8862   age070_m42            0.0000     4.5337E+02    10.0120   3.6784    85.4470
  5      0.0000     0.0000E+00    0.0000E+00    2.512000E+07  0.00400  5.070E-03    0   0.8174   age090_m42            0.0000     4.2290E+02     9.5832   3.5396    87.1582
  6      0.0000     0.0000E+00    0.0000E+00    4.000000E+07  0.00400  3.505E-03    0   0.7851   age104_m42            0.0000     3.8213E+02     8.3403   3.2030    90.3214
  7      0.0000     0.0000E+00    0.0000E+00    1.015200E+08  0.00400  2.268E-03    0   0.7207   age116_m42            0.0000     1.0263E+03     8.3236   3.1271    98.6273
  8      0.0000     0.0000E+00    0.0000E+00    2.861200E+08  0.00400  1.079E-03    0   0.6613   age125_m42            0.0000     1.0300E+03     8.5679   2.5949   101.3835
  9      0.0000     0.0000E+00    0.0000E+00    6.405400E+08  0.00400  5.077E-04    0   0.6197   age132_m42            0.0000     1.0434E+03     8.9788   2.2277   105.2659
 10      0.3229     1.9095E-02    2.2355E-02    9.047900E+08  0.00400  3.535E-04    0   0.6024   age135_m42            0.0000     7.4776E+02     7.8925   1.9919   105.1049
 11      0.0000     0.0000E+00    0.0000E+00    1.434000E+09  0.00400  1.910E-04    0   0.5716   age139_m42            0.0000     3.9515E+02     5.7112   1.4580   105.5176
 12      0.0000     0.0000E+00    0.0000E+00    2.500000E+09  0.00400  9.818E-05    0   0.5463   age150_m42            0.0000     1.1900E+02     3.3781   1.1893   102.5267
 13      0.0000     0.0000E+00    0.0000E+00    5.000000E+09  0.00400  4.718E-05    0   0.5228   age161_m42            0.0000     3.6847E+01     2.4180   1.0335   100.0128
 14     25.0317     2.3735E+01    2.2971E+01    1.100000E+10  0.00400  2.205E-05    0   0.4980   age185_m42            0.0000     1.2629E+01     2.5488   0.7585    99.3957
 15      3.0699     3.4086E+00    3.2638E+00    1.300000E+10  0.00400  1.883E-05    0   0.4927   age193_m42            0.0000     1.4044E+01     2.6123   0.7408    99.4146
 16      0.0000     0.0000E+00    0.0000E+00    1.000000E+06  0.02000  1.989E-02    0   1.0000   age020_m62            0.0000     1.4030E+03    30.1670   4.0000    78.2897
 17      0.0000     0.0000E+00    0.0000E+00    3.160000E+06  0.02000  3.772E-02    0   0.9858   age045_m62            0.0000     1.1989E+03    26.9771   4.0000    80.3377
 18      0.0000     0.0000E+00    0.0000E+00    5.010000E+06  0.02000  3.227E-02    0   0.9342   age055_m62            0.0000     5.4829E+02    13.1317   4.0000    86.5278
 19      0.0000     0.0000E+00    0.0000E+00    1.000000E+07  0.02000  1.011E-02    0   0.8751   age070_m62            0.0000     5.8489E+02    13.3415   3.7296    81.9790
 20      0.0000     0.0000E+00    0.0000E+00    2.512000E+07  0.02000  4.206E-03    0   0.8099   age090_m62            0.0000     5.1291E+02    11.4308   3.6437    83.3235
 21      0.0000     0.0000E+00    0.0000E+00    4.000000E+07  0.02000  3.373E-03    0   0.7799   age104_m62            0.0000     4.7202E+02     8.5255   3.4094    91.2423
 22      0.0000     0.0000E+00    0.0000E+00    1.015200E+08  0.02000  1.878E-03    0   0.7221   age116_m62            0.0000     9.5496E+02     8.3996   3.1663    98.6180
 23      0.0000     0.0000E+00    0.0000E+00    2.861200E+08  0.02000  8.869E-04    0   0.6700   age125_m62            0.0000     1.4889E+03     9.9815   2.5831   106.1237
 24      0.0000     0.0000E+00    0.0000E+00    6.405400E+08  0.02000  3.657E-04    0   0.6322   age132_m62            0.0000     1.0050E+03     9.0578   1.8522   111.5438
 25      0.0000     0.0000E+00    0.0000E+00    9.047900E+08  0.02000  2.312E-04    0   0.6152   age135_m62            0.0000     6.0317E+02     7.4929   1.4849   111.4316
 26      0.0000     0.0000E+00    0.0000E+00    1.434000E+09  0.02000  1.168E-04    0   0.5865   age139_m62            0.0000     1.8489E+02     4.3692   1.0962   107.1645
 27      0.0000     0.0000E+00    0.0000E+00    2.500000E+09  0.02000  5.505E-05    0   0.5610   age150_m62            0.0000     5.3993E+01     3.5530   0.7235   105.9155
 28     31.7237     2.5550E+01    2.6579E+01    5.000000E+09  0.02000  2.596E-05    0   0.5353   age161_m62            0.0000     5.6364E+01     4.8322   0.3621   107.9164
 29     18.2929     3.2717E+01    3.2446E+01    1.100000E+10  0.02000  1.169E-05    0   0.5103   age185_m62            0.0000     1.3636E+02     6.6424  -0.0440   111.5160
 30      3.1503     6.7966E+00    6.6664E+00    1.300000E+10  0.02000  9.691E-06    0   0.5047   age193_m62            0.0000     1.5836E+02     6.9391  -0.0974   112.1488
 31      0.0000     0.0000E+00    0.0000E+00    1.000000E+06  0.05000  2.651E-02    0   0.9998   age020_m72            0.0000     1.3743E+03    29.9644   4.0000    79.2920
 32      0.0000     0.0000E+00    0.0000E+00    3.160000E+06  0.05000  4.817E-02    0   0.9577   age045_m72            0.0000     9.3165E+02    22.9757   4.0000    83.5504
 33      0.0000     0.0000E+00    0.0000E+00    5.010000E+06  0.05000  3.101E-02    0   0.9147   age055_m72            0.0000     6.0355E+02    13.8730   4.0000    85.1964
 34      0.0000     0.0000E+00    0.0000E+00    1.000000E+07  0.05000  8.954E-03    0   0.8524   age070_m72            0.0000     7.6677E+02    19.4054   4.0000    84.9747
 35      0.0000     0.0000E+00    0.0000E+00    2.512000E+07  0.05000  4.207E-03    0   0.7902   age090_m72            0.0000     4.4138E+02     8.8434   4.0000    88.7248
 36      0.0000     0.0000E+00    0.0000E+00    4.000000E+07  0.05000  3.198E-03    0   0.7618   age104_m72            0.0000     6.9461E+02     7.4567   3.5492    95.2494
 37      0.0000     0.0000E+00    0.0000E+00    1.015200E+08  0.05000  1.716E-03    0   0.7092   age116_m72            0.0000     1.0531E+03     8.6763   3.2432    98.8488
 38      0.0000     0.0000E+00    0.0000E+00    2.861200E+08  0.05000  7.047E-04    0   0.6618   age125_m72            0.0000     1.4024E+03     9.6099   2.3606   107.4011
 39      0.0000     0.0000E+00    0.0000E+00    6.405400E+08  0.05000  2.633E-04    0   0.6253   age132_m72            0.0000     7.5101E+02     8.0671   1.4657   111.9360
 40      0.0000     0.0000E+00    0.0000E+00    9.047900E+08  0.05000  1.484E-04    0   0.6088   age135_m72            0.0000     2.7288E+02     5.6536   0.9934   108.6724
 41      0.0000     0.0000E+00    0.0000E+00    1.434000E+09  0.05000  7.827E-05    0   0.5847   age139_m72            0.0000     8.6425E+01     4.8430   0.6061   107.1955
 42      0.0008     4.4263E-04    4.8026E-04    2.500000E+09  0.05000  3.759E-05    0   0.5583   age150_m72            0.0000     7.3129E+01     5.3048   0.2734   107.8924
 43      5.7422     7.7555E+00    8.0184E+00    5.000000E+09  0.05000  1.548E-05    0   0.5320   age161_m72            0.0000     1.4510E+02     6.7764  -0.1741   109.1887
 44      0.0000     0.0000E+00    0.0000E+00    1.100000E+10  0.05000  6.532E-06    0   0.5070   age185_m72            0.0000     2.6127E+02     9.5182  -0.6312   111.9544
 45      0.0000     0.0000E+00    0.0000E+00    1.300000E+10  0.05000  5.316E-06    0   0.5018   age193_m72            0.0000     3.2134E+02    10.6193  -0.7845   113.2441


## Synthesis Results - Average & Chains ##

# j      x_j: min, <> & last-chain-values for 1 ...  7 chains
  1      0.0000      0.1248      0.1688      0.0282      0.0979      0.1281      0.1328      0.0925      0.1070
  2      5.4442      3.9446      3.9410      4.3633      4.1505      4.0144      3.9442      3.9709      3.9322
  3      0.0000      0.0831      0.0338      0.0852      0.0303      0.0000      0.1887      0.0896      0.0712
  4      9.2990      8.7575      8.5589      8.7875      8.8754      8.6991      8.9399      8.7509      8.5357
  5      0.0000      0.0951      0.0069      0.1292      0.0000      0.0000      0.0000      0.0000      0.0000
  6      0.0000      0.0426      0.0000      0.0000      0.0228      0.0000      0.0000      0.0000      0.0000
  7      0.0000      0.0188      0.0000      0.0000      0.0000      0.0000      0.0000      0.0000      0.0000
  8      0.0000      0.0237      0.0000      0.0000      0.0000      0.0000      0.0000      0.0020      0.0000
  9      0.0000      0.0968      0.3318      0.3305      0.1308      0.0909      0.0753      0.0000      0.0000
 10      0.3229      0.3019      0.3814      0.0924      0.3192      0.5546      0.6668      0.4096      0.8089
 11      0.0000      0.1196      0.0000      0.0000      0.1633      0.1198      0.0000      0.1790      0.0919
 12      0.0000      0.1620      0.3543      0.0000      0.0000      0.1458      0.0586      0.2537      0.1555
 13      0.0000      0.3060      0.0000      0.0016      0.3284      0.0000      0.5309      0.5408      0.6917
 14     25.0317     28.2223     28.4285     28.3334     28.3372     28.2890     28.3255     28.5548     28.4825
 15      3.0699      0.6364      0.9091      0.5895      0.6670      0.8054      0.6800      0.3787      0.0916
 16      0.0000      0.0303      0.0000      0.0000      0.0000      0.1040      0.0000      0.0000      0.0123
 17      0.0000      0.1472      0.2188      0.1754      0.2481      0.1863      0.1773      0.0462      0.4093
 18      0.0000      0.0549      0.1511      0.0323      0.0000      0.0000      0.0807      0.0000      0.0000
 19      0.0000      0.3246      0.3209      0.3897      0.2866      0.4380      0.3429      0.3291      0.3934
 20      0.0000      0.0270      0.0000      0.0000      0.0000      0.0000      0.0000      0.0000      0.0000
 21      0.0000      0.0232      0.0000      0.1271      0.0000      0.0000      0.0020      0.0000      0.0000
 22      0.0000      0.0139      0.0000      0.0000      0.0000      0.0000      0.0000      0.0000      0.0000
 23      0.0000      0.0159      0.0000      0.0000      0.0000      0.0000      0.0000      0.0000      0.0000
 24      0.0000      0.0196      0.0000      0.0000      0.0000      0.0000      0.0000      0.0000      0.0000
 25      0.0000      0.0213      0.0000      0.0718      0.0000      0.0964      0.0000      0.0000      0.0000
 26      0.0000      0.0255      0.0000      0.0000      0.0000      0.0000      0.0000      0.0000      0.0000
 27      0.0000      0.0685      0.0000      0.0000      0.0000      0.0000      0.0000      0.0566      0.0000
 28     31.7237     32.5720     32.6335     32.7043     32.8533     32.5532     32.2644     32.0621     32.7464
 29     18.2929     19.3076     18.5662     19.4234     19.5357     19.5331     19.1426     19.0638     19.2846
 30      3.1503      3.3951      3.3857      3.8950      3.1995      3.4795      3.8420      3.6055      3.3720
 31      0.0000      0.0358      0.0144      0.0696      0.0688      0.0000      0.0552      0.0000      0.0848
 32      0.0000      0.0848      0.2691      0.0000      0.0000      0.1757      0.0000      0.0611      0.0350
 33      0.0000      0.0628      0.0508      0.0000      0.0000      0.0977      0.0307      0.4512      0.1033
 34      0.0000      0.0279      0.0000      0.0063      0.0377      0.0000      0.0000      0.0792      0.0550
 35      0.0000      0.0209      0.0603      0.0000      0.1127      0.0000      0.0000      0.0000      0.0000
 36      0.0000      0.0119      0.0000      0.0000      0.0000      0.0000      0.0000      0.0000      0.0000
 37      0.0000      0.0183      0.0000      0.0000      0.0000      0.0207      0.0000      0.0079      0.0000
 38      0.0000      0.0084      0.0000      0.0000      0.0000      0.0000      0.0000      0.0000      0.0000
 39      0.0000      0.0153      0.0000      0.0000      0.0000      0.0000      0.0000      0.0000      0.0000
 40      0.0000      0.0249      0.0000      0.0000      0.0000      0.0000      0.0000      0.0006      0.0000
 41      0.0000      0.0375      0.0000      0.0000      0.0000      0.0000      0.0000      0.1031      0.0256
 42      0.0008      0.2003      0.0000      0.6149      0.0175      0.4490      0.0000      0.0000      0.0744
 43      5.7422      1.5947      2.3557      1.5495      2.2113      2.0205      2.0114      2.3907      1.8465
 44      0.0000      0.7076      0.8553      0.3072      0.4145      0.0310      0.5787      0.6179      0.6692
 45      0.0000      0.2898      0.0651      0.0025      0.0000      0.0643      0.0144      0.0000      0.0000

# j      m_j: min, <> & last-chain-values for 1 ...  7 chains
  1  0.0000E+00  4.4922E-04  6.1031E-04  1.0249E-04  3.5605E-04  4.6887E-04  4.8025E-04  3.3539E-04  3.8951E-04
  2  5.4306E-03  3.8846E-03  3.8967E-03  4.3393E-03  4.1279E-03  4.0176E-03  3.9009E-03  3.9359E-03  3.9146E-03
  3  0.0000E+00  1.2479E-04  5.0985E-05  1.2919E-04  4.6020E-05  0.0000E+00  2.8458E-04  1.3542E-04  1.0806E-04
  4  2.6345E-02  2.4494E-02  2.4036E-02  2.4821E-02  2.5071E-02  2.4727E-02  2.5112E-02  2.4635E-02  2.4134E-02
  5  0.0000E+00  6.1514E-04  4.4813E-05  8.4411E-04  0.0000E+00  0.0000E+00  0.0000E+00  0.0000E+00  0.0000E+00
  6  0.0000E+00  3.8303E-04  0.0000E+00  0.0000E+00  2.0654E-04  0.0000E+00  0.0000E+00  0.0000E+00  0.0000E+00
  7  0.0000E+00  2.4009E-04  0.0000E+00  0.0000E+00  0.0000E+00  0.0000E+00  0.0000E+00  0.0000E+00  0.0000E+00
  8  0.0000E+00  5.8146E-04  0.0000E+00  0.0000E+00  0.0000E+00  0.0000E+00  0.0000E+00  4.8308E-05  0.0000E+00
  9  0.0000E+00  4.7398E-03  1.6311E-02  1.6343E-02  6.4687E-03  4.5217E-03  3.7047E-03  0.0000E+00  0.0000E+00
 10  2.2355E-02  2.0640E-02  2.6175E-02  6.3762E-03  2.2038E-02  3.8526E-02  4.5778E-02  2.8178E-02  5.5897E-02
 11  0.0000E+00  1.4353E-02  0.0000E+00  0.0000E+00  1.9793E-02  1.4619E-02  0.0000E+00  2.1627E-02  1.1156E-02
 12  0.0000E+00  3.6151E-02  7.9404E-02  0.0000E+00  0.0000E+00  3.3066E-02  1.3130E-02  5.6991E-02  3.5087E-02
 13  0.0000E+00  1.3601E-01  0.0000E+00  7.0242E-04  1.4744E-01  0.0000E+00  2.3702E-01  2.4194E-01  3.1082E-01
 14  2.2971E+01  2.5569E+01  2.5860E+01  2.5923E+01  2.5928E+01  2.6046E+01  2.5773E+01  2.6038E+01  2.6086E+01
 15  3.2638E+00  6.6802E-01  9.5803E-01  6.2491E-01  7.0702E-01  8.5912E-01  7.1683E-01  4.0011E-01  9.7189E-02
 16  0.0000E+00  6.1049E-05  0.0000E+00  0.0000E+00  0.0000E+00  2.1321E-04  0.0000E+00  0.0000E+00  2.5128E-05
 17  0.0000E+00  1.5430E-04  2.3035E-04  1.8567E-04  2.6268E-04  1.9852E-04  1.8663E-04  4.8703E-05  4.3379E-04
 18  0.0000E+00  6.3795E-05  1.7624E-04  3.7822E-05  0.0000E+00  0.0000E+00  9.4133E-05  0.0000E+00  0.0000E+00
 19  0.0000E+00  1.1272E-03  1.1188E-03  1.3666E-03  1.0049E-03  1.5456E-03  1.1956E-03  1.1502E-03  1.3807E-03
 20  0.0000E+00  2.0879E-04  0.0000E+00  0.0000E+00  0.0000E+00  0.0000E+00  0.0000E+00  0.0000E+00  0.0000E+00
 21  0.0000E+00  2.1523E-04  0.0000E+00  1.1905E-03  0.0000E+00  0.0000E+00  1.8775E-05  0.0000E+00  0.0000E+00
 22  0.0000E+00  2.1418E-04  0.0000E+00  0.0000E+00  0.0000E+00  0.0000E+00  0.0000E+00  0.0000E+00  0.0000E+00
 23  0.0000E+00  4.8068E-04  0.0000E+00  0.0000E+00  0.0000E+00  0.0000E+00  0.0000E+00  0.0000E+00  0.0000E+00
 24  0.0000E+00  1.3625E-03  0.0000E+00  0.0000E+00  0.0000E+00  0.0000E+00  0.0000E+00  0.0000E+00  0.0000E+00
 25  0.0000E+00  2.2779E-03  0.0000E+00  7.7372E-03  0.0000E+00  1.0452E-02  0.0000E+00  0.0000E+00  0.0000E+00
 26  0.0000E+00  5.1361E-03  0.0000E+00  0.0000E+00  0.0000E+00  0.0000E+00  0.0000E+00  0.0000E+00  0.0000E+00
 27  0.0000E+00  2.8005E-02  0.0000E+00  0.0000E+00  0.0000E+00  0.0000E+00  0.0000E+00  2.3283E-02  0.0000E+00
 28  2.6579E+01  2.6942E+01  2.7103E+01  2.7319E+01  2.7445E+01  2.7365E+01  2.6803E+01  2.6693E+01  2.7382E+01
 29  3.2446E+01  3.3809E+01  3.2643E+01  3.4348E+01  3.4549E+01  3.4761E+01  3.3665E+01  3.3599E+01  3.4137E+01
 30  6.6664E+00  7.0929E+00  7.1017E+00  8.2176E+00  6.7505E+00  7.3873E+00  8.0611E+00  7.5814E+00  7.1213E+00
 31  0.0000E+00  5.4224E-05  2.1853E-05  1.0633E-04  1.0517E-04  0.0000E+00  8.3856E-05  0.0000E+00  1.2963E-04
 32  0.0000E+00  6.7609E-05  2.1552E-04  0.0000E+00  0.0000E+00  1.4243E-04  0.0000E+00  4.9024E-05  2.8209E-05
 33  0.0000E+00  7.4286E-05  6.0307E-05  0.0000E+00  0.0000E+00  1.1752E-04  3.6492E-05  5.3730E-04  1.2360E-04
