###################################################################
## OUTPUT of StarlightChains_v04.for    [Cid@UFSC - 01/Apr/2007] ##
###################################################################

## Some input info
NGC6388_a_1.cxt                          [arq_obs]
Base.BC03.N                              [arq_base]
NGC6388_a_1.msk                          [arq_masks]
StCv04.C99.config                        [arq_config]
   45                                    [N_base]
    0                                    [N_YAV_components = # of components with extra extinction!]
    0                                    [i_FitPowerLaw (1/0 = Yes/No)]
-9.99                                    [alpha_PowerLaw]
CCM                                      [red_law_option]
 1.458241                                [q_norm = A(l_norm)/A(V)]

## (Re)Sampling Parameters
 3359.00                                 [l_ini (A)]
 6428.00                                 [l_fin (A)]
    1.00                                 [dl    (A)]     (OBS: dl_cushion =    50.00 A)

## Normalization info
 4020.00                                 [l_norm (A) - for base]
 4010.00                                 [llow_norm (A) - window for f_obs]
 4060.00                                 [lupp_norm (A) - window for f_obs]
4.539934E-14                             [fobs_norm (in input units)]

## S/N
 4730.00                                 [llow_SN (A) - window for S/N]
 4780.00                                 [lupp_SN (A) - window for S/N]
  38.687                                 [S/N in S/N window]
  24.472                                 [S/N in norm. window]
 271.099                                 [S/N_err in S/N window]
 171.489                                 [S/N_err in norm. window]
  1.0000                                 [fscale_chi2]

## etc...
  2147483610                             [idum_orig]
  3069                                   [NOl_eff]
   655                                   [Nl_eff]
  2414    NSIGMA                         [Ntot_cliped & clip_method]
  1807680                                [Nglobal_steps]
   7                                     [N_chains]
   9                                     [NEX0s_base = N_base in EX0s-fits]
 0   0   1      207   2.0   3.750E+02    [Clip-Bug, RC-Crash & Burn-In warning-flags, n_censored_weights, wei_nsig_threshold & wei_limit]
    25     24.619     24.619      0.000  [idt_all, wdt_TotTime, wdt_UsrTime & wdt_SysTime (sec)]

## Synthesis Results - Best model ##

 2.64642E+00                             [chi2/Nl_eff]
     1.22192                             [adev (%)]

   100.88205                             [sum-of-x (%)]
 1.97909E-13                             [Flux_tot (units of input spectrum!)]
 6.10233E-09                             [Mini_tot (???)]
 3.17750E-09                             [Mcor_tot (???)]

 -13.43                                  [v0_min  (km/s)]
  44.01                                  [vd_min  (km/s)]
 1.0897                                  [AV_min  (mag)]
 0.0000                                  [YAV_min (mag)]

# j     x_j(%)      Mini_j(%)     Mcor_j(%)     age_j(yr)     Z_j      (L/M)_j    YAV?  Mstars   component_j        a/Fe...       SSP_chi2r SSP_adev(%)   SSP_AV   SSP_x(%)
  1      0.0000     0.0000E+00    0.0000E+00    1.000000E+06  0.00400  1.114E-02    0   1.0000   age020_m42            0.0000     3.7794E+03    35.8389   4.0000    97.6291
  2      3.2173     2.5394E-03    4.8764E-03    3.160000E+06  0.00400  4.073E-02    0   0.9999   age045_m42            0.0000     5.1005E+02    13.3036   3.9828    93.7102
  3      0.0000     0.0000E+00    0.0000E+00    5.010000E+06  0.00400  2.534E-02    0   0.9488   age055_m42            0.0000     1.1667E+03    21.9050   4.0000    96.5634
  4      5.0838     1.2859E-02    2.1885E-02    1.000000E+07  0.00400  1.271E-02    0   0.8862   age070_m42            0.0000     7.9830E+02    17.4518   3.5624    92.5130
  5      0.0000     0.0000E+00    0.0000E+00    2.512000E+07  0.00400  5.070E-03    0   0.8174   age090_m42            0.0000     7.1920E+02    16.6894   3.4405    94.0688
  6      0.0000     0.0000E+00    0.0000E+00    4.000000E+07  0.00400  3.505E-03    0   0.7851   age104_m42            0.0000     5.2709E+02    14.3187   3.1409    96.7309
  7      0.0000     0.0000E+00    0.0000E+00    1.015200E+08  0.00400  2.268E-03    0   0.7207   age116_m42            0.0000     7.0477E+02    12.1755   3.1964   104.4865
  8      0.0000     0.0000E+00    0.0000E+00    2.861200E+08  0.00400  1.079E-03    0   0.6613   age125_m42            0.0000     7.0452E+02    11.9456   2.7073   106.4800
  9      0.0000     0.0000E+00    0.0000E+00    6.405400E+08  0.00400  5.077E-04    0   0.6197   age132_m42            0.0000     7.2546E+02    12.3084   2.3386   110.7988
 10      0.0000     0.0000E+00    0.0000E+00    9.047900E+08  0.00400  3.535E-04    0   0.6024   age135_m42            0.0000     5.0312E+02    10.0400   2.1020   109.8872
 11      0.0000     0.0000E+00    0.0000E+00    1.434000E+09  0.00400  1.910E-04    0   0.5716   age139_m42            0.0000     2.1484E+02     6.3459   1.6105   107.5926
 12     24.5042     8.0237E+00    8.4181E+00    2.500000E+09  0.00400  9.818E-05    0   0.5463   age150_m42            0.0000     4.6589E+01     2.7669   1.3452   102.6489
 13     33.7243     2.2980E+01    2.3072E+01    5.000000E+09  0.00400  4.718E-05    0   0.5228   age161_m42            0.0000     1.2457E+01     1.8518   1.1811    99.4094
 14      0.0000     0.0000E+00    0.0000E+00    1.100000E+10  0.00400  2.205E-05    0   0.4980   age185_m42            0.0000     3.4231E+01     3.1131   0.9423    96.8561
 15      0.0000     0.0000E+00    0.0000E+00    1.300000E+10  0.00400  1.883E-05    0   0.4927   age193_m42            0.0000     4.2817E+01     3.4854   0.9259    96.7060
 16      0.0000     0.0000E+00    0.0000E+00    1.000000E+06  0.02000  1.989E-02    0   1.0000   age020_m62            0.0000     3.5687E+03    34.7601   4.0000    97.9937
 17      0.0000     0.0000E+00    0.0000E+00    3.160000E+06  0.02000  3.772E-02    0   0.9858   age045_m62            0.0000     2.7956E+03    31.8892   4.0000    98.6460
 18      0.0000     0.0000E+00    0.0000E+00    5.010000E+06  0.02000  3.227E-02    0   0.9342   age055_m62            0.0000     8.3423E+02    18.5547   4.0000    96.6336
 19      0.0000     0.0000E+00    0.0000E+00    1.000000E+07  0.02000  1.011E-02    0   0.8751   age070_m62            0.0000     1.2799E+03    21.8287   3.6067    89.3582
 20      0.0000     0.0000E+00    0.0000E+00    2.512000E+07  0.02000  4.206E-03    0   0.8099   age090_m62            0.0000     9.8183E+02    19.6038   3.5418    90.1717
 21      0.0000     0.0000E+00    0.0000E+00    4.000000E+07  0.02000  3.373E-03    0   0.7799   age104_m62            0.0000     5.4871E+02    13.9335   3.3806    98.1397
 22      0.0000     0.0000E+00    0.0000E+00    1.015200E+08  0.02000  1.878E-03    0   0.7221   age116_m62            0.0000     6.8136E+02    12.0146   3.2165   105.4309
 23      0.0000     0.0000E+00    0.0000E+00    2.861200E+08  0.02000  8.869E-04    0   0.6700   age125_m62            0.0000     1.0408E+03    14.7256   2.7310   111.4114
 24      0.0000     0.0000E+00    0.0000E+00    6.405400E+08  0.02000  3.657E-04    0   0.6322   age132_m62            0.0000     6.7569E+02    11.1155   2.0828   113.3587
 25      0.0000     0.0000E+00    0.0000E+00    9.047900E+08  0.02000  2.312E-04    0   0.6152   age135_m62            0.0000     3.8177E+02     7.9288   1.7229   111.7836
 26      0.0000     0.0000E+00    0.0000E+00    1.434000E+09  0.02000  1.168E-04    0   0.5865   age139_m62            0.0000     9.4614E+01     3.9038   1.3274   105.7407
 27      1.2721     7.4288E-01    8.0037E-01    2.500000E+09  0.02000  5.505E-05    0   0.5610   age150_m62            0.0000     4.2624E+01     3.5237   0.9793   102.4554
 28     13.5660     1.6800E+01    1.7271E+01    5.000000E+09  0.02000  2.596E-05    0   0.5353   age161_m62            0.0000     1.2392E+02     6.0403   0.6802   101.5316
 29      8.4514     2.3242E+01    2.2777E+01    1.100000E+10  0.02000  1.169E-05    0   0.5103   age185_m62            0.0000     3.0117E+02     9.0272   0.3536   102.0008
 30      7.6097     2.5244E+01    2.4468E+01    1.300000E+10  0.02000  9.691E-06    0   0.5047   age193_m62            0.0000     3.4042E+02     9.5254   0.3126   102.1172
 31      0.0000     0.0000E+00    0.0000E+00    1.000000E+06  0.05000  2.651E-02    0   0.9998   age020_m72            0.0000     3.4990E+03    34.3731   4.0000    99.1919
 32      0.0000     0.0000E+00    0.0000E+00    3.160000E+06  0.05000  4.817E-02    0   0.9577   age045_m72            0.0000     1.9716E+03    27.5170   4.0000    99.9708
 33      0.0000     0.0000E+00    0.0000E+00    5.010000E+06  0.05000  3.101E-02    0   0.9147   age055_m72            0.0000     1.0229E+03    20.7733   4.0000    95.8661
 34      0.0000     0.0000E+00    0.0000E+00    1.000000E+07  0.05000  8.954E-03    0   0.8524   age070_m72            0.0000     1.5702E+03    24.9736   4.0000    99.4911
 35      0.0000     0.0000E+00    0.0000E+00    2.512000E+07  0.05000  4.207E-03    0   0.7902   age090_m72            0.0000     5.8133E+02    15.2389   4.0000    95.7624
 36      0.0000     0.0000E+00    0.0000E+00    4.000000E+07  0.05000  3.198E-03    0   0.7618   age104_m72            0.0000     5.4220E+02    11.1489   3.6223   100.8101
 37      0.0000     0.0000E+00    0.0000E+00    1.015200E+08  0.05000  1.716E-03    0   0.7092   age116_m72            0.0000     7.6131E+02    12.3966   3.3555   104.8589
 38      0.0000     0.0000E+00    0.0000E+00    2.861200E+08  0.05000  7.047E-04    0   0.6618   age125_m72            0.0000     9.7357E+02    13.9290   2.5735   110.7899
 39      0.0000     0.0000E+00    0.0000E+00    6.405400E+08  0.05000  2.633E-04    0   0.6253   age132_m72            0.0000     4.9018E+02     9.1558   1.7525   111.5904
 40      0.0000     0.0000E+00    0.0000E+00    9.047900E+08  0.05000  1.484E-04    0   0.6088   age135_m72            0.0000     1.7084E+02     5.7040   1.2853   106.0711
 41      0.0000     0.0000E+00    0.0000E+00    1.434000E+09  0.05000  7.827E-05    0   0.5847   age139_m72            0.0000     1.0871E+02     5.4587   0.9304   101.9831
 42      3.4532     2.9533E+00    3.1666E+00    2.500000E+09  0.05000  3.759E-05    0   0.5583   age150_m72            0.0000     1.6697E+02     6.9560   0.6307   100.8557
 43      0.0000     0.0000E+00    0.0000E+00    5.000000E+09  0.05000  1.548E-05    0   0.5320   age161_m72            0.0000     3.6164E+02     9.6118   0.2934    99.3162
 44      0.0000     0.0000E+00    0.0000E+00    1.100000E+10  0.05000  6.532E-06    0   0.5070   age185_m72            0.0000     6.8259E+02    12.7686  -0.0270    97.6899
 45      0.0000     0.0000E+00    0.0000E+00    1.300000E+10  0.05000  5.316E-06    0   0.5018   age193_m72            0.0000     8.3211E+02    14.0551  -0.1221    97.1747


## Synthesis Results - Average & Chains ##

# j      x_j: min, <> & last-chain-values for 1 ...  7 chains
  1      0.0000      0.0977      0.0489      0.0587      0.2581      0.0994      0.0983      0.1364      0.0000
  2      3.2173      2.8175      2.9975      2.7234      2.8695      2.8452      2.7544      2.9129      2.8337
  3      0.0000      0.0258      0.0000      0.0000      0.1626      0.0000      0.0000      0.0513      0.0000
  4      5.0838      4.0092      4.1385      4.0847      3.8817      4.0365      3.9487      3.9709      4.0033
  5      0.0000      0.5188      0.5631      0.4548      0.4839      0.5128      0.6446      0.4055      0.7132
  6      0.0000      0.0302      0.0000      0.0000      0.0000      0.0000      0.0000      0.0000      0.0000
  7      0.0000      0.0136      0.0024      0.0000      0.0000      0.0169      0.0000      0.0000      0.0020
  8      0.0000      0.0225      0.0000      0.0000      0.0000      0.0000      0.0000      0.0000      0.0000
  9      0.0000      0.0440      0.0000      0.0000      0.0000      0.0000      0.0000      0.0456      0.0000
 10      0.0000      0.0824      0.0000      0.0328      0.5083      0.0229      0.0000      0.5033      0.0000
 11      0.0000      0.0957      0.1055      0.0984      0.1063      0.1956      0.0728      0.0000      0.3239
 12     24.5042     23.6665     24.0256     23.5413     23.9298     23.7565     24.1230     23.2252     24.2684
 13     33.7243     34.8490     34.4609     35.1344     34.5126     34.5704     34.2781     35.0271     34.5327
 14      0.0000      0.1508      0.0911      0.0000      0.0000      0.0467      0.1044      0.0000      0.0000
 15      0.0000      0.1155      0.0240      0.0000      0.0000      0.0312      0.0000      0.0086      0.0598
 16      0.0000      0.0363      0.0000      0.0687      0.0000      0.0000      0.0000      0.0676      0.1770
 17      0.0000      0.0302      0.0000      0.0155      0.0000      0.0000      0.0000      0.0000      0.0000
 18      0.0000      0.0285      0.0000      0.0000      0.0000      0.0259      0.1327      0.0936      0.0000
 19      0.0000      0.0473      0.0000      0.0000      0.0000      0.1442      0.0001      0.0332      0.0000
 20      0.0000      0.0298      0.0000      0.1128      0.0000      0.1612      0.0582      0.0362      0.0000
 21      0.0000      0.0401      0.0894      0.0831      0.0000      0.0000      0.0164      0.0852      0.0000
 22      0.0000      0.0159      0.0000      0.0000      0.0000      0.0000      0.0082      0.0057      0.0116
 23      0.0000      0.0134      0.0000      0.0000      0.0000      0.0000      0.0000      0.0000      0.0000
 24      0.0000      0.0294      0.0000      0.0000      0.0000      0.0000      0.0000      0.0000      0.0000
 25      0.0000      0.0496      0.0360      0.0049      0.0000      0.0000      0.0000      0.0756      0.0000
 26      0.0000      0.2701      0.5427      0.2369      0.0882      0.0068      0.5951      0.0000      0.2564
 27      1.2721      1.6091      1.5777      2.3152      1.4266      2.8827      1.9666      2.0131      1.3508
 28     13.5660     12.1602     12.1376     12.6599     13.0073     12.4190     11.9468     11.9627     12.2409
 29      8.4514      9.3664      9.2940      9.3236      9.6230      9.2332      9.1085      9.2433      9.1737
 30      7.6097      9.1862      9.0149      8.5598      8.7479      8.5882      8.9656      9.0824      9.1078
 31      0.0000      0.0324      0.0000      0.0575      0.0260      0.0000      0.0000      0.0141      0.0027
 32      0.0000      0.0779      0.1284      0.1033      0.1177      0.0665      0.0810      0.0000      0.0178
 33      0.0000      0.0285      0.0942      0.0096      0.0808      0.0388      0.0000      0.0770      0.0565
 34      0.0000      0.0424      0.0811      0.0000      0.0221      0.0000      0.1023      0.0715      0.1815
 35      0.0000      0.0276      0.0000      0.1215      0.0000      0.0000      0.1814      0.0046      0.0000
 36      0.0000      0.0209      0.0000      0.0000      0.0051      0.0000      0.0000      0.0000      0.0000
 37      0.0000      0.0123      0.0000      0.0000      0.0088      0.0294      0.0000      0.0000      0.0000
 38      0.0000      0.0118      0.0000      0.0000      0.0000      0.0000      0.0000      0.0000      0.0000
 39      0.0000      0.0309      0.0003      0.0000      0.1518      0.0000      0.0000      0.0000      0.0000
 40      0.0000      0.0982      0.0000      0.0000      0.0000      0.0270      0.0000      0.0000      0.0098
 41      0.0000      0.4417      0.2255      0.0000      0.2949      0.1724      0.6888      1.2342      0.2761
 42      3.4532      0.6486      1.2712      1.1121      0.6368      0.9958      1.0806      0.5723      1.3459
 43      0.0000      0.0232      0.0000      0.0000      0.0000      0.0000      0.0000      0.0000      0.0000
 44      0.0000      0.0050      0.0000      0.0000      0.0000      0.0000      0.0000      0.0000      0.0000
 45      0.0000      0.0055      0.0000      0.0000      0.0000      0.0000      0.0000      0.0000      0.0000

# j      m_j: min, <> & last-chain-values for 1 ...  7 chains
  1  0.0000E+00  5.1725E-04  2.6071E-04  3.1413E-04  1.3726E-03  5.3427E-04  5.2744E-04  7.2834E-04  0.0000E+00
  2  4.8764E-03  4.0774E-03  4.3698E-03  3.9883E-03  4.1731E-03  4.1819E-03  4.0436E-03  4.2550E-03  4.1284E-03
  3  0.0000E+00  5.6986E-05  0.0000E+00  0.0000E+00  3.6066E-04  0.0000E+00  0.0000E+00  1.1438E-04  0.0000E+00
  4  2.1885E-02  1.6479E-02  1.7135E-02  1.6990E-02  1.6033E-02  1.6850E-02  1.6464E-02  1.6474E-02  1.6565E-02
  5  0.0000E+00  4.9306E-03  5.3907E-03  4.3738E-03  4.6214E-03  4.9497E-03  6.2143E-03  3.8905E-03  6.8235E-03
  6  0.0000E+00  3.9849E-04  0.0000E+00  0.0000E+00  0.0000E+00  0.0000E+00  0.0000E+00  0.0000E+00  0.0000E+00
  7  0.0000E+00  2.5528E-04  4.5630E-05  0.0000E+00  0.0000E+00  3.2235E-04  0.0000E+00  0.0000E+00  3.8033E-05
  8  0.0000E+00  8.1114E-04  0.0000E+00  0.0000E+00  0.0000E+00  0.0000E+00  0.0000E+00  0.0000E+00  0.0000E+00
  9  0.0000E+00  3.1659E-03  0.0000E+00  0.0000E+00  0.0000E+00  0.0000E+00  0.0000E+00  3.3100E-03  0.0000E+00
 10  0.0000E+00  8.2733E-03  0.0000E+00  3.3371E-03  5.1315E-02  2.3341E-03  0.0000E+00  5.1038E-02  0.0000E+00
 11  0.0000E+00  1.6879E-02  1.8755E-02  1.7564E-02  1.8845E-02  3.5047E-02  1.3023E-02  0.0000E+00  5.7520E-02
 12  8.4181E+00  7.7628E+00  7.9386E+00  7.8142E+00  7.8877E+00  7.9142E+00  8.0267E+00  7.6896E+00  8.0137E+00
 13  2.3072E+01  2.2764E+01  2.2676E+01  2.3225E+01  2.2655E+01  2.2935E+01  2.2714E+01  2.3095E+01  2.2709E+01
 14  0.0000E+00  2.0076E-01  1.2219E-01  0.0000E+00  0.0000E+00  6.3119E-02  1.4101E-01  0.0000E+00  0.0000E+00
 15  0.0000E+00  1.7815E-01  3.7296E-02  0.0000E+00  0.0000E+00  4.8904E-02  0.0000E+00  1.3415E-02  9.2784E-02
 16  0.0000E+00  1.0746E-04  0.0000E+00  2.0606E-04  0.0000E+00  0.0000E+00  0.0000E+00  2.0234E-04  5.2818E-04
 17  0.0000E+00  4.6523E-05  0.0000E+00  2.4185E-05  0.0000E+00  0.0000E+00  0.0000E+00  0.0000E+00  0.0000E+00
 18  0.0000E+00  4.8587E-05  0.0000E+00  0.0000E+00  0.0000E+00  4.4814E-05  2.2968E-04  1.6129E-04  0.0000E+00
 19  0.0000E+00  2.4138E-04  0.0000E+00  0.0000E+00  0.0000E+00  7.4734E-04  3.5737E-07  1.7117E-04  0.0000E+00
 20  0.0000E+00  3.3869E-04  0.0000E+00  1.2957E-03  0.0000E+00  1.8588E-03  6.7062E-04  4.1533E-04  0.0000E+00
 21  0.0000E+00  5.4605E-04  1.2274E-03  1.1464E-03  0.0000E+00  0.0000E+00  2.2646E-04  1.1718E-03  0.0000E+00
 22  0.0000E+00  3.6097E-04  0.0000E+00  0.0000E+00  0.0000E+00  0.0000E+00  1.8758E-04  1.3140E-04  2.6494E-04
 23  0.0000E+00  5.9494E-04  0.0000E+00  0.0000E+00  0.0000E+00  0.0000E+00  0.0000E+00  0.0000E+00  0.0000E+00
 24  0.0000E+00  2.9989E-03  0.0000E+00  0.0000E+00  0.0000E+00  0.0000E+00  0.0000E+00  0.0000E+00  0.0000E+00
 25  0.0000E+00  7.7845E-03  5.6842E-03  7.8108E-04  0.0000E+00  0.0000E+00  0.0000E+00  1.1966E-02  0.0000E+00
 26  0.0000E+00  7.9959E-02  1.6183E-01  7.0955E-02  2.6246E-02  2.0298E-03  1.7869E-01  0.0000E+00  7.6419E-02
 27  8.0037E-01  9.6667E-01  9.5477E-01  1.4075E+00  8.6120E-01  1.7588E+00  1.1985E+00  1.2207E+00  8.1693E-01
 28  1.7271E+01  1.4781E+01  1.4862E+01  1.5573E+01  1.5889E+01  1.5332E+01  1.4731E+01  1.4678E+01  1.4979E+01
 29  2.2777E+01  2.4103E+01  2.4092E+01  2.4279E+01  2.4884E+01  2.4131E+01  2.3777E+01  2.4009E+01  2.3765E+01
 30  2.4468E+01  2.8202E+01  2.7880E+01  2.6593E+01  2.6988E+01  2.6778E+01  2.7922E+01  2.8145E+01  2.8149E+01
 31  0.0000E+00  7.2066E-05  0.0000E+00  1.2935E-04  5.8027E-05  0.0000E+00  0.0000E+00  3.1733E-05  6.0559E-06
 32  0.0000E+00  9.1241E-05  1.5162E-04  1.2248E-04  1.3860E-04  7.9117E-05  9.6258E-05  0.0000E+00  2.0988E-05
 33  0.0000E+00  4.9493E-05  1.6508E-04  1.6945E-05  1.4118E-04  6.8571E-05  0.0000E+00  1.3507E-04  9.8912E-05
