###################################################################
## OUTPUT of StarlightChains_v04.for    [Cid@UFSC - 01/Apr/2007] ##
###################################################################

## Some input info
NGC6342_a_1.cxt                          [arq_obs]
Base.BC03.N                              [arq_base]
NGC6342_a_1.msk                          [arq_masks]
StCv04.C99.config                        [arq_config]
   45                                    [N_base]
    0                                    [N_YAV_components = # of components with extra extinction!]
    0                                    [i_FitPowerLaw (1/0 = Yes/No)]
-9.99                                    [alpha_PowerLaw]
CCM                                      [red_law_option]
 1.458241                                [q_norm = A(l_norm)/A(V)]

## (Re)Sampling Parameters
 3359.00                                 [l_ini (A)]
 6428.00                                 [l_fin (A)]
    1.00                                 [dl    (A)]     (OBS: dl_cushion =    50.00 A)

## Normalization info
 4020.00                                 [l_norm (A) - for base]
 4010.00                                 [llow_norm (A) - window for f_obs]
 4060.00                                 [lupp_norm (A) - window for f_obs]
2.158412E-15                             [fobs_norm (in input units)]

## S/N
 4730.00                                 [llow_SN (A) - window for S/N]
 4780.00                                 [lupp_SN (A) - window for S/N]
  41.172                                 [S/N in S/N window]
  28.335                                 [S/N in norm. window]
 118.442                                 [S/N_err in S/N window]
  81.514                                 [S/N_err in norm. window]
  1.0000                                 [fscale_chi2]

## etc...
  2147483615                             [idum_orig]
  3068                                   [NOl_eff]
  1020                                   [Nl_eff]
  2048    NSIGMA                         [Ntot_cliped & clip_method]
  1580880                                [Nglobal_steps]
   7                                     [N_chains]
  10                                     [NEX0s_base = N_base in EX0s-fits]
 0   0   1      115   2.0   8.706E+02    [Clip-Bug, RC-Crash & Burn-In warning-flags, n_censored_weights, wei_nsig_threshold & wei_limit]
    23     22.771     22.767      0.004  [idt_all, wdt_TotTime, wdt_UsrTime & wdt_SysTime (sec)]

## Synthesis Results - Best model ##

 2.83574E+00                             [chi2/Nl_eff]
     1.43472                             [adev (%)]

    97.44665                             [sum-of-x (%)]
 8.83795E-15                             [Flux_tot (units of input spectrum!)]
 2.03073E-10                             [Mini_tot (???)]
 1.05228E-10                             [Mcor_tot (???)]

   1.37                                  [v0_min  (km/s)]
  74.85                                  [vd_min  (km/s)]
 1.0688                                  [AV_min  (mag)]
 0.0000                                  [YAV_min (mag)]

# j     x_j(%)      Mini_j(%)     Mcor_j(%)     age_j(yr)     Z_j      (L/M)_j    YAV?  Mstars   component_j        a/Fe...       SSP_chi2r SSP_adev(%)   SSP_AV   SSP_x(%)
  1      0.0000     0.0000E+00    0.0000E+00    1.000000E+06  0.00400  1.114E-02    0   1.0000   age020_m42            0.0000     1.7951E+03    25.8264   4.0000    82.7434
  2      1.6611     1.8215E-03    3.5148E-03    3.160000E+06  0.00400  4.073E-02    0   0.9999   age045_m42            0.0000     1.1422E+02     8.3391   3.9881    86.0782
  3      0.0000     0.0000E+00    0.0000E+00    5.010000E+06  0.00400  2.534E-02    0   0.9488   age055_m42            0.0000     4.4302E+02    13.9874   4.0000    86.6100
  4      0.0000     0.0000E+00    0.0000E+00    1.000000E+07  0.00400  1.271E-02    0   0.8862   age070_m42            0.0000     1.9574E+02    11.4988   3.6172    82.4423
  5      0.0000     0.0000E+00    0.0000E+00    2.512000E+07  0.00400  5.070E-03    0   0.8174   age090_m42            0.0000     1.8081E+02    11.0394   3.4893    84.0083
  6      0.0000     0.0000E+00    0.0000E+00    4.000000E+07  0.00400  3.505E-03    0   0.7851   age104_m42            0.0000     1.3584E+02     9.4638   3.1668    87.5721
  7      0.0000     0.0000E+00    0.0000E+00    1.015200E+08  0.00400  2.268E-03    0   0.7207   age116_m42            0.0000     2.5176E+02     9.5257   2.9823   105.9102
  8      0.0000     0.0000E+00    0.0000E+00    2.861200E+08  0.00400  1.079E-03    0   0.6613   age125_m42            0.0000     2.6012E+02     9.4809   2.4862   108.2924
  9      0.0000     0.0000E+00    0.0000E+00    6.405400E+08  0.00400  5.077E-04    0   0.6197   age132_m42            0.0000     2.9159E+02     9.6924   2.0984   113.6342
 10      6.2842     7.9395E-01    9.2300E-01    9.047900E+08  0.00400  3.535E-04    0   0.6024   age135_m42            0.0000     1.8385E+02     7.9236   1.8906   111.4008
 11      0.0000     0.0000E+00    0.0000E+00    1.434000E+09  0.00400  1.910E-04    0   0.5716   age139_m42            0.0000     7.7422E+01     5.3320   1.4132   108.4144
 12      8.5346     3.8823E+00    4.0930E+00    2.500000E+09  0.00400  9.818E-05    0   0.5463   age150_m42            0.0000     1.1301E+01     2.2810   1.2012   100.9940
 13     62.7204     5.9372E+01    5.9902E+01    5.000000E+09  0.00400  4.718E-05    0   0.5228   age161_m42            0.0000     3.1190E+00     1.5090   1.0637    96.4080
 14     14.0133     2.8383E+01    2.7278E+01    1.100000E+10  0.00400  2.205E-05    0   0.4980   age185_m42            0.0000     1.4181E+01     2.7664   0.8158    94.1692
 15      0.0000     0.0000E+00    0.0000E+00    1.300000E+10  0.00400  1.883E-05    0   0.4927   age193_m42            0.0000     1.7685E+01     3.0480   0.8020    93.8962
 16      0.0000     0.0000E+00    0.0000E+00    1.000000E+06  0.02000  1.989E-02    0   1.0000   age020_m62            0.0000     1.6835E+03    24.9052   4.0000    83.3226
 17      0.0000     0.0000E+00    0.0000E+00    3.160000E+06  0.02000  3.772E-02    0   0.9858   age045_m62            0.0000     1.2968E+03    22.2579   4.0000    84.9169
 18      0.0000     0.0000E+00    0.0000E+00    5.010000E+06  0.02000  3.227E-02    0   0.9342   age055_m62            0.0000     2.3554E+02    11.2495   4.0000    87.8839
 19      0.0000     0.0000E+00    0.0000E+00    1.000000E+07  0.02000  1.011E-02    0   0.8751   age070_m62            0.0000     3.9205E+02    15.0255   3.7014    75.8578
 20      0.0000     0.0000E+00    0.0000E+00    2.512000E+07  0.02000  4.206E-03    0   0.8099   age090_m62            0.0000     3.0637E+02    13.2816   3.6375    77.0541
 21      0.0000     0.0000E+00    0.0000E+00    4.000000E+07  0.02000  3.373E-03    0   0.7799   age104_m62            0.0000     1.3361E+02     9.3980   3.3591    89.8034
 22      0.0000     0.0000E+00    0.0000E+00    1.015200E+08  0.02000  1.878E-03    0   0.7221   age116_m62            0.0000     2.0722E+02     9.0899   3.0404   104.5929
 23      0.0000     0.0000E+00    0.0000E+00    2.861200E+08  0.02000  8.869E-04    0   0.6700   age125_m62            0.0000     4.5044E+02    11.6407   2.4560   115.7663
 24      0.0000     0.0000E+00    0.0000E+00    6.405400E+08  0.02000  3.657E-04    0   0.6322   age132_m62            0.0000     2.9872E+02     9.6656   1.8115   118.1199
 25      0.0000     0.0000E+00    0.0000E+00    9.047900E+08  0.02000  2.312E-04    0   0.6152   age135_m62            0.0000     1.6481E+02     7.3072   1.4744   115.4251
 26      0.0000     0.0000E+00    0.0000E+00    1.434000E+09  0.02000  1.168E-04    0   0.5865   age139_m62            0.0000     3.5834E+01     3.6888   1.1382   105.8097
 27      0.0000     0.0000E+00    0.0000E+00    2.500000E+09  0.02000  5.505E-05    0   0.5610   age150_m62            0.0000     2.1159E+01     3.3732   0.7933   102.0816
 28      0.3655     6.2883E-01    6.4961E-01    5.000000E+09  0.02000  2.596E-05    0   0.5353   age161_m62            0.0000     5.0482E+01     5.3221   0.4586   102.7321
 29      0.2479     9.4714E-01    9.3274E-01    1.100000E+10  0.02000  1.169E-05    0   0.5103   age185_m62            0.0000     1.0386E+02     7.3819   0.0822   105.2057
 30      0.4968     2.2895E+00    2.2300E+00    1.300000E+10  0.02000  9.691E-06    0   0.5047   age193_m62            0.0000     1.1455E+02     7.6955   0.0344   105.5941
 31      0.0000     0.0000E+00    0.0000E+00    1.000000E+06  0.05000  2.651E-02    0   0.9998   age020_m72            0.0000     1.6594E+03    24.6068   4.0000    84.4618
 32      0.0000     0.0000E+00    0.0000E+00    3.160000E+06  0.05000  4.817E-02    0   0.9577   age045_m72            0.0000     8.5106E+02    18.5661   4.0000    88.0865
 33      0.0000     0.0000E+00    0.0000E+00    5.010000E+06  0.05000  3.101E-02    0   0.9147   age055_m72            0.0000     3.5310E+02    12.7531   4.0000    85.0765
 34      0.0000     0.0000E+00    0.0000E+00    1.000000E+07  0.05000  8.954E-03    0   0.8524   age070_m72            0.0000     6.4129E+02    16.1435   4.0000    87.6195
 35      0.0000     0.0000E+00    0.0000E+00    2.512000E+07  0.05000  4.207E-03    0   0.7902   age090_m72            0.0000     1.5259E+02     9.2996   4.0000    86.2435
 36      0.0000     0.0000E+00    0.0000E+00    4.000000E+07  0.05000  3.198E-03    0   0.7618   age104_m72            0.0000     1.3700E+02     8.1081   3.4715    97.5529
 37      0.0000     0.0000E+00    0.0000E+00    1.015200E+08  0.05000  1.716E-03    0   0.7092   age116_m72            0.0000     2.4914E+02     9.6338   3.1142   105.5352
 38      0.0000     0.0000E+00    0.0000E+00    2.861200E+08  0.05000  7.047E-04    0   0.6618   age125_m72            0.0000     4.4710E+02    11.4825   2.2550   116.4876
 39      0.0000     0.0000E+00    0.0000E+00    6.405400E+08  0.05000  2.633E-04    0   0.6253   age132_m72            0.0000     2.2992E+02     8.3343   1.4530   117.1012
 40      0.0000     0.0000E+00    0.0000E+00    9.047900E+08  0.05000  1.484E-04    0   0.6088   age135_m72            0.0000     7.6660E+01     5.1444   1.0395   108.7901
 41      0.0151     8.6226E-03    9.7296E-03    1.434000E+09  0.05000  7.827E-05    0   0.5847   age139_m72            0.0000     4.7110E+01     4.6821   0.6891   103.8081
 42      3.1077     3.6923E+00    3.9782E+00    2.500000E+09  0.05000  3.759E-05    0   0.5583   age150_m72            0.0000     6.2650E+01     5.8452   0.3799   102.6488
 43      0.0000     0.0000E+00    0.0000E+00    5.000000E+09  0.05000  1.548E-05    0   0.5320   age161_m72            0.0000     1.1410E+02     7.5315  -0.0396   103.0820
 44      0.0000     0.0000E+00    0.0000E+00    1.100000E+10  0.05000  6.532E-06    0   0.5070   age185_m72            0.0000     1.9799E+02     9.5326  -0.4451   104.9173
 45      0.0000     0.0000E+00    0.0000E+00    1.300000E+10  0.05000  5.316E-06    0   0.5018   age193_m72            0.0000     2.3949E+02    10.3682  -0.5746   105.8214


## Synthesis Results - Average & Chains ##

# j      x_j: min, <> & last-chain-values for 1 ...  7 chains
  1      0.0000      0.0230      0.0000      0.0000      0.0000      0.0000      0.0000      0.0000      0.0000
  2      1.6611      0.0889      0.1356      0.3889      0.4157      0.0000      0.5054      0.0000      0.0000
  3      0.0000      0.1568      0.4733      0.1376      0.1435      0.3572      0.1663      0.1504      0.1348
  4      0.0000      0.1792      0.1526      0.2365      0.1946      0.3297      0.2134      0.2917      0.5127
  5      0.0000      0.2628      0.0000      0.2724      0.2261      0.5665      0.2994      0.5928      0.3184
  6      0.0000      0.0300      0.0000      0.0000      0.0000      0.0000      0.0000      0.1191      0.0303
  7      0.0000      0.0610      0.0000      0.0132      0.0535      0.0000      0.0000      0.0000      0.0070
  8      0.0000      0.0366      0.0000      0.0061      0.0000      0.2290      0.0000      0.0000      0.1682
  9      0.0000      0.0785      0.0297      0.0000      0.2057      0.1090      0.1707      0.0241      0.0000
 10      6.2842      6.0101      5.8225      6.3767      5.9358      5.9172      6.0663      6.0445      5.8415
 11      0.0000      0.1388      0.5617      0.0381      0.1951      0.0000      0.1445      0.3450      0.0000
 12      8.5346     12.4657     12.9860     13.1585     11.6724     12.3274     12.0339     12.5754     12.3866
 13     62.7204     54.7737     55.4651     54.3301     56.3097     55.4927     55.1788     55.2636     55.9567
 14     14.0133     18.8184     17.4452     18.3595     17.1774     18.5969     19.1286     18.6416     18.5277
 15      0.0000      0.2282      0.0000      0.3953      0.0000      0.1986      0.0000      0.0000      0.0000
 16      0.0000      0.0527      0.3304      0.0586      0.0000      0.0000      0.1071      0.0000      0.0000
 17      0.0000      0.0172      0.0000      0.0000      0.0000      0.0000      0.0000      0.0000      0.0000
 18      0.0000      0.0870      0.0000      0.0740      0.0740      0.0000      0.0000      0.0382      0.2123
 19      0.0000      0.0750      0.0478      0.0750      0.2853      0.0402      0.0159      0.1491      0.0485
 20      0.0000      0.0277      0.0000      0.0000      0.0000      0.0000      0.0000      0.0000      0.0000
 21      0.0000      0.0392      0.0000      0.0000      0.0000      0.0000      0.0000      0.0055      0.0101
 22      0.0000      0.0317      0.0031      0.0000      0.0000      0.0370      0.0151      0.0000      0.0000
 23      0.0000      0.0137      0.0000      0.0068      0.0000      0.0000      0.0000      0.0000      0.0194
 24      0.0000      0.0211      0.0000      0.0000      0.0000      0.0000      0.0000      0.0000      0.0000
 25      0.0000      0.0231      0.0000      0.0000      0.0000      0.0000      0.0000      0.0000      0.0245
 26      0.0000      0.0770      0.0000      0.0000      0.0000      0.0000      0.0696      0.0000      0.0000
 27      0.0000      0.3212      0.0000      0.0000      0.0000      0.1710      0.0000      0.0000      0.1040
 28      0.3655      0.7185      0.5444      0.5004      0.8028      0.7715      1.4044      0.9220      1.3749
 29      0.2479      0.3113      0.0000      0.7220      0.4460      0.0000      0.3398      0.3229      0.2636
 30      0.4968      0.6238      0.6453      0.8558      0.6465      0.9278      0.5501      0.4745      0.5153
 31      0.0000      0.0299      0.0000      0.0000      0.0000      0.0557      0.0000      0.0000      0.0000
 32      0.0000      0.0360      0.0000      0.0000      0.0000      0.0000      0.0047      0.0322      0.0000
 33      0.0000      0.0614      0.0000      0.1375      0.0000      0.0000      0.0505      0.0000      0.0304
 34      0.0000      0.0281      0.0000      0.0000      0.1443      0.0000      0.0000      0.0000      0.0220
 35      0.0000      0.0330      0.0000      0.0896      0.0000      0.0000      0.0000      0.0000      0.0000
 36      0.0000      0.0256      0.0000      0.0000      0.0000      0.0021      0.0000      0.0000      0.0000
 37      0.0000      0.0200      0.1807      0.0409      0.0054      0.0149      0.0000      0.0107      0.0128
 38      0.0000      0.0170      0.0000      0.0000      0.0000      0.0000      0.0000      0.0000      0.0000
 39      0.0000      0.0209      0.0000      0.0000      0.0000      0.0000      0.0000      0.0000      0.0000
 40      0.0000      0.0669      0.0000      0.0281      0.0223      0.0000      0.0000      0.0000      0.0000
 41      0.0151      0.2718      0.4564      0.0000      0.5242      0.1754      0.0290      0.3333      0.0455
 42      3.1077      0.8889      2.1588      1.1580      1.8509      1.0348      0.9407      1.1206      0.8577
 43      0.0000      0.0858      0.0000      0.0224      0.1304      0.0000      0.0000      0.0000      0.0215
 44      0.0000      0.0233      0.0000      0.0000      0.0000      0.0000      0.0000      0.0000      0.0000
 45      0.0000      0.0618      0.0000      0.0000      0.0000      0.0471      0.0000      0.0000      0.0000

# j      m_j: min, <> & last-chain-values for 1 ...  7 chains
  1  0.0000E+00  1.7054E-04  0.0000E+00  0.0000E+00  0.0000E+00  0.0000E+00  0.0000E+00  0.0000E+00  0.0000E+00
  2  3.5148E-03  1.8053E-04  2.8380E-04  7.8515E-04  8.5506E-04  0.0000E+00  1.0266E-03  0.0000E+00  0.0000E+00
  3  0.0000E+00  4.8556E-04  1.5110E-03  4.2380E-04  4.5005E-04  1.1088E-03  5.1518E-04  4.7236E-04  4.2101E-04
  4  0.0000E+00  1.0333E-03  9.0705E-04  1.3560E-03  1.1368E-03  1.9057E-03  1.2315E-03  1.7066E-03  2.9811E-03
  5  0.0000E+00  3.5044E-03  0.0000E+00  3.6121E-03  3.0536E-03  7.5706E-03  3.9943E-03  8.0183E-03  4.2800E-03
  6  0.0000E+00  5.5583E-04  0.0000E+00  0.0000E+00  0.0000E+00  0.0000E+00  0.0000E+00  2.2384E-03  5.6674E-04
  7  0.0000E+00  1.6039E-03  0.0000E+00  3.4499E-04  1.4238E-03  0.0000E+00  0.0000E+00  0.0000E+00  1.8586E-04
  8  0.0000E+00  1.8532E-03  0.0000E+00  3.0857E-04  0.0000E+00  1.1633E-02  0.0000E+00  0.0000E+00  8.5967E-03
  9  0.0000E+00  7.9284E-03  3.0950E-03  0.0000E+00  2.1031E-02  1.1029E-02  1.7240E-02  2.4638E-03  0.0000E+00
 10  9.2300E-01  8.4710E-01  8.4592E-01  8.9374E-01  8.4745E-01  8.3589E-01  8.5543E-01  8.6424E-01  8.3005E-01
 11  0.0000E+00  3.4359E-02  1.4332E-01  9.3841E-03  4.8910E-02  0.0000E+00  3.5785E-02  8.6619E-02  0.0000E+00
 12  4.0930E+00  5.7370E+00  6.1604E+00  6.0219E+00  5.4413E+00  5.6861E+00  5.5409E+00  5.8710E+00  5.7471E+00
 13  5.9902E+01  5.0200E+01  5.2399E+01  4.9515E+01  5.2276E+01  5.0974E+01  5.0596E+01  5.1380E+01  5.1703E+01
 14  2.7278E+01  3.5153E+01  3.3591E+01  3.4104E+01  3.2502E+01  3.4818E+01  3.5749E+01  3.5325E+01  3.4892E+01
 15  0.0000E+00  4.9392E-01  0.0000E+00  8.5065E-01  0.0000E+00  4.3087E-01  0.0000E+00  0.0000E+00  0.0000E+00
 16  0.0000E+00  2.1895E-04  1.4160E-03  2.4216E-04  0.0000E+00  0.0000E+00  4.4537E-04  0.0000E+00  0.0000E+00
 17  0.0000E+00  3.7147E-05  0.0000E+00  0.0000E+00  0.0000E+00  0.0000E+00  0.0000E+00  0.0000E+00  0.0000E+00
 18  0.0000E+00  2.0833E-04  0.0000E+00  1.7623E-04  1.7937E-04  0.0000E+00  0.0000E+00  9.2743E-05  5.1254E-04
 19  0.0000E+00  5.3673E-04  3.5264E-04  5.3359E-04  2.0687E-03  2.8809E-04  1.1408E-04  1.0828E-03  3.4989E-04
 20  0.0000E+00  4.4112E-04  0.0000E+00  0.0000E+00  0.0000E+00  0.0000E+00  0.0000E+00  0.0000E+00  0.0000E+00
 21  0.0000E+00  7.4970E-04  0.0000E+00  0.0000E+00  0.0000E+00  0.0000E+00  0.0000E+00  1.0581E-04  1.9378E-04
 22  0.0000E+00  1.0076E-03  1.0061E-04  0.0000E+00  0.0000E+00  1.1791E-03  4.7919E-04  0.0000E+00  0.0000E+00
 23  0.0000E+00  8.5533E-04  0.0000E+00  4.2228E-04  0.0000E+00  0.0000E+00  0.0000E+00  0.0000E+00  1.2234E-03
 24  0.0000E+00  3.0117E-03  0.0000E+00  0.0000E+00  0.0000E+00  0.0000E+00  0.0000E+00  0.0000E+00  0.0000E+00
 25  0.0000E+00  5.0921E-03  0.0000E+00  0.0000E+00  0.0000E+00  0.0000E+00  0.0000E+00  0.0000E+00  5.4352E-03
 26  0.0000E+00  3.1996E-02  0.0000E+00  0.0000E+00  0.0000E+00  0.0000E+00  2.8908E-02  0.0000E+00  0.0000E+00
 27  0.0000E+00  2.7074E-01  0.0000E+00  0.0000E+00  0.0000E+00  1.4448E-01  0.0000E+00  0.0000E+00  8.8398E-02
 28  6.4961E-01  1.2255E+00  9.5709E-01  8.4874E-01  1.3869E+00  1.3188E+00  2.3964E+00  1.5951E+00  2.3640E+00
 29  9.3274E-01  1.1240E+00  0.0000E+00  2.5920E+00  1.6310E+00  0.0000E+00  1.2276E+00  1.1825E+00  9.5956E-01
 30  2.2300E+00  2.6869E+00  2.8653E+00  3.6659E+00  2.8206E+00  4.0055E+00  2.3706E+00  2.0736E+00  2.2377E+00
 31  0.0000E+00  9.3297E-05  0.0000E+00  0.0000E+00  0.0000E+00  1.7426E-04  0.0000E+00  0.0000E+00  0.0000E+00
 32  0.0000E+00  5.9126E-05  0.0000E+00  0.0000E+00  0.0000E+00  0.0000E+00  7.6569E-06  5.3716E-05  0.0000E+00
 33  0.0000E+00  1.4978E-04  0.0000E+00  3.3365E-04  0.0000E+00  0.0000E+00  1.2327E-04  0.0000E+00  7.4833E-05
