###################################################################
## OUTPUT of StarlightChains_v04.for    [Cid@UFSC - 01/Apr/2007] ##
###################################################################

## Some input info
NGC6626_a_1.cxt                          [arq_obs]
Base.BC03.N                              [arq_base]
NGC6626_a_1.msk                          [arq_masks]
StCv04.C99.config                        [arq_config]
   45                                    [N_base]
    0                                    [N_YAV_components = # of components with extra extinction!]
    0                                    [i_FitPowerLaw (1/0 = Yes/No)]
-9.99                                    [alpha_PowerLaw]
CCM                                      [red_law_option]
 1.458241                                [q_norm = A(l_norm)/A(V)]

## (Re)Sampling Parameters
 3359.00                                 [l_ini (A)]
 6428.00                                 [l_fin (A)]
    1.00                                 [dl    (A)]     (OBS: dl_cushion =    50.00 A)

## Normalization info
 4020.00                                 [l_norm (A) - for base]
 4010.00                                 [llow_norm (A) - window for f_obs]
 4060.00                                 [lupp_norm (A) - window for f_obs]
2.684846E-14                             [fobs_norm (in input units)]

## S/N
 4730.00                                 [llow_SN (A) - window for S/N]
 4780.00                                 [lupp_SN (A) - window for S/N]
  76.546                                 [S/N in S/N window]
  58.380                                 [S/N in norm. window]
 133.097                                 [S/N_err in S/N window]
 101.509                                 [S/N_err in norm. window]
  1.0000                                 [fscale_chi2]

## etc...
  2147483595                             [idum_orig]
  3069                                   [NOl_eff]
  1133                                   [Nl_eff]
  1936    NSIGMA                         [Ntot_cliped & clip_method]
  2132200                                [Nglobal_steps]
   7                                     [N_chains]
  14                                     [NEX0s_base = N_base in EX0s-fits]
 0   0   1      124   2.0   2.431E+02    [Clip-Bug, RC-Crash & Burn-In warning-flags, n_censored_weights, wei_nsig_threshold & wei_limit]
    25     24.874     24.874      0.000  [idt_all, wdt_TotTime, wdt_UsrTime & wdt_SysTime (sec)]

## Synthesis Results - Best model ##

 2.88248E+00                             [chi2/Nl_eff]
     1.86590                             [adev (%)]

    99.90858                             [sum-of-x (%)]
 2.03868E-13                             [Flux_tot (units of input spectrum!)]
 1.55998E-09                             [Mini_tot (???)]
 8.52545E-10                             [Mcor_tot (???)]

  -2.97                                  [v0_min  (km/s)]
  60.76                                  [vd_min  (km/s)]
 1.5101                                  [AV_min  (mag)]
 0.0000                                  [YAV_min (mag)]

# j     x_j(%)      Mini_j(%)     Mcor_j(%)     age_j(yr)     Z_j      (L/M)_j    YAV?  Mstars   component_j        a/Fe...       SSP_chi2r SSP_adev(%)   SSP_AV   SSP_x(%)
  1      0.0000     0.0000E+00    0.0000E+00    1.000000E+06  0.00400  1.114E-02    0   1.0000   age020_m42            0.0000     4.1490E+02    16.8103   4.0000    89.5605
  2      5.1132     1.6421E-02    3.0044E-02    3.160000E+06  0.00400  4.073E-02    0   0.9999   age045_m42            0.0000     4.6063E+01     5.9915   3.5875    90.9929
  3      0.0000     0.0000E+00    0.0000E+00    5.010000E+06  0.00400  2.534E-02    0   0.9488   age055_m42            0.0000     1.0228E+02     9.0605   3.9402    86.0023
  4     12.7868     1.3160E-01    2.1339E-01    1.000000E+07  0.00400  1.271E-02    0   0.8862   age070_m42            0.0000     9.1065E+01     9.0092   3.1486    90.3034
  5      0.0000     0.0000E+00    0.0000E+00    2.512000E+07  0.00400  5.070E-03    0   0.8174   age090_m42            0.0000     7.9360E+01     8.4503   3.0309    91.5396
  6      0.0000     0.0000E+00    0.0000E+00    4.000000E+07  0.00400  3.505E-03    0   0.7851   age104_m42            0.0000     4.7735E+01     6.5814   2.7480    93.6004
  7      1.2393     7.1474E-02    9.4255E-02    1.015200E+08  0.00400  2.268E-03    0   0.7207   age116_m42            0.0000     9.1043E+01     5.9366   2.8530    99.3212
  8      0.0000     0.0000E+00    0.0000E+00    2.861200E+08  0.00400  1.079E-03    0   0.6613   age125_m42            0.0000     9.8483E+01     6.4476   2.3821   100.4698
  9      7.6490     1.9707E+00    2.2347E+00    6.405400E+08  0.00400  5.077E-04    0   0.6197   age132_m42            0.0000     1.0717E+02     6.9861   2.0221   104.2261
 10     27.6185     1.0220E+01    1.1265E+01    9.047900E+08  0.00400  3.535E-04    0   0.6024   age135_m42            0.0000     6.3283E+01     5.5722   1.7709   103.9918
 11      0.0000     0.0000E+00    0.0000E+00    1.434000E+09  0.00400  1.910E-04    0   0.5716   age139_m42            0.0000     3.0629E+01     4.2936   1.2382   103.4736
 12     22.2018     2.9580E+01    2.9568E+01    2.500000E+09  0.00400  9.818E-05    0   0.5463   age150_m42            0.0000     2.7821E+01     4.1070   0.9404    99.8777
 13     14.4776     4.0139E+01    3.8398E+01    5.000000E+09  0.00400  4.718E-05    0   0.5228   age161_m42            0.0000     4.5291E+01     4.7585   0.7554    97.3267
 14      0.0000     0.0000E+00    0.0000E+00    1.100000E+10  0.00400  2.205E-05    0   0.4980   age185_m42            0.0000     9.8003E+01     6.5784   0.4954    95.4633
 15      0.0000     0.0000E+00    0.0000E+00    1.300000E+10  0.00400  1.883E-05    0   0.4927   age193_m42            0.0000     1.0589E+02     6.8350   0.4785    95.3363
 16      0.0000     0.0000E+00    0.0000E+00    1.000000E+06  0.02000  1.989E-02    0   1.0000   age020_m62            0.0000     3.8497E+02    16.0365   4.0000    89.5242
 17      0.0000     0.0000E+00    0.0000E+00    3.160000E+06  0.02000  3.772E-02    0   0.9858   age045_m62            0.0000     2.6826E+02    13.8377   4.0000    88.8603
 18      1.2521     5.0755E-03    8.6760E-03    5.010000E+06  0.02000  3.227E-02    0   0.9342   age055_m62            0.0000     6.9650E+01     7.6926   3.8123    88.5464
 19      0.0000     0.0000E+00    0.0000E+00    1.000000E+07  0.02000  1.011E-02    0   0.8751   age070_m62            0.0000     2.4584E+02    13.9184   3.1314    87.6278
 20      0.0000     0.0000E+00    0.0000E+00    2.512000E+07  0.02000  4.206E-03    0   0.8099   age090_m62            0.0000     1.7199E+02    11.8194   3.0930    87.6686
 21      0.0000     0.0000E+00    0.0000E+00    4.000000E+07  0.02000  3.373E-03    0   0.7799   age104_m62            0.0000     4.5712E+01     6.0657   2.9741    94.4663
 22      0.0000     0.0000E+00    0.0000E+00    1.015200E+08  0.02000  1.878E-03    0   0.7221   age116_m62            0.0000     7.4499E+01     5.2971   2.8676   100.0198
 23      0.0000     0.0000E+00    0.0000E+00    2.861200E+08  0.02000  8.869E-04    0   0.6700   age125_m62            0.0000     1.7394E+02     8.5925   2.4191   104.5903
 24      0.0000     0.0000E+00    0.0000E+00    6.405400E+08  0.02000  3.657E-04    0   0.6322   age132_m62            0.0000     1.2145E+02     7.8051   1.7508   107.5364
 25      0.0000     0.0000E+00    0.0000E+00    9.047900E+08  0.02000  2.312E-04    0   0.6152   age135_m62            0.0000     7.3503E+01     6.4628   1.3598   107.3658
 26      0.0010     1.0710E-03    1.1493E-03    1.434000E+09  0.02000  1.168E-04    0   0.5865   age139_m62            0.0000     4.4180E+01     5.1829   0.9104   103.1785
 27      1.9720     4.6856E+00    4.8099E+00    2.500000E+09  0.02000  5.505E-05    0   0.5610   age150_m62            0.0000     8.5945E+01     6.5391   0.5284   101.0494
 28      1.0526     5.3036E+00    5.1949E+00    5.000000E+09  0.02000  2.596E-05    0   0.5353   age161_m62            0.0000     1.8391E+02     8.7992   0.1972   101.4176
 29      0.0000     0.0000E+00    0.0000E+00    1.100000E+10  0.02000  1.169E-05    0   0.5103   age185_m62            0.0000     3.0124E+02    10.9221  -0.1545   102.7254
 30      0.0000     0.0000E+00    0.0000E+00    1.300000E+10  0.02000  9.691E-06    0   0.5047   age193_m62            0.0000     3.2336E+02    11.2754  -0.1986   102.9420
 31      0.0000     0.0000E+00    0.0000E+00    1.000000E+06  0.05000  2.651E-02    0   0.9998   age020_m72            0.0000     3.7886E+02    15.7849   4.0000    90.4709
 32      0.0000     0.0000E+00    0.0000E+00    3.160000E+06  0.05000  4.817E-02    0   0.9577   age045_m72            0.0000     1.5971E+02    11.0765   4.0000    88.8100
 33      1.4297     6.0307E-03    1.0094E-02    5.010000E+06  0.05000  3.101E-02    0   0.9147   age055_m72            0.0000     1.1957E+02     9.6620   3.8063    87.3478
 34      0.0000     0.0000E+00    0.0000E+00    1.000000E+07  0.05000  8.954E-03    0   0.8524   age070_m72            0.0000     1.2988E+02     9.7929   4.0000    86.8864
 35      0.0000     0.0000E+00    0.0000E+00    2.512000E+07  0.05000  4.207E-03    0   0.7902   age090_m72            0.0000     6.1304E+01     6.8898   3.6529    90.3221
 36      0.0000     0.0000E+00    0.0000E+00    4.000000E+07  0.05000  3.198E-03    0   0.7618   age104_m72            0.0000     4.6008E+01     4.4676   3.2225    96.3884
 37      0.0000     0.0000E+00    0.0000E+00    1.015200E+08  0.05000  1.716E-03    0   0.7092   age116_m72            0.0000     9.5055E+01     6.0364   2.9727    99.6989
 38      0.0000     0.0000E+00    0.0000E+00    2.861200E+08  0.05000  7.047E-04    0   0.6618   age125_m72            0.0000     1.7020E+02     8.7361   2.2291   104.7859
 39      0.0000     0.0000E+00    0.0000E+00    6.405400E+08  0.05000  2.633E-04    0   0.6253   age132_m72            0.0000     9.9057E+01     7.3682   1.3793   107.2323
 40      0.0000     0.0000E+00    0.0000E+00    9.047900E+08  0.05000  1.484E-04    0   0.6088   age135_m72            0.0000     7.2710E+01     6.5670   0.8695   103.5398
 41      1.6419     2.7440E+00    2.9357E+00    1.434000E+09  0.05000  7.827E-05    0   0.5847   age139_m72            0.0000     1.2443E+02     7.7399   0.4635   101.0150
 42      1.4731     5.1261E+00    5.2366E+00    2.500000E+09  0.05000  3.759E-05    0   0.5583   age150_m72            0.0000     2.0259E+02     9.2418   0.1306   100.8775
 43      0.0000     0.0000E+00    0.0000E+00    5.000000E+09  0.05000  1.548E-05    0   0.5320   age161_m72            0.0000     3.1533E+02    10.9946  -0.2717   100.6865
 44      0.0000     0.0000E+00    0.0000E+00    1.100000E+10  0.05000  6.532E-06    0   0.5070   age185_m72            0.0000     4.5454E+02    13.2360  -0.6211   100.0154
 45      0.0000     0.0000E+00    0.0000E+00    1.300000E+10  0.05000  5.316E-06    0   0.5018   age193_m72            0.0000     5.1153E+02    14.1426  -0.7245    99.7699


## Synthesis Results - Average & Chains ##

# j      x_j: min, <> & last-chain-values for 1 ...  7 chains
  1      0.0000      0.0488      0.1012      0.0817      0.0235      0.0000      0.1991      0.1037      0.0786
  2      5.1132      4.0449      4.1247      3.9837      4.1369      3.9373      3.9712      4.1127      4.1597
  3      0.0000      0.3524      0.1486      0.3499      0.1561      0.7049      0.1517      0.3813      0.2259
  4     12.7868     12.8271     12.6177     12.9969     12.6415     12.5595     12.8982     12.9370     13.0193
  5      0.0000      0.0923      0.1061      0.0000      0.0000      0.0000      0.0000      0.1173      0.0000
  6      0.0000      0.0400      0.1499      0.0298      0.0000      0.0000      0.0000      0.0000      0.0000
  7      1.2393      5.3019      4.6549      5.2142      5.1203      5.2001      4.9848      4.7039      4.9271
  8      0.0000      0.0426      0.0000      0.0000      0.0000      0.0000      0.0268      0.0000      0.0023
  9      7.6490      6.3884      6.6681      6.7376      5.9806      6.6885      6.6358      6.8703      7.2178
 10     27.6185     22.7246     24.1945     22.8988     24.0297     23.2261     23.2605     23.6320     22.9992
 11      0.0000      0.2190      0.0000      0.0138      0.2508      0.0232      0.3137      0.0680      0.0003
 12     22.2018     24.5108     24.0706     23.9842     23.2444     24.2759     24.3924     24.0255     24.0512
 13     14.4776     18.2075     17.7458     17.8398     18.0735     17.3469     17.7893     17.9720     18.0084
 14      0.0000      0.0220      0.0000      0.0000      0.0000      0.0000      0.0000      0.0000      0.0110
 15      0.0000      0.0168      0.0107      0.0187      0.0000      0.0000      0.0000      0.0000      0.0000
 16      0.0000      0.0276      0.0000      0.0000      0.0000      0.0000      0.0505      0.1159      0.0000
 17      0.0000      0.0593      0.0000      0.0000      0.1238      0.0003      0.1767      0.1794      0.0294
 18      1.2521      0.4611      0.5064      0.7042      1.0683      0.6303      0.4182      0.5493      0.4666
 19      0.0000      0.1127      0.1637      0.0611      0.0356      0.2588      0.1168      0.2378      0.0000
 20      0.0000      0.0509      0.0000      0.0735      0.0000      0.0000      0.0000      0.0000      0.0278
 21      0.0000      0.0515      0.0134      0.0000      0.0000      0.0000      0.0821      0.0000      0.0000
 22      0.0000      0.0332      0.0000      0.0000      0.0000      0.0000      0.0000      0.0000      0.0000
 23      0.0000      0.0275      0.0091      0.0000      0.0000      0.0444      0.0000      0.0000      0.0000
 24      0.0000      0.0455      0.0000      0.0000      0.0042      0.0000      0.0000      0.0000      0.0000
 25      0.0000      0.0773      0.0000      0.0000      0.0000      0.0255      0.0000      0.0000      0.0490
 26      0.0010      0.7897      0.5373      1.1389      0.8233      1.0899      0.6339      0.7750      0.8018
 27      1.9720      0.7208      0.7309      1.1592      0.9161      0.7256      0.8451      0.7260      0.5911
 28      1.0526      0.3903      0.6782      0.3899      0.5348      0.6729      0.4312      0.3901      0.4525
 29      0.0000      0.1886      0.2116      0.2764      0.1859      0.1611      0.2151      0.2316      0.1649
 30      0.0000      0.0568      0.0104      0.0000      0.0921      0.0564      0.0000      0.0000      0.2153
 31      0.0000      0.0342      0.1983      0.0277      0.1655      0.0000      0.0000      0.0163      0.0000
 32      0.0000      0.1610      0.0000      0.0981      0.2252      0.1361      0.2133      0.0000      0.6399
 33      1.4297      0.2984      0.5265      0.3658      0.4145      0.3315      0.4387      0.2103      0.3118
 34      0.0000      0.0577      0.2256      0.0000      0.0000      0.0712      0.0000      0.0000      0.0384
 35      0.0000      0.0695      0.0617      0.0284      0.0000      0.2117      0.0605      0.0000      0.0000
 36      0.0000      0.0360      0.0193      0.1714      0.0337      0.0001      0.0000      0.0000      0.0000
 37      0.0000      0.0388      0.0000      0.0000      0.0137      0.0027      0.0000      0.0492      0.0000
 38      0.0000      0.0303      0.0000      0.0000      0.0000      0.0556      0.0000      0.0000      0.0000
 39      0.0000      0.0610      0.0000      0.0000      0.0000      0.0000      0.0635      0.0204      0.0000
 40      0.0000      0.1094      0.0000      0.0000      0.3006      0.0336      0.0222      0.0666      0.1839
 41      1.6419      0.3334      0.6556      0.4166      0.3905      0.5954      0.7422      0.7476      0.3235
 42      1.4731      0.4492      0.3996      0.6489      0.6011      0.5506      0.5141      0.3984      0.6236
 43      0.0000      0.0728      0.0771      0.0282      0.0572      0.1218      0.0722      0.0285      0.1170
 44      0.0000      0.0394      0.0409      0.0562      0.0700      0.0619      0.0227      0.0000      0.0426
 45      0.0000      0.0425      0.1241      0.0000      0.0533      0.0000      0.0000      0.0744      0.0000

# j      m_j: min, <> & last-chain-values for 1 ...  7 chains
  1  0.0000E+00  9.9624E-04  2.0407E-03  1.6762E-03  4.7440E-04  0.0000E+00  4.1368E-03  2.1476E-03  1.5972E-03
  2  3.0044E-02  2.2603E-02  2.2748E-02  2.2358E-02  2.2861E-02  2.2145E-02  2.2569E-02  2.3286E-02  2.3106E-02
  3  0.0000E+00  3.0032E-03  1.2502E-03  2.9950E-03  1.3158E-03  6.0467E-03  1.3151E-03  3.2926E-03  1.9138E-03
  4  2.1339E-01  2.0358E-01  1.9764E-01  2.0717E-01  1.9841E-01  2.0063E-01  2.0819E-01  2.0804E-01  2.0540E-01
  5  0.0000E+00  3.3889E-03  3.8418E-03  0.0000E+00  0.0000E+00  0.0000E+00  0.0000E+00  4.3620E-03  0.0000E+00
  6  0.0000E+00  2.0372E-03  7.5422E-03  1.5244E-03  0.0000E+00  0.0000E+00  0.0000E+00  0.0000E+00  0.0000E+00
  7  9.4255E-02  3.8349E-01  3.3231E-01  3.7879E-01  3.6626E-01  3.7858E-01  3.6670E-01  3.4475E-01  3.5426E-01
  8  0.0000E+00  5.9432E-03  0.0000E+00  0.0000E+00  0.0000E+00  0.0000E+00  3.8013E-03  0.0000E+00  3.1985E-04
  9  2.2347E+00  1.7749E+00  1.8285E+00  1.8801E+00  1.6433E+00  1.8704E+00  1.8751E+00  1.9341E+00  1.9935E+00
 10  1.1265E+01  8.8147E+00  9.2625E+00  8.9210E+00  9.2179E+00  9.0679E+00  9.1762E+00  9.2882E+00  8.8682E+00
 11  0.0000E+00  1.4920E-01  0.0000E+00  9.4532E-03  1.6896E-01  1.5916E-02  2.1735E-01  4.6940E-02  1.7757E-04
 12  2.9568E+01  3.1044E+01  3.0089E+01  3.0510E+01  2.9115E+01  3.0947E+01  3.1420E+01  3.0833E+01  3.0281E+01
 13  3.8398E+01  4.5924E+01  4.4176E+01  4.5193E+01  4.5083E+01  4.4039E+01  4.5633E+01  4.5931E+01  4.5152E+01
 14  0.0000E+00  1.1323E-01  0.0000E+00  0.0000E+00  0.0000E+00  0.0000E+00  0.0000E+00  0.0000E+00  5.6183E-02
 15  0.0000E+00  1.0030E-01  6.2823E-02  1.1172E-01  0.0000E+00  0.0000E+00  0.0000E+00  0.0000E+00  0.0000E+00
 16  0.0000E+00  3.1597E-04  0.0000E+00  0.0000E+00  0.0000E+00  0.0000E+00  5.8825E-04  1.3436E-03  0.0000E+00
 17  0.0000E+00  3.5267E-04  0.0000E+00  0.0000E+00  7.2816E-04  1.5665E-06  1.0693E-03  1.0814E-03  1.7392E-04
 18  8.6760E-03  3.0386E-03  3.2931E-03  4.6604E-03  6.9617E-03  4.1805E-03  2.8026E-03  3.6676E-03  3.0566E-03
 19  0.0000E+00  2.2213E-03  3.1837E-03  1.2083E-03  6.9389E-04  5.1327E-03  2.3403E-03  4.7475E-03  0.0000E+00
 20  0.0000E+00  2.2308E-03  0.0000E+00  3.2371E-03  0.0000E+00  0.0000E+00  0.0000E+00  0.0000E+00  1.2108E-03
 21  0.0000E+00  2.7111E-03  6.9533E-04  0.0000E+00  0.0000E+00  0.0000E+00  4.3921E-03  0.0000E+00  0.0000E+00
 22  0.0000E+00  2.9099E-03  0.0000E+00  0.0000E+00  0.0000E+00  0.0000E+00  0.0000E+00  0.0000E+00  0.0000E+00
 23  0.0000E+00  4.7293E-03  1.5425E-03  0.0000E+00  0.0000E+00  7.6770E-03  0.0000E+00  0.0000E+00  0.0000E+00
 24  0.0000E+00  1.7918E-02  0.0000E+00  0.0000E+00  1.6352E-03  0.0000E+00  0.0000E+00  0.0000E+00  0.0000E+00
 25  0.0000E+00  4.6817E-02  0.0000E+00  0.0000E+00  0.0000E+00  1.5547E-02  0.0000E+00  0.0000E+00  2.9530E-02
 26  1.1493E-03  9.0258E-01  6.0612E-01  1.3074E+00  9.3064E-01  1.2538E+00  7.3688E-01  8.9757E-01  9.1098E-01
 27  4.8099E+00  1.6721E+00  1.6734E+00  2.7006E+00  2.1015E+00  1.6941E+00  1.9937E+00  1.7065E+00  1.3630E+00
 28  5.1949E+00  1.8319E+00  3.1415E+00  1.8381E+00  2.4823E+00  3.1789E+00  2.0584E+00  1.8552E+00  2.1112E+00
 29  0.0000E+00  1.8736E+00  2.0752E+00  2.7582E+00  1.8272E+00  1.6115E+00  2.1741E+00  2.3319E+00  1.6288E+00
 30  0.0000E+00  6.7318E-01  1.2144E-01  0.0000E+00  1.0802E+00  6.7267E-01  0.0000E+00  0.0000E+00  2.5365E+00
 31  0.0000E+00  2.9334E-04  1.6803E-03  2.3841E-04  1.4050E-03  0.0000E+00  0.0000E+00  1.4166E-04  0.0000E+00
 32  0.0000E+00  7.2870E-04  0.0000E+00  4.4603E-04  1.0077E-03  6.1973E-04  9.8175E-04  0.0000E+00  2.8786E-03
 33  1.0094E-02  2.0034E-03  3.4887E-03  2.4669E-03  2.7519E-03  2.2404E-03  2.9954E-03  1.4309E-03  2.0811E-03
