###################################################################
## OUTPUT of StarlightChains_v04.for    [Cid@UFSC - 01/Apr/2007] ##
###################################################################

## Some input info
NGC6333_a_1.cxt                          [arq_obs]
Base.BC03.N                              [arq_base]
NGC6333_a_1.msk                          [arq_masks]
StCv04.C99.config                        [arq_config]
   45                                    [N_base]
    0                                    [N_YAV_components = # of components with extra extinction!]
    0                                    [i_FitPowerLaw (1/0 = Yes/No)]
-9.99                                    [alpha_PowerLaw]
CCM                                      [red_law_option]
 1.458241                                [q_norm = A(l_norm)/A(V)]

## (Re)Sampling Parameters
 3359.00                                 [l_ini (A)]
 6428.00                                 [l_fin (A)]
    1.00                                 [dl    (A)]     (OBS: dl_cushion =    50.00 A)

## Normalization info
 4020.00                                 [l_norm (A) - for base]
 4010.00                                 [llow_norm (A) - window for f_obs]
 4060.00                                 [lupp_norm (A) - window for f_obs]
1.502426E-14                             [fobs_norm (in input units)]

## S/N
 4730.00                                 [llow_SN (A) - window for S/N]
 4780.00                                 [lupp_SN (A) - window for S/N]
 125.098                                 [S/N in S/N window]
 101.861                                 [S/N in norm. window]
  69.725                                 [S/N_err in S/N window]
  56.774                                 [S/N_err in norm. window]
  1.0000                                 [fscale_chi2]

## etc...
  2147483616                             [idum_orig]
  3065                                   [NOl_eff]
  1878                                   [Nl_eff]
  1187    NSIGMA                         [Ntot_cliped & clip_method]
  1621200                                [Nglobal_steps]
   7                                     [N_chains]
   9                                     [NEX0s_base = N_base in EX0s-fits]
 0   0   1      286   2.0   8.723E+02    [Clip-Bug, RC-Crash & Burn-In warning-flags, n_censored_weights, wei_nsig_threshold & wei_limit]
    24     23.277     23.269      0.008  [idt_all, wdt_TotTime, wdt_UsrTime & wdt_SysTime (sec)]

## Synthesis Results - Best model ##

 1.92147E+00                             [chi2/Nl_eff]
     1.51865                             [adev (%)]

   102.16740                             [sum-of-x (%)]
 1.21915E-13                             [Flux_tot (units of input spectrum!)]
 7.04616E-10                             [Mini_tot (???)]
 3.81798E-10                             [Mcor_tot (???)]

 -21.76                                  [v0_min  (km/s)]
 126.79                                  [vd_min  (km/s)]
 1.5429                                  [AV_min  (mag)]
 0.0000                                  [YAV_min (mag)]

# j     x_j(%)      Mini_j(%)     Mcor_j(%)     age_j(yr)     Z_j      (L/M)_j    YAV?  Mstars   component_j        a/Fe...       SSP_chi2r SSP_adev(%)   SSP_AV   SSP_x(%)
  1      0.0000     0.0000E+00    0.0000E+00    1.000000E+06  0.00400  1.114E-02    0   1.0000   age020_m42            0.0000     4.3610E+02    21.1981   4.0000    69.0675
  2      3.7302     1.5510E-02    2.8621E-02    3.160000E+06  0.00400  4.073E-02    0   0.9999   age045_m42            0.0000     2.7563E+01     3.8110   3.4249    88.3900
  3      0.0000     0.0000E+00    0.0000E+00    5.010000E+06  0.00400  2.534E-02    0   0.9488   age055_m42            0.0000     7.2348E+01     7.0119   3.9521    77.8653
  4     21.2595     2.8327E-01    4.6329E-01    1.000000E+07  0.00400  1.271E-02    0   0.8862   age070_m42            0.0000     5.7849E+01     7.0281   3.1456    82.2840
  5      0.0000     0.0000E+00    0.0000E+00    2.512000E+07  0.00400  5.070E-03    0   0.8174   age090_m42            0.0000     5.1499E+01     6.5476   2.9992    84.4649
  6      0.0000     0.0000E+00    0.0000E+00    4.000000E+07  0.00400  3.505E-03    0   0.7851   age104_m42            0.0000     3.1942E+01     4.5901   2.6237    89.8517
  7     29.0358     2.1681E+00    2.8837E+00    1.015200E+08  0.00400  2.268E-03    0   0.7207   age116_m42            0.0000     1.2234E+02     9.4586   2.1139   121.4583
  8      0.0000     0.0000E+00    0.0000E+00    2.861200E+08  0.00400  1.079E-03    0   0.6613   age125_m42            0.0000     1.3546E+02    10.6157   1.5617   126.7510
  9      0.0000     0.0000E+00    0.0000E+00    6.405400E+08  0.00400  5.077E-04    0   0.6197   age132_m42            0.0000     1.6073E+02    11.2643   1.1642   133.3813
 10      9.8944     4.7401E+00    5.2698E+00    9.047900E+08  0.00400  3.535E-04    0   0.6024   age135_m42            0.0000     9.1119E+01     8.7318   1.0482   126.5356
 11      0.0000     0.0000E+00    0.0000E+00    1.434000E+09  0.00400  1.910E-04    0   0.5716   age139_m42            0.0000     4.9725E+01     6.4635   0.6551   118.9153
 12     27.7671     4.7896E+01    4.8289E+01    2.500000E+09  0.00400  9.818E-05    0   0.5463   age150_m42            0.0000     3.9550E+01     4.6726   0.5408   106.6731
 13      9.6971     3.4808E+01    3.3584E+01    5.000000E+09  0.00400  4.718E-05    0   0.5228   age161_m42            0.0000     5.6648E+01     4.5540   0.4502    99.9742
 14      0.0000     0.0000E+00    0.0000E+00    1.100000E+10  0.00400  2.205E-05    0   0.4980   age185_m42            0.0000     1.0426E+02     5.8816   0.2145    96.9081
 15      0.0000     0.0000E+00    0.0000E+00    1.300000E+10  0.00400  1.883E-05    0   0.4927   age193_m42            0.0000     1.1557E+02     6.0381   0.2023    96.5499
 16      0.0000     0.0000E+00    0.0000E+00    1.000000E+06  0.02000  1.989E-02    0   1.0000   age020_m62            0.0000     4.0684E+02    20.3761   4.0000    69.7334
 17      0.0000     0.0000E+00    0.0000E+00    3.160000E+06  0.02000  3.772E-02    0   0.9858   age045_m62            0.0000     2.7163E+02    16.1566   4.0000    72.3482
 18      0.1920     1.0076E-03    1.7372E-03    5.010000E+06  0.02000  3.227E-02    0   0.9342   age055_m62            0.0000     4.2804E+01     5.1971   3.7442    83.0786
 19      0.0000     0.0000E+00    0.0000E+00    1.000000E+07  0.02000  1.011E-02    0   0.8751   age070_m62            0.0000     1.5521E+02    12.1253   3.2920    74.3527
 20      0.0000     0.0000E+00    0.0000E+00    2.512000E+07  0.02000  4.206E-03    0   0.8099   age090_m62            0.0000     1.2374E+02    10.0104   3.1811    77.0152
 21      0.0000     0.0000E+00    0.0000E+00    4.000000E+07  0.02000  3.373E-03    0   0.7799   age104_m62            0.0000     2.7342E+01     3.5068   2.7776    93.7543
 22      0.0000     0.0000E+00    0.0000E+00    1.015200E+08  0.02000  1.878E-03    0   0.7221   age116_m62            0.0000     8.0161E+01     7.5807   2.2203   118.5053
 23      0.0000     0.0000E+00    0.0000E+00    2.861200E+08  0.02000  8.869E-04    0   0.6700   age125_m62            0.0000     2.9086E+02    14.8962   1.3593   143.5813
 24      0.0000     0.0000E+00    0.0000E+00    6.405400E+08  0.02000  3.657E-04    0   0.6322   age132_m62            0.0000     1.7770E+02    12.3821   0.8240   140.5469
 25      0.0000     0.0000E+00    0.0000E+00    9.047900E+08  0.02000  2.312E-04    0   0.6152   age135_m62            0.0000     1.0167E+02     9.3537   0.6179   130.9686
 26      0.0000     0.0000E+00    0.0000E+00    1.434000E+09  0.02000  1.168E-04    0   0.5865   age139_m62            0.0000     5.4053E+01     5.8714   0.4290   113.6244
 27      0.0000     0.0000E+00    0.0000E+00    2.500000E+09  0.02000  5.505E-05    0   0.5610   age150_m62            0.0000     9.3927E+01     6.2157   0.1329   107.2332
 28      0.0000     0.0000E+00    0.0000E+00    5.000000E+09  0.02000  2.596E-05    0   0.5353   age161_m62            0.0000     1.8067E+02     7.8707  -0.1854   106.7634
 29      0.4581     6.6359E+00    6.2495E+00    1.100000E+10  0.02000  1.169E-05    0   0.5103   age185_m62            0.0000     2.9915E+02     9.5218  -0.5685   109.1234
 30      0.0000     0.0000E+00    0.0000E+00    1.300000E+10  0.02000  9.691E-06    0   0.5047   age193_m62            0.0000     3.2718E+02     9.7821  -0.6173   109.4752
 31      0.0000     0.0000E+00    0.0000E+00    1.000000E+06  0.05000  2.651E-02    0   0.9998   age020_m72            0.0000     3.9142E+02    19.8733   4.0000    70.9318
 32      0.0000     0.0000E+00    0.0000E+00    3.160000E+06  0.05000  4.817E-02    0   0.9577   age045_m72            0.0000     1.2905E+02    10.1309   4.0000    76.8389
 33      0.0000     0.0000E+00    0.0000E+00    5.010000E+06  0.05000  3.101E-02    0   0.9147   age055_m72            0.0000     8.2417E+01     7.6196   3.8397    78.4972
 34      0.0000     0.0000E+00    0.0000E+00    1.000000E+07  0.05000  8.954E-03    0   0.8524   age070_m72            0.0000     1.1085E+02     8.2820   4.0000    77.4377
 35      0.0000     0.0000E+00    0.0000E+00    2.512000E+07  0.05000  4.207E-03    0   0.7902   age090_m72            0.0000     4.8506E+01     5.0032   3.5396    86.5686
 36      0.0000     0.0000E+00    0.0000E+00    4.000000E+07  0.05000  3.198E-03    0   0.7618   age104_m72            0.0000     3.5188E+01     4.7490   2.7361   107.1918
 37      0.0000     0.0000E+00    0.0000E+00    1.015200E+08  0.05000  1.716E-03    0   0.7092   age116_m72            0.0000     1.1188E+02     8.9421   2.2409   121.6497
 38      0.0000     0.0000E+00    0.0000E+00    2.861200E+08  0.05000  7.047E-04    0   0.6618   age125_m72            0.0000     2.9317E+02    15.1009   1.1473   144.3550
 39      0.0000     0.0000E+00    0.0000E+00    6.405400E+08  0.05000  2.633E-04    0   0.6253   age132_m72            0.0000     1.4694E+02    11.1389   0.5194   136.0519
 40      0.0000     0.0000E+00    0.0000E+00    9.047900E+08  0.05000  1.484E-04    0   0.6088   age135_m72            0.0000     8.4335E+01     7.7655   0.2671   119.0827
 41      0.0000     0.0000E+00    0.0000E+00    1.434000E+09  0.05000  7.827E-05    0   0.5847   age139_m72            0.0000     1.2330E+02     7.5576  -0.0064   110.0426
 42      0.0000     0.0000E+00    0.0000E+00    2.500000E+09  0.05000  3.759E-05    0   0.5583   age150_m72            0.0000     1.9675E+02     8.3011  -0.2810   107.1651
 43      0.0000     0.0000E+00    0.0000E+00    5.000000E+09  0.05000  1.548E-05    0   0.5320   age161_m72            0.0000     2.8593E+02     9.6489  -0.7078   107.3976
 44      0.1332     3.4523E+00    3.2302E+00    1.100000E+10  0.05000  6.532E-06    0   0.5070   age185_m72            0.0000     3.9100E+02    12.1456  -1.0000   108.7002
 45      0.0000     0.0000E+00    0.0000E+00    1.300000E+10  0.05000  5.316E-06    0   0.5018   age193_m72            0.0000     4.8233E+02    14.5524  -1.0000   108.0786


## Synthesis Results - Average & Chains ##

# j      x_j: min, <> & last-chain-values for 1 ...  7 chains
  1      0.0000      0.0062      0.0000      0.0000      0.0000      0.0000      0.0000      0.0000      0.0000
  2      3.7302      1.9094      3.4770      2.0772      2.0725      2.0720      2.1969      1.8607      2.3598
  3      0.0000      0.2500      0.1814      0.2199      0.1647      0.4254      0.1304      0.2517      0.1801
  4     21.2595     19.7605     19.3302     20.0970     20.5733     20.0074     20.0857     19.9696     19.8762
  5      0.0000      0.4597      0.3393      0.4758      0.1276      0.4780      0.3285      0.5537      0.4724
  6      0.0000      0.0268      0.0000      0.0000      0.0000      0.0000      0.0000      0.0000      0.0000
  7     29.0358     31.8177     31.6428     31.9230     31.8738     31.6742     31.5816     31.8445     31.3144
  8      0.0000      0.0312      0.0038      0.0589      0.0000      0.0533      0.0000      0.0000      0.0039
  9      0.0000      0.0986      0.1643      0.0000      0.0269      0.0000      0.0830      0.0000      0.4014
 10      9.8944      7.5908      7.2736      7.4377      7.8715      7.8387      7.7732      7.6798      7.5832
 11      0.0000      0.0782      0.0000      0.0000      0.1488      0.0023      0.0794      0.0470      0.0000
 12     27.7671     27.5570     27.4506     27.8537     27.5799     27.8700     27.2597     27.6639     27.8359
 13      9.6971      9.7406      9.7775      9.7556      9.4263      9.5931     10.5048      9.6839      9.7044
 14      0.0000      0.0336      0.0000      0.0915      0.1584      0.1044      0.0000      0.0612      0.0000
 15      0.0000      0.0257      0.0000      0.0000      0.0000      0.0000      0.0000      0.0209      0.0000
 16      0.0000      0.0052      0.0000      0.0000      0.0006      0.0000      0.0000      0.0000      0.0000
 17      0.0000      0.0076      0.0000      0.0000      0.0000      0.0000      0.0000      0.0000      0.0000
 18      0.1920      0.8630      0.8235      0.8540      0.7538      0.8145      0.9164      1.1812      0.9832
 19      0.0000      0.0727      0.0000      0.0000      0.0002      0.0000      0.0000      0.0000      0.0000
 20      0.0000      0.0064      0.0000      0.0000      0.0000      0.0000      0.0419      0.0000      0.0000
 21      0.0000      0.0148      0.0000      0.0000      0.0000      0.0000      0.0000      0.0058      0.0040
 22      0.0000      0.0261      0.0000      0.0000      0.0000      0.0000      0.0000      0.0000      0.0000
 23      0.0000      0.0131      0.0000      0.0000      0.0069      0.0000      0.0000      0.0000      0.0000
 24      0.0000      0.0121      0.0000      0.0000      0.0000      0.0000      0.0000      0.0000      0.0000
 25      0.0000      0.0215      0.0000      0.0000      0.0000      0.0037      0.0000      0.0000      0.0830
 26      0.0000      0.0410      0.0008      0.0000      0.0000      0.0000      0.0000      0.0417      0.0000
 27      0.0000      0.0663      0.0161      0.0000      0.0970      0.0000      0.1392      0.0000      0.0595
 28      0.0000      0.0538      0.0000      0.0326      0.0447      0.0000      0.0000      0.0056      0.0000
 29      0.4581      0.2941      0.4059      0.2071      0.1856      0.3581      0.2779      0.2513      0.1004
 30      0.0000      0.2472      0.2460      0.2476      0.2871      0.2358      0.0966      0.3180      0.2147
 31      0.0000      0.0041      0.0000      0.0000      0.0000      0.0000      0.0000      0.0000      0.0000
 32      0.0000      0.0131      0.0000      0.0000      0.0000      0.0272      0.0000      0.0000      0.0000
 33      0.0000      0.0215      0.0000      0.0000      0.0256      0.0000      0.0000      0.0000      0.0000
 34      0.0000      0.0048      0.0000      0.0000      0.0000      0.0000      0.0000      0.0000      0.0000
 35      0.0000      0.0081      0.0000      0.0000      0.0000      0.0000      0.0000      0.0000      0.0000
 36      0.0000      0.0158      0.0000      0.0000      0.0000      0.0000      0.0000      0.0000      0.0000
 37      0.0000      0.0261      0.0000      0.0000      0.0187      0.0000      0.0008      0.0184      0.0000
 38      0.0000      0.0132      0.0000      0.0016      0.0000      0.0000      0.0000      0.0000      0.0000
 39      0.0000      0.0215      0.0000      0.0000      0.0000      0.0223      0.0013      0.0000      0.0271
 40      0.0000      0.0321      0.1599      0.0000      0.0000      0.0088      0.0000      0.0000      0.0000
 41      0.0000      0.0427      0.0000      0.0414      0.0000      0.0347      0.0064      0.0000      0.0123
 42      0.0000      0.0267      0.0000      0.0000      0.0000      0.0000      0.0000      0.0000      0.0000
 43      0.0000      0.3333      0.2957      0.3386      0.3064      0.0000      0.3015      0.1781      0.3073
 44      0.1332      0.4718      0.4186      0.3832      0.4023      0.4767      0.2427      0.4662      0.4458
 45      0.0000      0.3487      0.3367      0.2888      0.3381      0.2771      0.3769      0.2696      0.4436

# j      m_j: min, <> & last-chain-values for 1 ...  7 chains
  1  0.0000E+00  1.4082E-04  0.0000E+00  0.0000E+00  0.0000E+00  0.0000E+00  0.0000E+00  0.0000E+00  0.0000E+00
  2  2.8621E-02  1.1795E-02  2.1828E-02  1.3380E-02  1.3192E-02  1.3379E-02  1.4319E-02  1.1905E-02  1.4819E-02
  3  0.0000E+00  2.3553E-03  1.7373E-03  2.1600E-03  1.5993E-03  4.1892E-03  1.2963E-03  2.4565E-03  1.7254E-03
  4  4.6329E-01  3.4671E-01  3.4465E-01  3.6766E-01  3.7191E-01  3.6693E-01  3.7181E-01  3.6288E-01  3.5450E-01
  5  0.0000E+00  1.8650E-02  1.3989E-02  2.0129E-02  5.3356E-03  2.0269E-02  1.4059E-02  2.3267E-02  1.9480E-02
  6  0.0000E+00  1.5129E-03  0.0000E+00  0.0000E+00  0.0000E+00  0.0000E+00  0.0000E+00  0.0000E+00  0.0000E+00
  7  2.8837E+00  2.5442E+00  2.5713E+00  2.6616E+00  2.6260E+00  2.6474E+00  2.6644E+00  2.6372E+00  2.5454E+00
  8  0.0000E+00  4.8066E-03  5.9983E-04  9.4721E-03  0.0000E+00  8.5876E-03  0.0000E+00  0.0000E+00  6.1286E-04
  9  0.0000E+00  3.0280E-02  5.1274E-02  0.0000E+00  8.5222E-03  0.0000E+00  2.6891E-02  0.0000E+00  1.2533E-01
 10  5.2698E+00  3.2551E+00  3.1696E+00  3.3255E+00  3.4778E+00  3.5135E+00  3.5168E+00  3.4107E+00  3.3056E+00
 11  0.0000E+00  5.8896E-02  0.0000E+00  0.0000E+00  1.1548E-01  1.8271E-03  6.3108E-02  3.6688E-02  0.0000E+00
 12  4.8289E+01  3.8585E+01  3.9059E+01  4.0665E+01  3.9788E+01  4.0789E+01  4.0270E+01  4.0117E+01  3.9620E+01
 13  3.3584E+01  2.7161E+01  2.7705E+01  2.8364E+01  2.7081E+01  2.7960E+01  3.0904E+01  2.7966E+01  2.7507E+01
 14  0.0000E+00  1.9103E-01  0.0000E+00  5.4201E-01  9.2779E-01  6.2034E-01  0.0000E+00  3.6033E-01  0.0000E+00
 15  0.0000E+00  1.6934E-01  0.0000E+00  0.0000E+00  0.0000E+00  0.0000E+00  0.0000E+00  1.4232E-01  0.0000E+00
 16  0.0000E+00  6.6356E-05  0.0000E+00  0.0000E+00  8.3656E-06  0.0000E+00  0.0000E+00  0.0000E+00  0.0000E+00
 17  0.0000E+00  4.9818E-05  0.0000E+00  0.0000E+00  0.0000E+00  0.0000E+00  0.0000E+00  0.0000E+00  0.0000E+00
 18  1.7372E-03  6.2866E-03  6.0966E-03  6.4871E-03  5.6580E-03  6.2017E-03  7.0437E-03  8.9122E-03  7.2812E-03
 19  0.0000E+00  1.5832E-03  0.0000E+00  0.0000E+00  5.1378E-06  0.0000E+00  0.0000E+00  0.0000E+00  0.0000E+00
 20  0.0000E+00  3.1200E-04  0.0000E+00  0.0000E+00  0.0000E+00  0.0000E+00  2.1412E-03  0.0000E+00  0.0000E+00
 21  0.0000E+00  8.6321E-04  0.0000E+00  0.0000E+00  0.0000E+00  0.0000E+00  0.0000E+00  3.5125E-04  2.3413E-04
 22  0.0000E+00  2.5231E-03  0.0000E+00  0.0000E+00  0.0000E+00  0.0000E+00  0.0000E+00  0.0000E+00  0.0000E+00
 23  0.0000E+00  2.4938E-03  0.0000E+00  0.0000E+00  1.3542E-03  0.0000E+00  0.0000E+00  0.0000E+00  0.0000E+00
 24  0.0000E+00  5.2610E-03  0.0000E+00  0.0000E+00  0.0000E+00  0.0000E+00  0.0000E+00  0.0000E+00  0.0000E+00
 25  0.0000E+00  1.4406E-02  0.0000E+00  0.0000E+00  0.0000E+00  2.6240E-03  0.0000E+00  0.0000E+00  5.6520E-02
 26  0.0000E+00  5.1832E-02  1.0824E-03  0.0000E+00  0.0000E+00  0.0000E+00  0.0000E+00  5.4582E-02  0.0000E+00
 27  0.0000E+00  1.7014E-01  4.2084E-02  0.0000E+00  2.5620E-01  0.0000E+00  3.7658E-01  0.0000E+00  1.5501E-01
 28  0.0000E+00  2.7912E-01  0.0000E+00  1.7659E-01  2.3877E-01  0.0000E+00  0.0000E+00  2.9831E-02  0.0000E+00
 29  6.2495E+00  3.2307E+00  4.5307E+00  2.3716E+00  2.1003E+00  4.1117E+00  3.2204E+00  2.8592E+00  1.1214E+00
 30  0.0000E+00  3.2390E+00  3.2763E+00  3.3840E+00  3.8770E+00  3.2296E+00  1.3354E+00  4.3164E+00  2.8603E+00
 31  0.0000E+00  3.8976E-05  0.0000E+00  0.0000E+00  0.0000E+00  0.0000E+00  0.0000E+00  0.0000E+00  0.0000E+00
 32  0.0000E+00  6.5487E-05  0.0000E+00  0.0000E+00  0.0000E+00  1.4240E-04  0.0000E+00  0.0000E+00  0.0000E+00
 33  0.0000E+00  1.5955E-04  0.0000E+00  0.0000E+00  1.9547E-04  0.0000E+00  0.0000E+00  0.0000E+00  0.0000E+00
