###################################################################
## OUTPUT of StarlightChains_v04.for    [Cid@UFSC - 01/Apr/2007] ##
###################################################################

## Some input info
NGC6528_a_1.cxt                          [arq_obs]
Base.BC03.N                              [arq_base]
NGC6528_a_1.msk                          [arq_masks]
StCv04.C99.config                        [arq_config]
   45                                    [N_base]
    0                                    [N_YAV_components = # of components with extra extinction!]
    0                                    [i_FitPowerLaw (1/0 = Yes/No)]
-9.99                                    [alpha_PowerLaw]
CCM                                      [red_law_option]
 1.458241                                [q_norm = A(l_norm)/A(V)]

## (Re)Sampling Parameters
 3359.00                                 [l_ini (A)]
 6428.00                                 [l_fin (A)]
    1.00                                 [dl    (A)]     (OBS: dl_cushion =    50.00 A)

## Normalization info
 4020.00                                 [l_norm (A) - for base]
 4010.00                                 [llow_norm (A) - window for f_obs]
 4060.00                                 [lupp_norm (A) - window for f_obs]
3.287291E-15                             [fobs_norm (in input units)]

## S/N
 4730.00                                 [llow_SN (A) - window for S/N]
 4780.00                                 [lupp_SN (A) - window for S/N]
  27.037                                 [S/N in S/N window]
  13.551                                 [S/N in norm. window]
 247.699                                 [S/N_err in S/N window]
 124.147                                 [S/N_err in norm. window]
  1.0000                                 [fscale_chi2]

## etc...
  2147483606                             [idum_orig]
  3069                                   [NOl_eff]
   674                                   [Nl_eff]
  2395    NSIGMA                         [Ntot_cliped & clip_method]
  1809920                                [Nglobal_steps]
   7                                     [N_chains]
  13                                     [NEX0s_base = N_base in EX0s-fits]
 0   0   1      104   2.0   2.944E+02    [Clip-Bug, RC-Crash & Burn-In warning-flags, n_censored_weights, wei_nsig_threshold & wei_limit]
    23     23.104     23.104      0.000  [idt_all, wdt_TotTime, wdt_UsrTime & wdt_SysTime (sec)]

## Synthesis Results - Best model ##

 2.73506E+00                             [chi2/Nl_eff]
     2.41697                             [adev (%)]

   104.27208                             [sum-of-x (%)]
 2.21329E-14                             [Flux_tot (units of input spectrum!)]
 1.41624E-09                             [Mini_tot (???)]
 7.26577E-10                             [Mcor_tot (???)]

  -5.19                                  [v0_min  (km/s)]
 108.21                                  [vd_min  (km/s)]
 1.3887                                  [AV_min  (mag)]
 0.0000                                  [YAV_min (mag)]

# j     x_j(%)      Mini_j(%)     Mcor_j(%)     age_j(yr)     Z_j      (L/M)_j    YAV?  Mstars   component_j        a/Fe...       SSP_chi2r SSP_adev(%)   SSP_AV   SSP_x(%)
  1      5.2549     7.0699E-03    1.3781E-02    1.000000E+06  0.00400  1.114E-02    0   1.0000   age020_m42            0.0000     4.0480E+03    52.5708   4.0000   100.8044
  2      0.0000     0.0000E+00    0.0000E+00    3.160000E+06  0.00400  4.073E-02    0   0.9999   age045_m42            0.0000     1.4184E+03    29.3935   4.0000   110.0083
  3      0.0000     0.0000E+00    0.0000E+00    5.010000E+06  0.00400  2.534E-02    0   0.9488   age055_m42            0.0000     2.3902E+03    40.4517   4.0000   107.1780
  4      1.9983     2.3564E-03    4.0704E-03    1.000000E+07  0.00400  1.271E-02    0   0.8862   age070_m42            0.0000     1.1321E+03    26.0127   4.0000   104.1003
  5      0.0000     0.0000E+00    0.0000E+00    2.512000E+07  0.00400  5.070E-03    0   0.8174   age090_m42            0.0000     9.0872E+02    23.4015   4.0000   104.1323
  6      0.0000     0.0000E+00    0.0000E+00    4.000000E+07  0.00400  3.505E-03    0   0.7851   age104_m42            0.0000     5.4420E+02    18.0790   4.0000   102.0084
  7      0.0000     0.0000E+00    0.0000E+00    1.015200E+08  0.00400  2.268E-03    0   0.7207   age116_m42            0.0000     7.6313E+02    18.2769   4.0000   108.1784
  8      0.0000     0.0000E+00    0.0000E+00    2.861200E+08  0.00400  1.079E-03    0   0.6613   age125_m42            0.0000     7.0169E+02    18.3174   3.7296   106.0928
  9      0.0000     0.0000E+00    0.0000E+00    6.405400E+08  0.00400  5.077E-04    0   0.6197   age132_m42            0.0000     7.0080E+02    18.7280   3.3806   110.0152
 10      0.0000     0.0000E+00    0.0000E+00    9.047900E+08  0.00400  3.535E-04    0   0.6024   age135_m42            0.0000     5.3909E+02    16.2735   3.1285   109.5102
 11      0.0000     0.0000E+00    0.0000E+00    1.434000E+09  0.00400  1.910E-04    0   0.5716   age139_m42            0.0000     2.9172E+02    11.7456   2.5300   108.5321
 12      2.6806     4.0921E-01    4.3575E-01    2.500000E+09  0.00400  9.818E-05    0   0.5463   age150_m42            0.0000     1.2932E+02     7.1867   2.1989   104.7856
 13      0.0000     0.0000E+00    0.0000E+00    5.000000E+09  0.00400  4.718E-05    0   0.5228   age161_m42            0.0000     7.0550E+01     5.2991   2.0199   101.7974
 14      3.4837     2.3679E+00    2.2985E+00    1.100000E+10  0.00400  2.205E-05    0   0.4980   age185_m42            0.0000     2.7914E+01     3.7141   1.6910   100.1191
 15      1.2544     9.9844E-01    9.5887E-01    1.300000E+10  0.00400  1.883E-05    0   0.4927   age193_m42            0.0000     2.5167E+01     3.6616   1.6704   100.0181
 16      2.1703     1.6354E-03    3.1877E-03    1.000000E+06  0.02000  1.989E-02    0   1.0000   age020_m62            0.0000     3.9347E+03    51.6667   4.0000   101.8156
 17      0.0000     0.0000E+00    0.0000E+00    3.160000E+06  0.02000  3.772E-02    0   0.9858   age045_m62            0.0000     3.5344E+03    49.4519   4.0000   104.0099
 18      0.0000     0.0000E+00    0.0000E+00    5.010000E+06  0.02000  3.227E-02    0   0.9342   age055_m62            0.0000     2.0163E+03    36.5381   4.0000   109.0466
 19      0.0000     0.0000E+00    0.0000E+00    1.000000E+07  0.02000  1.011E-02    0   0.8751   age070_m62            0.0000     1.4323E+03    31.1698   4.0000   102.4405
 20      0.0000     0.0000E+00    0.0000E+00    2.512000E+07  0.02000  4.206E-03    0   0.8099   age090_m62            0.0000     1.1192E+03    28.1023   4.0000   102.0013
 21      0.0000     0.0000E+00    0.0000E+00    4.000000E+07  0.02000  3.373E-03    0   0.7799   age104_m62            0.0000     7.6145E+02    19.9641   4.0000   106.6039
 22      0.0000     0.0000E+00    0.0000E+00    1.015200E+08  0.02000  1.878E-03    0   0.7221   age116_m62            0.0000     7.8650E+02    17.9190   4.0000   109.7526
 23      0.0000     0.0000E+00    0.0000E+00    2.861200E+08  0.02000  8.869E-04    0   0.6700   age125_m62            0.0000     9.2163E+02    21.1033   3.7346   110.6470
 24      0.0000     0.0000E+00    0.0000E+00    6.405400E+08  0.02000  3.657E-04    0   0.6322   age132_m62            0.0000     5.9853E+02    16.1342   2.9490   114.8348
 25      0.0000     0.0000E+00    0.0000E+00    9.047900E+08  0.02000  2.312E-04    0   0.6152   age135_m62            0.0000     3.7404E+02    12.5192   2.5557   113.9933
 26      0.2847     3.6534E-02    4.1766E-02    1.434000E+09  0.02000  1.168E-04    0   0.5865   age139_m62            0.0000     1.4665E+02     7.4701   2.1116   108.8229
 27      0.0000     0.0000E+00    0.0000E+00    2.500000E+09  0.02000  5.505E-05    0   0.5610   age150_m62            0.0000     4.7371E+01     4.8814   1.6791   106.5368
 28     23.3340     1.3472E+01    1.4056E+01    5.000000E+09  0.02000  2.596E-05    0   0.5353   age161_m62            0.0000     1.7011E+01     4.7340   1.2602   107.1043
 29     58.8140     7.5405E+01    7.5003E+01    1.100000E+10  0.02000  1.169E-05    0   0.5103   age185_m62            0.0000     4.5427E+01     7.3477   0.8158   108.9641
 30      4.1929     6.4846E+00    6.3793E+00    1.300000E+10  0.02000  9.691E-06    0   0.5047   age193_m62            0.0000     5.6741E+01     7.8888   0.7585   109.2553
 31      0.0000     0.0000E+00    0.0000E+00    1.000000E+06  0.05000  2.651E-02    0   0.9998   age020_m72            0.0000     3.8396E+03    51.2897   4.0000   103.0850
 32      0.4590     1.4282E-04    2.6662E-04    3.160000E+06  0.05000  4.817E-02    0   0.9577   age045_m72            0.0000     2.9725E+03    45.5061   4.0000   107.1493
 33      0.0000     0.0000E+00    0.0000E+00    5.010000E+06  0.05000  3.101E-02    0   0.9147   age055_m72            0.0000     2.2012E+03    39.0294   4.0000   108.0566
 34      0.0000     0.0000E+00    0.0000E+00    1.000000E+07  0.05000  8.954E-03    0   0.8524   age070_m72            0.0000     2.5813E+03    42.6784   4.0000   108.4101
 35      0.0000     0.0000E+00    0.0000E+00    2.512000E+07  0.05000  4.207E-03    0   0.7902   age090_m72            0.0000     1.5114E+03    31.8087   4.0000   110.6961
 36      0.0000     0.0000E+00    0.0000E+00    4.000000E+07  0.05000  3.198E-03    0   0.7618   age104_m72            0.0000     8.8009E+02    18.7818   4.0000   111.4788
 37      0.0000     0.0000E+00    0.0000E+00    1.015200E+08  0.05000  1.716E-03    0   0.7092   age116_m72            0.0000     8.7245E+02    18.6422   4.0000   111.2148
 38      0.0000     0.0000E+00    0.0000E+00    2.861200E+08  0.05000  7.047E-04    0   0.6618   age125_m72            0.0000     8.4017E+02    19.7442   3.4797   111.2982
 39      0.0000     0.0000E+00    0.0000E+00    6.405400E+08  0.05000  2.633E-04    0   0.6253   age132_m72            0.0000     4.3074E+02    13.5578   2.5410   114.1978
 40      0.0000     0.0000E+00    0.0000E+00    9.047900E+08  0.05000  1.484E-04    0   0.6088   age135_m72            0.0000     1.6477E+02     8.4943   1.9979   109.9428
 41      0.0000     0.0000E+00    0.0000E+00    1.434000E+09  0.05000  7.827E-05    0   0.5847   age139_m72            0.0000     4.7044E+01     5.5163   1.5224   107.4200
 42      0.0000     0.0000E+00    0.0000E+00    2.500000E+09  0.05000  3.759E-05    0   0.5583   age150_m72            0.0000     2.0595E+01     5.2006   1.1447   107.2088
 43      0.0000     0.0000E+00    0.0000E+00    5.000000E+09  0.05000  1.548E-05    0   0.5320   age161_m72            0.0000     6.0681E+01     7.5928   0.6879   106.7948
 44      0.2984     6.8471E-01    6.7666E-01    1.100000E+10  0.05000  6.532E-06    0   0.5070   age185_m72            0.0000     1.4924E+02    10.6452   0.1798   107.3348
 45      0.0466     1.3125E-01    1.2837E-01    1.300000E+10  0.05000  5.316E-06    0   0.5018   age193_m72            0.0000     1.9262E+02    11.8525   0.0087   107.8266


## Synthesis Results - Average & Chains ##

# j      x_j: min, <> & last-chain-values for 1 ...  7 chains
  1      5.2549      5.2365      5.1833      5.1531      5.6778      5.1348      5.3975      5.1765      5.2220
  2      0.0000      0.0659      0.0000      0.1100      0.1080      0.2119      0.0101      0.0000      0.3566
  3      0.0000      0.0536      0.3159      0.0000      0.0000      0.0632      0.0166      0.0000      0.0000
  4      1.9983      0.4333      0.6097      0.6971      0.3601      0.4666      0.5083      0.5902      0.6289
  5      0.0000      0.0511      0.0000      0.0952      0.2042      0.1519      0.0000      0.1945      0.0000
  6      0.0000      0.0530      0.0000      0.0000      0.0000      0.3827      0.0000      0.0000      0.0934
  7      0.0000      0.0584      0.0008      0.0852      0.0000      0.0000      0.0000      0.0000      0.0000
  8      0.0000      0.0301      0.0000      0.1827      0.0000      0.0000      0.0000      0.0000      0.0000
  9      0.0000      0.0514      0.0000      0.0000      0.0000      0.0100      0.0866      0.0000      0.0000
 10      0.0000      0.1039      0.6201      0.0000      0.0000      0.4175      0.0810      0.0000      0.0355
 11      0.0000      0.1331      0.0739      0.2789      0.5584      0.0000      0.0583      0.0000      0.1888
 12      2.6806      0.2007      0.5630      0.3894      0.0000      0.4565      0.3820      0.0000      0.3465
 13      0.0000      0.3006      0.0000      0.1531      0.8953      0.4408      0.0000      0.5624      1.3103
 14      3.4837      3.7769      3.6819      3.9148      5.1507      4.4586      3.9693      3.9353      3.4253
 15      1.2544      0.5822      0.7313      0.3616      0.5799      0.2456      0.7293      0.0000      0.2556
 16      2.1703      2.2348      2.1370      2.3375      2.1725      2.2620      2.2129      2.3753      2.2442
 17      0.0000      0.0367      0.0000      0.0000      0.0095      0.0000      0.0000      0.0000      0.0000
 18      0.0000      0.0759      0.2515      0.3480      0.0000      0.0000      0.0000      0.1326      0.0000
 19      0.0000      0.0546      0.0000      0.0000      0.0000      0.1082      0.1748      0.0000      0.0000
 20      0.0000      0.0191      0.0000      0.0000      0.0000      0.0095      0.0000      0.0000      0.0000
 21      0.0000      0.0422      0.0000      0.0000      0.0000      0.0000      0.0000      0.0000      0.0000
 22      0.0000      0.0384      0.2579      0.0000      0.1294      0.0000      0.0000      0.0000      0.1437
 23      0.0000      0.0320      0.0000      0.0057      0.0000      0.0000      0.0000      0.0000      0.0000
 24      0.0000      0.0526      0.0000      0.0597      0.2441      0.0000      0.0000      0.1558      0.0000
 25      0.0000      0.0844      0.1997      0.0000      0.4050      0.0000      0.0000      0.4811      0.0530
 26      0.2847      0.1155      0.0000      0.6554      0.0000      0.0000      0.0000      0.4265      0.0000
 27      0.0000      0.1961      0.0000      0.0000      0.0382      0.0000      0.0000      0.0000      0.0675
 28     23.3340     29.1641     27.6178     27.1020     24.9088     28.9814     27.9694     26.9205     28.2920
 29     58.8140     56.4628     57.3644     57.8316     58.2104     55.6888     56.9925     58.3240     56.5425
 30      4.1929      1.6764      2.6047      1.7470      1.6951      2.9884      2.3900      2.1741      3.3077
 31      0.0000      0.1623      0.3654      0.2497      0.0000      0.1716      0.1018      0.1156      0.1233
 32      0.4590      0.7021      0.6197      0.6656      0.7882      0.6524      0.8982      0.5368      0.8245
 33      0.0000      0.0807      0.0000      0.0000      0.0000      0.0000      0.0594      0.1391      0.0238
 34      0.0000      0.0315      0.0000      0.0132      0.0000      0.0000      0.0839      0.1505      0.0000
 35      0.0000      0.0407      0.0000      0.0000      0.0000      0.0000      0.0000      0.2013      0.0000
 36      0.0000      0.0341      0.0000      0.0000      0.0000      0.0000      0.0000      0.2086      0.0000
 37      0.0000      0.0292      0.0280      0.0000      0.0000      0.0000      0.0398      0.0000      0.0000
 38      0.0000      0.0336      0.0000      0.0000      0.0000      0.0000      0.1150      0.0000      0.0787
 39      0.0000      0.0573      0.0000      0.0000      0.0000      0.0000      0.5604      0.1284      0.0000
 40      0.0000      0.1003      0.1900      0.3080      0.2880      0.0000      0.3935      0.0889      0.0000
 41      0.0000      0.1554      0.0000      0.0000      0.0000      0.0000      0.0000      0.0000      0.0000
 42      0.0000      0.1544      0.0000      0.0000      0.0000      0.1455      0.0000      0.0000      0.0000
 43      0.0000      0.3026      0.0000      0.1768      0.5095      0.0464      0.2866      0.2778      0.0000
 44      0.2984      0.7910      0.5870      0.9593      1.3262      0.4286      0.7643      1.0942      0.7172
 45      0.0466      0.2722      0.3821      0.4291      0.0000      0.3807      0.0534      0.0000      0.0905

# j      m_j: min, <> & last-chain-values for 1 ...  7 chains
  1  1.3781E-02  1.3972E-02  1.3686E-02  1.3591E-02  1.4945E-02  1.3665E-02  1.4342E-02  1.3631E-02  1.3824E-02
  2  0.0000E+00  4.8118E-05  0.0000E+00  7.9366E-05  7.7730E-05  1.5422E-04  7.3690E-06  0.0000E+00  2.5819E-04
  3  0.0000E+00  5.9636E-05  3.4796E-04  0.0000E+00  0.0000E+00  7.0141E-05  1.8352E-05  0.0000E+00  0.0000E+00
  4  4.0704E-03  8.9808E-04  1.2504E-03  1.4281E-03  7.3617E-04  9.6439E-04  1.0490E-03  1.2071E-03  1.2932E-03
  5  0.0000E+00  2.4487E-04  0.0000E+00  4.5082E-04  9.6521E-04  7.2579E-04  0.0000E+00  9.2006E-04  0.0000E+00
  6  0.0000E+00  3.5302E-04  0.0000E+00  0.0000E+00  0.0000E+00  2.5412E-03  0.0000E+00  0.0000E+00  6.1725E-04
  7  0.0000E+00  5.5146E-04  7.4342E-06  7.9585E-04  0.0000E+00  0.0000E+00  0.0000E+00  0.0000E+00  0.0000E+00
  8  0.0000E+00  5.4836E-04  0.0000E+00  3.2895E-03  0.0000E+00  0.0000E+00  0.0000E+00  0.0000E+00  0.0000E+00
  9  0.0000E+00  1.8635E-03  0.0000E+00  0.0000E+00  0.0000E+00  3.6205E-04  3.1276E-03  0.0000E+00  0.0000E+00
 10  0.0000E+00  5.2608E-03  3.1080E-02  0.0000E+00  0.0000E+00  2.1091E-02  4.0839E-03  0.0000E+00  1.7850E-03
 11  0.0000E+00  1.1838E-02  6.5079E-03  2.4519E-02  4.8999E-02  0.0000E+00  5.1664E-03  0.0000E+00  1.6667E-02
 12  4.3575E-01  3.3193E-02  9.2146E-02  6.3670E-02  0.0000E+00  7.5309E-02  6.2919E-02  0.0000E+00  5.6855E-02
 13  0.0000E+00  9.9005E-02  0.0000E+00  4.9837E-02  2.9091E-01  1.4481E-01  0.0000E+00  1.8281E-01  4.2818E-01
 14  2.2985E+00  2.5355E+00  2.4460E+00  2.5979E+00  3.4111E+00  2.9853E+00  2.6536E+00  2.6071E+00  2.2814E+00
 15  9.5887E-01  4.5278E-01  5.6285E-01  2.7802E-01  4.4493E-01  1.9054E-01  5.6486E-01  0.0000E+00  1.9722E-01
 16  3.1877E-03  3.3397E-03  3.1604E-03  3.4530E-03  3.2028E-03  3.3715E-03  3.2933E-03  3.5030E-03  3.3275E-03
 17  0.0000E+00  2.8505E-05  0.0000E+00  0.0000E+00  7.2517E-06  0.0000E+00  0.0000E+00  0.0000E+00  0.0000E+00
 18  0.0000E+00  6.5331E-05  2.1417E-04  2.9598E-04  0.0000E+00  0.0000E+00  0.0000E+00  1.1264E-04  0.0000E+00
 19  0.0000E+00  1.4043E-04  0.0000E+00  0.0000E+00  0.0000E+00  2.7769E-04  4.4794E-04  0.0000E+00  0.0000E+00
 20  0.0000E+00  1.0917E-04  0.0000E+00  0.0000E+00  0.0000E+00  5.4381E-05  0.0000E+00  0.0000E+00  0.0000E+00
 21  0.0000E+00  2.9026E-04  0.0000E+00  0.0000E+00  0.0000E+00  0.0000E+00  0.0000E+00  0.0000E+00  0.0000E+00
 22  0.0000E+00  4.3910E-04  2.9169E-03  0.0000E+00  1.4591E-03  0.0000E+00  0.0000E+00  0.0000E+00  1.6300E-03
 23  0.0000E+00  7.1815E-04  0.0000E+00  1.2632E-04  0.0000E+00  0.0000E+00  0.0000E+00  0.0000E+00  0.0000E+00
 24  0.0000E+00  2.7047E-03  0.0000E+00  3.0302E-03  1.2373E-02  0.0000E+00  0.0000E+00  7.9003E-03  0.0000E+00
 25  0.0000E+00  6.6749E-03  1.5632E-02  0.0000E+00  3.1603E-02  0.0000E+00  0.0000E+00  3.7553E-02  4.1613E-03
 26  4.1766E-02  1.7233E-02  0.0000E+00  9.6700E-02  0.0000E+00  0.0000E+00  0.0000E+00  6.2816E-02  0.0000E+00
 27  0.0000E+00  5.9413E-02  0.0000E+00  0.0000E+00  1.1410E-02  0.0000E+00  0.0000E+00  0.0000E+00  2.0273E-02
 28  1.4056E+01  1.7875E+01  1.6751E+01  1.6420E+01  1.5061E+01  1.7716E+01  1.7072E+01  1.6283E+01  1.7205E+01
 29  7.5003E+01  7.3263E+01  7.3658E+01  7.4175E+01  7.4511E+01  7.2067E+01  7.3642E+01  7.4683E+01  7.2791E+01
 30  6.3793E+00  2.5952E+00  3.9901E+00  2.6733E+00  2.5887E+00  4.6138E+00  3.6844E+00  3.3213E+00  5.0802E+00
 31  0.0000E+00  1.8194E-04  4.0536E-04  2.7669E-04  0.0000E+00  1.9181E-04  1.1364E-04  1.2793E-04  1.3718E-04
 32  2.6662E-04  4.1494E-04  3.6243E-04  3.8879E-04  4.5952E-04  3.8451E-04  5.2861E-04  3.1308E-04  4.8345E-04
 33  0.0000E+00  7.0788E-05  0.0000E+00  0.0000E+00  1.9207E-08  0.0000E+00  5.1888E-05  1.2034E-04  2.0688E-05
