###################################################################
## OUTPUT of StarlightChains_v04.for    [Cid@UFSC - 01/Apr/2007] ##
###################################################################

## Some input info
NGC6121_a_1.cxt                          [arq_obs]
Base.BC03.N                              [arq_base]
NGC6121_a_1.msk                          [arq_masks]
StCv04.C99.config                        [arq_config]
   45                                    [N_base]
    0                                    [N_YAV_components = # of components with extra extinction!]
    0                                    [i_FitPowerLaw (1/0 = Yes/No)]
-9.99                                    [alpha_PowerLaw]
CCM                                      [red_law_option]
 1.458241                                [q_norm = A(l_norm)/A(V)]

## (Re)Sampling Parameters
 3359.00                                 [l_ini (A)]
 6428.00                                 [l_fin (A)]
    1.00                                 [dl    (A)]     (OBS: dl_cushion =    50.00 A)

## Normalization info
 4020.00                                 [l_norm (A) - for base]
 4010.00                                 [llow_norm (A) - window for f_obs]
 4060.00                                 [lupp_norm (A) - window for f_obs]
2.192402E-14                             [fobs_norm (in input units)]

## S/N
 4730.00                                 [llow_SN (A) - window for S/N]
 4780.00                                 [lupp_SN (A) - window for S/N]
  81.858                                 [S/N in S/N window]
  65.062                                 [S/N in norm. window]
 104.198                                 [S/N_err in S/N window]
  82.818                                 [S/N_err in norm. window]
  1.0000                                 [fscale_chi2]

## etc...
  2147483628                             [idum_orig]
  3070                                   [NOl_eff]
  2148                                   [Nl_eff]
   922    NSIGMA                         [Ntot_cliped & clip_method]
  1644300                                [Nglobal_steps]
   7                                     [N_chains]
  10                                     [NEX0s_base = N_base in EX0s-fits]
 0   0   1      112   2.0   2.032E+02    [Clip-Bug, RC-Crash & Burn-In warning-flags, n_censored_weights, wei_nsig_threshold & wei_limit]
    23     23.331     23.319      0.012  [idt_all, wdt_TotTime, wdt_UsrTime & wdt_SysTime (sec)]

## Synthesis Results - Best model ##

 1.95004E+00                             [chi2/Nl_eff]
     1.24590                             [adev (%)]

    99.90814                             [sum-of-x (%)]
 1.27692E-13                             [Flux_tot (units of input spectrum!)]
 1.06253E-09                             [Mini_tot (???)]
 5.69908E-10                             [Mcor_tot (???)]

 -22.16                                  [v0_min  (km/s)]
  67.11                                  [vd_min  (km/s)]
 1.3126                                  [AV_min  (mag)]
 0.0000                                  [YAV_min (mag)]

# j     x_j(%)      Mini_j(%)     Mcor_j(%)     age_j(yr)     Z_j      (L/M)_j    YAV?  Mstars   component_j        a/Fe...       SSP_chi2r SSP_adev(%)   SSP_AV   SSP_x(%)
  1      0.0000     0.0000E+00    0.0000E+00    1.000000E+06  0.00400  1.114E-02    0   1.0000   age020_m42            0.0000     1.3941E+02     9.2815   4.0000    85.2740
  2      8.4816     2.5049E-02    4.6696E-02    3.160000E+06  0.00400  4.073E-02    0   0.9999   age045_m42            0.0000     2.4728E+01     4.3250   3.3171    92.4513
  3      0.1056     5.0149E-04    8.8709E-04    5.010000E+06  0.00400  2.534E-02    0   0.9488   age055_m42            0.0000     5.8193E+01     6.5003   3.6861    87.1239
  4     13.1275     1.2424E-01    2.0527E-01    1.000000E+07  0.00400  1.271E-02    0   0.8862   age070_m42            0.0000     4.9715E+01     6.2719   2.9032    91.2264
  5      0.0009     2.2278E-05    3.3951E-05    2.512000E+07  0.00400  5.070E-03    0   0.8174   age090_m42            0.0000     4.2921E+01     5.8297   2.7863    92.3922
  6      0.0000     0.0000E+00    0.0000E+00    4.000000E+07  0.00400  3.505E-03    0   0.7851   age104_m42            0.0000     2.3654E+01     4.3033   2.4967    94.5817
  7      0.0054     2.8551E-04    3.8363E-04    1.015200E+08  0.00400  2.268E-03    0   0.7207   age116_m42            0.0000     4.9142E+01     4.4277   2.5963   100.6287
  8      0.0000     0.0000E+00    0.0000E+00    2.861200E+08  0.00400  1.079E-03    0   0.6613   age125_m42            0.0000     5.3536E+01     4.8015   2.1272   101.7061
  9      4.6027     1.0905E+00    1.2599E+00    6.405400E+08  0.00400  5.077E-04    0   0.6197   age132_m42            0.0000     5.7367E+01     5.1653   1.7731   105.3794
 10     35.2078     1.1980E+01    1.3455E+01    9.047900E+08  0.00400  3.535E-04    0   0.6024   age135_m42            0.0000     3.3915E+01     4.2428   1.5261   104.8572
 11      0.0000     0.0000E+00    0.0000E+00    1.434000E+09  0.00400  1.910E-04    0   0.5716   age139_m42            0.0000     1.8189E+01     3.6275   1.0030   103.4269
 12      8.3494     1.0230E+01    1.0419E+01    2.500000E+09  0.00400  9.818E-05    0   0.5463   age150_m42            0.0000     1.6297E+01     3.3022   0.7122    99.2971
 13     30.0244     7.6549E+01    7.4613E+01    5.000000E+09  0.00400  4.718E-05    0   0.5228   age161_m42            0.0000     2.4680E+01     3.7276   0.5324    96.4079
 14      0.0000     0.0000E+00    0.0000E+00    1.100000E+10  0.00400  2.205E-05    0   0.4980   age185_m42            0.0000     5.1195E+01     5.1551   0.2810    93.9630
 15      0.0000     0.0000E+00    0.0000E+00    1.300000E+10  0.00400  1.883E-05    0   0.4927   age193_m42            0.0000     5.5159E+01     5.3382   0.2646    93.7724
 16      0.0000     0.0000E+00    0.0000E+00    1.000000E+06  0.02000  1.989E-02    0   1.0000   age020_m62            0.0000     1.3561E+02     9.0172   4.0000    85.0777
 17      0.0000     0.0000E+00    0.0000E+00    3.160000E+06  0.02000  3.772E-02    0   0.9858   age045_m62            0.0000     1.0671E+02     8.3683   4.0000    83.9326
 18      0.0000     0.0000E+00    0.0000E+00    5.010000E+06  0.02000  3.227E-02    0   0.9342   age055_m62            0.0000     4.0401E+01     5.5271   3.5610    89.6763
 19      0.0027     3.2100E-05    5.2373E-05    1.000000E+07  0.02000  1.011E-02    0   0.8751   age070_m62            0.0000     1.3303E+02    10.1731   2.8987    88.2932
 20      0.0000     0.0000E+00    0.0000E+00    2.512000E+07  0.02000  4.206E-03    0   0.8099   age090_m62            0.0000     9.0974E+01     8.2923   2.8507    88.6430
 21      0.0000     0.0000E+00    0.0000E+00    4.000000E+07  0.02000  3.373E-03    0   0.7799   age104_m62            0.0000     2.3121E+01     4.0657   2.7237    95.6392
 22      0.0000     0.0000E+00    0.0000E+00    1.015200E+08  0.02000  1.878E-03    0   0.7221   age116_m62            0.0000     3.9599E+01     4.0272   2.6119   101.3795
 23      0.0000     0.0000E+00    0.0000E+00    2.861200E+08  0.02000  8.869E-04    0   0.6700   age125_m62            0.0000     9.4716E+01     6.2399   2.1633   105.7790
 24      0.0000     0.0000E+00    0.0000E+00    6.405400E+08  0.02000  3.657E-04    0   0.6322   age132_m62            0.0000     6.8774E+01     6.1447   1.5078   107.9987
 25      0.0000     0.0000E+00    0.0000E+00    9.047900E+08  0.02000  2.312E-04    0   0.6152   age135_m62            0.0000     4.3383E+01     5.3293   1.1236   107.3769
 26      0.0000     0.0000E+00    0.0000E+00    1.434000E+09  0.02000  1.168E-04    0   0.5865   age139_m62            0.0000     2.7049E+01     4.3319   0.6809   102.4780
 27      0.0000     0.0000E+00    0.0000E+00    2.500000E+09  0.02000  5.505E-05    0   0.5610   age150_m62            0.0000     4.7566E+01     5.2913   0.3094    99.5886
 28      0.0000     0.0000E+00    0.0000E+00    5.000000E+09  0.02000  2.596E-05    0   0.5353   age161_m62            0.0000     9.2698E+01     7.0607  -0.0026    98.8673
 29      0.0000     0.0000E+00    0.0000E+00    1.100000E+10  0.02000  1.169E-05    0   0.5103   age185_m62            0.0000     1.4744E+02     8.7707  -0.3430    99.3503
 30      0.0000     0.0000E+00    0.0000E+00    1.300000E+10  0.02000  9.691E-06    0   0.5047   age193_m62            0.0000     1.5797E+02     9.0462  -0.3846    99.4015
 31      0.0000     0.0000E+00    0.0000E+00    1.000000E+06  0.05000  2.651E-02    0   0.9998   age020_m72            0.0000     1.3031E+02     8.8525   4.0000    86.0188
 32      0.0000     0.0000E+00    0.0000E+00    3.160000E+06  0.05000  4.817E-02    0   0.9577   age045_m72            0.0000     7.7387E+01     7.3462   3.9164    85.6982
 33      0.0000     0.0000E+00    0.0000E+00    5.010000E+06  0.05000  3.101E-02    0   0.9147   age055_m72            0.0000     6.8667E+01     6.9427   3.5587    88.3774
 34      0.0000     0.0000E+00    0.0000E+00    1.000000E+07  0.05000  8.954E-03    0   0.8524   age070_m72            0.0000     7.5676E+01     7.1605   3.8086    86.4549
 35      0.0000     0.0000E+00    0.0000E+00    2.512000E+07  0.05000  4.207E-03    0   0.7902   age090_m72            0.0000     3.4946E+01     5.0174   3.4080    91.2430
 36      0.0000     0.0000E+00    0.0000E+00    4.000000E+07  0.05000  3.198E-03    0   0.7618   age104_m72            0.0000     2.3647E+01     3.3454   2.9622    97.6774
 37      0.0000     0.0000E+00    0.0000E+00    1.015200E+08  0.05000  1.716E-03    0   0.7092   age116_m72            0.0000     4.9969E+01     4.4950   2.7082   101.1639
 38      0.0000     0.0000E+00    0.0000E+00    2.861200E+08  0.05000  7.047E-04    0   0.6618   age125_m72            0.0000     9.3487E+01     6.4671   1.9705   105.7514
 39      0.0000     0.0000E+00    0.0000E+00    6.405400E+08  0.05000  2.633E-04    0   0.6253   age132_m72            0.0000     5.7586E+01     5.9144   1.1346   107.2614
 40      0.0000     0.0000E+00    0.0000E+00    9.047900E+08  0.05000  1.484E-04    0   0.6088   age135_m72            0.0000     4.2289E+01     5.4610   0.6380   102.6819
 41      0.0000     0.0000E+00    0.0000E+00    1.434000E+09  0.05000  7.827E-05    0   0.5847   age139_m72            0.0000     6.6308E+01     6.3223   0.2462    99.2586
 42      0.0000     0.0000E+00    0.0000E+00    2.500000E+09  0.05000  3.759E-05    0   0.5583   age150_m72            0.0000     1.0182E+02     7.4313  -0.0735    98.3204
 43      0.0000     0.0000E+00    0.0000E+00    5.000000E+09  0.05000  1.548E-05    0   0.5320   age161_m72            0.0000     1.5501E+02     8.9220  -0.4721    97.4184
 44      0.0000     0.0000E+00    0.0000E+00    1.100000E+10  0.05000  6.532E-06    0   0.5070   age185_m72            0.0000     2.2342E+02    10.8066  -0.8127    96.0455
 45      0.0000     0.0000E+00    0.0000E+00    1.300000E+10  0.05000  5.316E-06    0   0.5018   age193_m72            0.0000     2.5174E+02    11.5251  -0.9146    95.6252


## Synthesis Results - Average & Chains ##

# j      x_j: min, <> & last-chain-values for 1 ...  7 chains
  1      0.0000      0.0564      0.0531      0.0658      0.1154      0.0000      0.0000      0.0000      0.1935
  2      8.4816      4.7546      5.5745      5.3022      4.8459      4.8106      4.9803      5.2874      5.7465
  3      0.1056      0.5840      0.5708      0.7282      0.5885      0.5861      0.7434      0.6400      0.5760
  4     13.1275     12.0662     12.1358     12.3583     12.2180     12.1359     12.3742     12.0882     11.8522
  5      0.0009      0.6263      0.6131      0.5566      0.8006      0.9224      0.6790      0.6019      0.6476
  6      0.0000      0.0644      0.0000      0.0000      0.0000      0.0000      0.0000      0.0000      0.0000
  7      0.0054      2.0923      1.5963      1.9603      1.8949      2.0186      1.4680      1.8676      2.1411
  8      0.0000      0.0819      0.1903      0.0000      0.1177      0.0097      0.0000      0.2003      0.3377
  9      4.6027      3.7408      3.9476      4.0569      3.7642      3.7609      3.7498      3.7952      4.0424
 10     35.2078     34.0870     34.1749     34.1853     34.8311     34.5278     35.1290     34.2697     33.8295
 11      0.0000      0.1184      0.0000      0.0528      0.0000      0.0000      0.0411      0.1117      0.0000
 12      8.3494      9.8655     10.0063      9.5095      9.5630      9.6161      9.0533      9.7700      9.7990
 13     30.0244     29.1545     29.0501     29.3776     29.0368     28.9721     29.4007     29.0258     28.7820
 14      0.0000      0.0193      0.0000      0.0176      0.0000      0.0000      0.0000      0.0000      0.2007
 15      0.0000      0.0218      0.0000      0.0000      0.0387      0.0000      0.0000      0.0000      0.0000
 16      0.0000      0.0445      0.0000      0.0642      0.0000      0.0000      0.0000      0.0000      0.0128
 17      0.0000      0.0715      0.0044      0.0000      0.0267      0.0000      0.0503      0.0403      0.0000
 18      0.0000      0.4763      0.7389      0.2666      0.4930      0.6150      0.6028      0.6691      0.3284
 19      0.0027      0.6629      0.4093      0.4927      0.5841      0.5542      0.7116      0.6024      0.6497
 20      0.0000      0.0391      0.0094      0.0159      0.0000      0.0000      0.0000      0.0282      0.0000
 21      0.0000      0.0414      0.0000      0.0000      0.0393      0.2399      0.0000      0.1246      0.0000
 22      0.0000      0.0535      0.0000      0.0000      0.0000      0.0939      0.0000      0.0426      0.0000
 23      0.0000      0.0347      0.0000      0.0000      0.0000      0.0000      0.0000      0.0000      0.0118
 24      0.0000      0.0149      0.0000      0.0000      0.0000      0.0000      0.0000      0.0000      0.0000
 25      0.0000      0.0126      0.0000      0.0000      0.0000      0.0000      0.0000      0.0000      0.0259
 26      0.0000      0.0175      0.0000      0.0000      0.0000      0.0000      0.0000      0.0000      0.0102
 27      0.0000      0.0173      0.0000      0.0000      0.0000      0.0000      0.0745      0.0000      0.0000
 28      0.0000      0.0139      0.0000      0.0160      0.0000      0.0000      0.0000      0.0000      0.0387
 29      0.0000      0.0235      0.0000      0.0000      0.0000      0.0216      0.0000      0.0000      0.0000
 30      0.0000      0.1224      0.0944      0.0000      0.0000      0.1692      0.0004      0.1585      0.0151
 31      0.0000      0.0233      0.0000      0.0000      0.0316      0.0000      0.0000      0.0000      0.0000
 32      0.0000      0.0428      0.0000      0.0000      0.2112      0.0000      0.0000      0.0000      0.0256
 33      0.0000      0.0436      0.0000      0.1107      0.0000      0.1711      0.0000      0.0500      0.0158
 34      0.0000      0.0210      0.0003      0.0000      0.0000      0.0134      0.0000      0.0000      0.0000
 35      0.0000      0.0161      0.0000      0.0005      0.0000      0.0000      0.0000      0.0000      0.0000
 36      0.0000      0.0239      0.0000      0.0000      0.0000      0.0000      0.0000      0.0000      0.0000
 37      0.0000      0.0367      0.0295      0.0000      0.0414      0.0000      0.1160      0.0000      0.0005
 38      0.0000      0.0185      0.0000      0.0000      0.0000      0.0000      0.0000      0.0000      0.0000
 39      0.0000      0.0116      0.0000      0.0000      0.0315      0.0000      0.0000      0.0000      0.0000
 40      0.0000      0.0172      0.0000      0.0000      0.0000      0.0000      0.0000      0.0000      0.0000
 41      0.0000      0.0125      0.0000      0.0290      0.0000      0.0000      0.0000      0.0000      0.0000
 42      0.0000      0.0113      0.0000      0.0000      0.0036      0.0000      0.0000      0.0000      0.0000
 43      0.0000      0.2292      0.2466      0.3339      0.2315      0.2662      0.2715      0.1436      0.2813
 44      0.0000      0.2020      0.2585      0.1592      0.1437      0.1354      0.2180      0.1862      0.1422
 45      0.0000      0.3189      0.2852      0.3199      0.2993      0.4032      0.3027      0.2984      0.2756

# j      m_j: min, <> & last-chain-values for 1 ...  7 chains
  1  0.0000E+00  1.0002E-03  9.4788E-04  1.1842E-03  2.1168E-03  0.0000E+00  0.0000E+00  0.0000E+00  3.5376E-03
  2  4.6696E-02  2.3068E-02  2.7217E-02  2.6107E-02  2.4312E-02  2.3276E-02  2.4549E-02  2.6111E-02  2.8728E-02
  3  8.8709E-04  4.3211E-03  4.2503E-03  5.4688E-03  4.5028E-03  4.3249E-03  5.5890E-03  4.8209E-03  4.3920E-03
  4  2.0527E-01  1.6627E-01  1.6828E-01  1.7283E-01  1.7410E-01  1.6677E-01  1.7323E-01  1.6955E-01  1.6828E-01
  5  3.3951E-05  1.9955E-02  1.9659E-02  1.8000E-02  2.6378E-02  2.9309E-02  2.1979E-02  1.9521E-02  2.1263E-02
  6  0.0000E+00  2.8495E-03  0.0000E+00  0.0000E+00  0.0000E+00  0.0000E+00  0.0000E+00  0.0000E+00  0.0000E+00
  7  3.8363E-04  1.3140E-01  1.0088E-01  1.2494E-01  1.2306E-01  1.2642E-01  9.3665E-02  1.1938E-01  1.3855E-01
  8  0.0000E+00  9.9223E-03  2.3196E-02  0.0000E+00  1.4743E-02  1.1665E-03  0.0000E+00  2.4700E-02  4.2152E-02
  9  1.2599E+00  9.0239E-01  9.5829E-01  9.9320E-01  9.3897E-01  9.0474E-01  9.1900E-01  9.3187E-01  1.0048E+00
 10  1.3455E+01  1.1480E+01  1.1582E+01  1.1684E+01  1.2130E+01  1.1596E+01  1.2020E+01  1.1748E+01  1.1739E+01
 11  0.0000E+00  7.0022E-02  0.0000E+00  3.1694E-02  0.0000E+00  0.0000E+00  2.4715E-02  6.7221E-02  0.0000E+00
 12  1.0419E+01  1.0849E+01  1.1073E+01  1.0613E+01  1.0874E+01  1.0545E+01  1.0115E+01  1.0936E+01  1.1103E+01
 13  7.4613E+01  6.3846E+01  6.4019E+01  6.5292E+01  6.5755E+01  6.3273E+01  6.5413E+01  6.4700E+01  6.4947E+01
 14  0.0000E+00  8.6150E-02  0.0000E+00  7.9517E-02  0.0000E+00  0.0000E+00  0.0000E+00  0.0000E+00  9.2311E-01
 15  0.0000E+00  1.1295E-01  0.0000E+00  0.0000E+00  2.0681E-01  0.0000E+00  0.0000E+00  0.0000E+00  0.0000E+00
 16  0.0000E+00  4.4251E-04  0.0000E+00  6.4708E-04  0.0000E+00  0.0000E+00  0.0000E+00  0.0000E+00  1.3150E-04
 17  0.0000E+00  3.6921E-04  2.2876E-05  0.0000E+00  1.4269E-04  0.0000E+00  2.6393E-04  2.1192E-04  0.0000E+00
 18  0.0000E+00  2.7248E-03  4.2540E-03  1.5481E-03  2.9165E-03  3.5091E-03  3.5037E-03  3.8963E-03  1.9359E-03
 19  5.2373E-05  1.1340E-02  7.0466E-03  8.5537E-03  1.0332E-02  9.4542E-03  1.2367E-02  1.0489E-02  1.1453E-02
 20  0.0000E+00  1.4885E-03  3.5995E-04  6.1293E-04  0.0000E+00  0.0000E+00  0.0000E+00  1.0910E-03  0.0000E+00
 21  0.0000E+00  1.8928E-03  0.0000E+00  0.0000E+00  1.8565E-03  1.0933E-02  0.0000E+00  5.7957E-03  0.0000E+00
 22  0.0000E+00  4.0645E-03  0.0000E+00  0.0000E+00  0.0000E+00  7.1190E-03  0.0000E+00  3.2946E-03  0.0000E+00
 23  0.0000E+00  5.1752E-03  0.0000E+00  0.0000E+00  0.0000E+00  0.0000E+00  0.0000E+00  0.0000E+00  1.8189E-03
 24  0.0000E+00  5.0740E-03  0.0000E+00  0.0000E+00  0.0000E+00  0.0000E+00  0.0000E+00  0.0000E+00  0.0000E+00
 25  0.0000E+00  6.6418E-03  0.0000E+00  0.0000E+00  0.0000E+00  0.0000E+00  0.0000E+00  0.0000E+00  1.4046E-02
 26  0.0000E+00  1.7401E-02  0.0000E+00  0.0000E+00  0.0000E+00  0.0000E+00  0.0000E+00  0.0000E+00  1.0446E-02
 27  0.0000E+00  3.4770E-02  0.0000E+00  0.0000E+00  0.0000E+00  0.0000E+00  1.5236E-01  0.0000E+00  0.0000E+00
 28  0.0000E+00  5.6563E-02  0.0000E+00  6.6177E-02  0.0000E+00  0.0000E+00  0.0000E+00  0.0000E+00  1.6254E-01
 29  0.0000E+00  2.0250E-01  0.0000E+00  0.0000E+00  0.0000E+00  1.8591E-01  0.0000E+00  0.0000E+00  0.0000E+00
 30  0.0000E+00  1.2599E+00  9.7814E-01  0.0000E+00  0.0000E+00  1.7371E+00  4.1066E-03  1.6602E+00  1.5990E-01
 31  0.0000E+00  1.7344E-04  0.0000E+00  0.0000E+00  2.4392E-04  0.0000E+00  0.0000E+00  0.0000E+00  0.0000E+00
 32  0.0000E+00  1.6815E-04  0.0000E+00  0.0000E+00  8.5795E-04  0.0000E+00  0.0000E+00  0.0000E+00  1.0359E-04
 33  0.0000E+00  2.5439E-04  0.0000E+00  6.5513E-04  0.0000E+00  9.9467E-04  0.0000E+00  2.9655E-04  9.4731E-05
