###################################################################
## OUTPUT of StarlightChains_v04.for    [Cid@UFSC - 01/Apr/2007] ##
###################################################################

## Some input info
NGC7089_a_1.cxt                          [arq_obs]
Base.BC03.N                              [arq_base]
NGC7089_a_1.msk                          [arq_masks]
StCv04.C99.config                        [arq_config]
   45                                    [N_base]
    0                                    [N_YAV_components = # of components with extra extinction!]
    0                                    [i_FitPowerLaw (1/0 = Yes/No)]
-9.99                                    [alpha_PowerLaw]
CCM                                      [red_law_option]
 1.458241                                [q_norm = A(l_norm)/A(V)]

## (Re)Sampling Parameters
 3359.00                                 [l_ini (A)]
 6428.00                                 [l_fin (A)]
    1.00                                 [dl    (A)]     (OBS: dl_cushion =    50.00 A)

## Normalization info
 4020.00                                 [l_norm (A) - for base]
 4010.00                                 [llow_norm (A) - window for f_obs]
 4060.00                                 [lupp_norm (A) - window for f_obs]
7.608305E-14                             [fobs_norm (in input units)]

## S/N
 4730.00                                 [llow_SN (A) - window for S/N]
 4780.00                                 [lupp_SN (A) - window for S/N]
 117.458                                 [S/N in S/N window]
 112.425                                 [S/N in norm. window]
 300.443                                 [S/N_err in S/N window]
 287.568                                 [S/N_err in norm. window]
  1.0000                                 [fscale_chi2]

## etc...
  2147483586                             [idum_orig]
  3067                                   [NOl_eff]
   630                                   [Nl_eff]
  2437    NSIGMA                         [Ntot_cliped & clip_method]
  1134560                                [Nglobal_steps]
   7                                     [N_chains]
   5                                     [NEX0s_base = N_base in EX0s-fits]
 0   0   1      249   2.0   6.084E+02    [Clip-Bug, RC-Crash & Burn-In warning-flags, n_censored_weights, wei_nsig_threshold & wei_limit]
    20     20.220     20.212      0.008  [idt_all, wdt_TotTime, wdt_UsrTime & wdt_SysTime (sec)]

## Synthesis Results - Best model ##

 2.84099E+00                             [chi2/Nl_eff]
     0.65432                             [adev (%)]

   103.52969                             [sum-of-x (%)]
 1.26912E-13                             [Flux_tot (units of input spectrum!)]
 7.38301E-10                             [Mini_tot (???)]
 4.08441E-10                             [Mcor_tot (???)]

 -11.56                                  [v0_min  (km/s)]
  98.42                                  [vd_min  (km/s)]
 0.3551                                  [AV_min  (mag)]
 0.0000                                  [YAV_min (mag)]

# j     x_j(%)      Mini_j(%)     Mcor_j(%)     age_j(yr)     Z_j      (L/M)_j    YAV?  Mstars   component_j        a/Fe...       SSP_chi2r SSP_adev(%)   SSP_AV   SSP_x(%)
  1      0.0000     0.0000E+00    0.0000E+00    1.000000E+06  0.00400  1.114E-02    0   1.0000   age020_m42            0.0000     2.1320E+03    14.3753   3.5528    77.3399
  2     16.8491     6.8686E-02    1.2414E-01    3.160000E+06  0.00400  4.073E-02    0   0.9999   age045_m42            0.0000     4.1125E+02     6.7530   2.5108    92.2289
  3      0.0000     0.0000E+00    0.0000E+00    5.010000E+06  0.00400  2.534E-02    0   0.9488   age055_m42            0.0000     1.0629E+03    10.5332   2.9585    85.2949
  4      0.0000     0.0000E+00    0.0000E+00    1.000000E+07  0.00400  1.271E-02    0   0.8862   age070_m42            0.0000     9.0945E+02    10.2411   2.1641    88.7683
  5      0.0000     0.0000E+00    0.0000E+00    2.512000E+07  0.00400  5.070E-03    0   0.8174   age090_m42            0.0000     7.8101E+02     9.4951   2.0244    90.4014
  6      0.0000     0.0000E+00    0.0000E+00    4.000000E+07  0.00400  3.505E-03    0   0.7851   age104_m42            0.0000     4.4607E+02     7.1402   1.6836    93.6240
  7     16.6702     1.2204E+00    1.5899E+00    1.015200E+08  0.00400  2.268E-03    0   0.7207   age116_m42            0.0000     8.2055E+02     5.7520   1.5707   105.1867
  8      0.0000     0.0000E+00    0.0000E+00    2.861200E+08  0.00400  1.079E-03    0   0.6613   age125_m42            0.0000     9.2085E+02     6.7909   1.0578   107.8200
  9      0.0000     0.0000E+00    0.0000E+00    6.405400E+08  0.00400  5.077E-04    0   0.6197   age132_m42            0.0000     1.0355E+03     7.2424   0.6839   112.2863
 10     12.4665     5.8554E+00    6.3760E+00    9.047900E+08  0.00400  3.535E-04    0   0.6024   age135_m42            0.0000     5.5048E+02     5.5629   0.4497   111.2598
 11      5.4265     4.7173E+00    4.8740E+00    1.434000E+09  0.00400  1.910E-04    0   0.5716   age139_m42            0.0000     1.9922E+02     4.3970  -0.0988   109.8548
 12     52.1173     8.8138E+01    8.7036E+01    2.500000E+09  0.00400  9.818E-05    0   0.5463   age150_m42            0.0000     2.1131E+02     4.0205  -0.3626   104.6280
 13      0.0000     0.0000E+00    0.0000E+00    5.000000E+09  0.00400  4.718E-05    0   0.5228   age161_m42            0.0000     4.2928E+02     4.8308  -0.5152   100.7904
 14      0.0000     0.0000E+00    0.0000E+00    1.100000E+10  0.00400  2.205E-05    0   0.4980   age185_m42            0.0000     9.0073E+02     6.8545  -0.7969    98.6738
 15      0.0000     0.0000E+00    0.0000E+00    1.300000E+10  0.00400  1.883E-05    0   0.4927   age193_m42            0.0000     9.8065E+02     7.1136  -0.8142    98.4923
 16      0.0000     0.0000E+00    0.0000E+00    1.000000E+06  0.02000  1.989E-02    0   1.0000   age020_m62            0.0000     2.1581E+03    14.3182   3.5144    78.0312
 17      0.0000     0.0000E+00    0.0000E+00    3.160000E+06  0.02000  3.772E-02    0   0.9858   age045_m62            0.0000     1.9093E+03    13.5855   3.3637    80.1909
 18      0.0000     0.0000E+00    0.0000E+00    5.010000E+06  0.02000  3.227E-02    0   0.9342   age055_m62            0.0000     6.8556E+02     8.6143   2.7959    88.3890
 19      0.0000     0.0000E+00    0.0000E+00    1.000000E+07  0.02000  1.011E-02    0   0.8751   age070_m62            0.0000     2.1879E+03    15.4109   2.2167    84.3465
 20      0.0000     0.0000E+00    0.0000E+00    2.512000E+07  0.02000  4.206E-03    0   0.8099   age090_m62            0.0000     1.6127E+03    12.9858   2.1331    85.5438
 21      0.0000     0.0000E+00    0.0000E+00    4.000000E+07  0.02000  3.373E-03    0   0.7799   age104_m62            0.0000     3.9672E+02     6.7100   1.8832    95.2785
 22      0.0000     0.0000E+00    0.0000E+00    1.015200E+08  0.02000  1.878E-03    0   0.7221   age116_m62            0.0000     6.6751E+02     5.2551   1.6170   104.9702
 23      0.0000     0.0000E+00    0.0000E+00    2.861200E+08  0.02000  8.869E-04    0   0.6700   age125_m62            0.0000     1.8322E+03     9.5111   1.0236   113.6926
 24      0.0000     0.0000E+00    0.0000E+00    6.405400E+08  0.02000  3.657E-04    0   0.6322   age132_m62            0.0000     1.0782E+03     8.7640   0.2876   118.2310
 25      0.0000     0.0000E+00    0.0000E+00    9.047900E+08  0.02000  2.312E-04    0   0.6152   age135_m62            0.0000     5.3394E+02     6.9511  -0.0792   116.7708
 26      0.0000     0.0000E+00    0.0000E+00    1.434000E+09  0.02000  1.168E-04    0   0.5865   age139_m62            0.0000     2.8360E+02     5.0061  -0.4633   109.6502
 27      0.0000     0.0000E+00    0.0000E+00    2.500000E+09  0.02000  5.505E-05    0   0.5610   age150_m62            0.0000     6.7393E+02     6.6538  -0.8483   106.4998
 28      0.0000     0.0000E+00    0.0000E+00    5.000000E+09  0.02000  2.596E-05    0   0.5353   age161_m62            0.0000     1.6199E+03     9.3000  -1.0000   102.9899
 29      0.0000     0.0000E+00    0.0000E+00    1.100000E+10  0.02000  1.169E-05    0   0.5103   age185_m62            0.0000     3.5921E+03    15.1870  -1.0000    96.5306
 30      0.0000     0.0000E+00    0.0000E+00    1.300000E+10  0.02000  9.691E-06    0   0.5047   age193_m62            0.0000     3.9703E+03    16.0723  -1.0000    95.6501
 31      0.0000     0.0000E+00    0.0000E+00    1.000000E+06  0.05000  2.651E-02    0   0.9998   age020_m72            0.0000     2.0059E+03    13.6269   3.5144    78.9061
 32      0.0000     0.0000E+00    0.0000E+00    3.160000E+06  0.05000  4.817E-02    0   0.9577   age045_m72            0.0000     1.3157E+03    11.2840   3.2059    83.6075
 33      0.0000     0.0000E+00    0.0000E+00    5.010000E+06  0.05000  3.101E-02    0   0.9147   age055_m72            0.0000     1.2136E+03    11.1161   2.8375    86.1408
 34      0.0000     0.0000E+00    0.0000E+00    1.000000E+07  0.05000  8.954E-03    0   0.8524   age070_m72            0.0000     1.2925E+03    11.0800   3.0768    84.7417
 35      0.0000     0.0000E+00    0.0000E+00    2.512000E+07  0.05000  4.207E-03    0   0.7902   age090_m72            0.0000     5.8078E+02     7.6572   2.6009    90.8103
 36      0.0000     0.0000E+00    0.0000E+00    4.000000E+07  0.05000  3.198E-03    0   0.7618   age104_m72            0.0000     3.3375E+02     3.9862   2.0075   100.2251
 37      0.0000     0.0000E+00    0.0000E+00    1.015200E+08  0.05000  1.716E-03    0   0.7092   age116_m72            0.0000     8.6112E+02     5.9718   1.6864   105.5252
 38      0.0000     0.0000E+00    0.0000E+00    2.861200E+08  0.05000  7.047E-04    0   0.6618   age125_m72            0.0000     1.7281E+03     9.7472   0.7823   114.7573
 39      0.0000     0.0000E+00    0.0000E+00    6.405400E+08  0.05000  2.633E-04    0   0.6253   age132_m72            0.0000     7.8925E+02     8.1696  -0.1128   117.8119
 40      0.0000     0.0000E+00    0.0000E+00    9.047900E+08  0.05000  1.484E-04    0   0.6088   age135_m72            0.0000     4.6935E+02     6.8234  -0.5812   111.7687
 41      0.0000     0.0000E+00    0.0000E+00    1.434000E+09  0.05000  7.827E-05    0   0.5847   age139_m72            0.0000     9.0786E+02     8.2327  -0.9794   107.7941
 42      0.0000     0.0000E+00    0.0000E+00    2.500000E+09  0.05000  3.759E-05    0   0.5583   age150_m72            0.0000     1.8815E+03    10.3360  -1.0000   101.1805
 43      0.0000     0.0000E+00    0.0000E+00    5.000000E+09  0.05000  1.548E-05    0   0.5320   age161_m72            0.0000     4.1667E+03    16.8364  -1.0000    91.8463
 44      0.0000     0.0000E+00    0.0000E+00    1.100000E+10  0.05000  6.532E-06    0   0.5070   age185_m72            0.0000     7.4500E+03    23.0843  -1.0000    82.4584
 45      0.0000     0.0000E+00    0.0000E+00    1.300000E+10  0.05000  5.316E-06    0   0.5018   age193_m72            0.0000     8.7105E+03    24.9059  -1.0000    79.5582


## Synthesis Results - Average & Chains ##

# j      x_j: min, <> & last-chain-values for 1 ...  7 chains
  1      0.0000      0.0043      0.0000      0.0000      0.0157      0.0000      0.0000      0.0000      0.0051
  2     16.8491     16.9478     17.1037     17.0132     16.9721     17.1164     17.0058     17.0729     17.0766
  3      0.0000      0.0138      0.0000      0.0504      0.0000      0.0000      0.0000      0.0000      0.0000
  4      0.0000      0.0255      0.0000      0.0000      0.0626      0.0000      0.0000      0.0000      0.0000
  5      0.0000      0.0198      0.0000      0.0000      0.0000      0.0000      0.0173      0.0180      0.0000
  6      0.0000      0.0304      0.0000      0.0000      0.0000      0.0000      0.0000      0.0000      0.0000
  7     16.6702     15.2903     15.3907     15.5745     15.6843     15.5962     15.7816     15.4360     15.6078
  8      0.0000      0.0617      0.0000      0.0492      0.0000      0.0444      0.0008      0.0000      0.0000
  9      0.0000      0.0815      0.0231      0.2238      0.1348      0.0178      0.0205      0.0642      0.0000
 10     12.4665     12.9328     13.2807     12.5229     12.5938     12.7353     12.8876     12.7977     13.0222
 11      5.4265      7.3879      7.1528      7.4708      7.4694      6.9414      6.9118      7.4751      7.2030
 12     52.1173     49.8386     49.9668     50.2885     50.2603     50.4423     50.2395     50.2638     50.2791
 13      0.0000      0.0971      0.1134      0.1048      0.0000      0.0000      0.1628      0.0616      0.2057
 14      0.0000      0.0467      0.0000      0.0000      0.1090      0.1097      0.0000      0.0392      0.0000
 15      0.0000      0.0543      0.2189      0.0000      0.0000      0.0000      0.0000      0.0000      0.0000
 16      0.0000      0.0034      0.0000      0.0000      0.0000      0.0000      0.0000      0.0000      0.0000
 17      0.0000      0.0064      0.0000      0.0000      0.0000      0.0000      0.0217      0.0000      0.0092
 18      0.0000      0.0342      0.0000      0.0000      0.0000      0.0000      0.0000      0.0544      0.0000
 19      0.0000      0.0086      0.0000      0.0000      0.0000      0.0000      0.0000      0.0000      0.0000
 20      0.0000      0.0064      0.0000      0.0000      0.0000      0.0000      0.0000      0.0000      0.0000
 21      0.0000      0.0224      0.0000      0.0000      0.0000      0.0054      0.0000      0.0000      0.0000
 22      0.0000      0.0351      0.0099      0.0000      0.0179      0.1739      0.0000      0.0000      0.0000
 23      0.0000      0.0236      0.0000      0.0000      0.0142      0.0000      0.0133      0.0000      0.0000
 24      0.0000      0.0258      0.0000      0.0000      0.0000      0.0249      0.0000      0.0001      0.0000
 25      0.0000      0.0684      0.0000      0.1417      0.0000      0.0019      0.1203      0.0808      0.0000
 26      0.0000      0.0406      0.0000      0.0000      0.0000      0.0000      0.0379      0.0000      0.0014
 27      0.0000      0.0333      0.0000      0.0000      0.0000      0.0000      0.0000      0.0000      0.0715
 28      0.0000      0.0235      0.0000      0.0000      0.0000      0.0061      0.0210      0.0000      0.0000
 29      0.0000      0.0045      0.0000      0.0000      0.0000      0.0000      0.0000      0.0000      0.0000
 30      0.0000      0.0070      0.0173      0.0000      0.0000      0.0000      0.0000      0.0000      0.0000
 31      0.0000      0.0034      0.0000      0.0247      0.0000      0.0000      0.0000      0.0000      0.0000
 32      0.0000      0.0056      0.0000      0.0000      0.0000      0.0000      0.0000      0.0000      0.0000
 33      0.0000      0.0088      0.0000      0.0000      0.0000      0.0000      0.0392      0.0000      0.0000
 34      0.0000      0.0048      0.0000      0.0000      0.0103      0.0000      0.0000      0.0000      0.0000
 35      0.0000      0.0081      0.0000      0.0000      0.0000      0.0000      0.0000      0.0000      0.0000
 36      0.0000      0.0237      0.0388      0.0000      0.0000      0.0000      0.0000      0.0000      0.0000
 37      0.0000      0.0449      0.0000      0.0000      0.0396      0.0000      0.0000      0.0000      0.0279
 38      0.0000      0.0373      0.0000      0.0000      0.0000      0.0000      0.0000      0.0337      0.0000
 39      0.0000      0.0878      0.1078      0.0000      0.0000      0.1829      0.0000      0.1126      0.0000
 40      0.0000      0.1193      0.1975      0.0000      0.2126      0.1008      0.3153      0.0164      0.0604
 41      0.0000      0.0452      0.0000      0.1393      0.0000      0.1009      0.0075      0.0829      0.0000
 42      0.0000      0.0223      0.0000      0.0000      0.0000      0.0000      0.0000      0.0000      0.0000
 43      0.0000      0.0080      0.0000      0.0000      0.0074      0.0000      0.0000      0.0000      0.0000
 44      0.0000      0.0092      0.0000      0.0000      0.0000      0.0000      0.0000      0.0000      0.0000
 45      0.0000      0.0108      0.0026      0.0000      0.0157      0.0000      0.0042      0.0000      0.0235

# j      m_j: min, <> & last-chain-values for 1 ...  7 chains
  1  0.0000E+00  1.1570E-04  0.0000E+00  0.0000E+00  4.2267E-04  0.0000E+00  0.0000E+00  0.0000E+00  1.3729E-04
  2  1.2414E-01  1.2393E-01  1.2474E-01  1.2589E-01  1.2469E-01  1.2623E-01  1.2569E-01  1.2623E-01  1.2537E-01
  3  0.0000E+00  1.5400E-04  0.0000E+00  5.6889E-04  0.0000E+00  0.0000E+00  0.0000E+00  0.0000E+00  0.0000E+00
  4  0.0000E+00  5.2881E-04  0.0000E+00  0.0000E+00  1.3072E-03  0.0000E+00  0.0000E+00  0.0000E+00  0.0000E+00
  5  0.0000E+00  9.4895E-04  0.0000E+00  0.0000E+00  0.0000E+00  0.0000E+00  8.3847E-04  8.7394E-04  0.0000E+00
  6  0.0000E+00  2.0305E-03  0.0000E+00  0.0000E+00  0.0000E+00  0.0000E+00  0.0000E+00  0.0000E+00  0.0000E+00
  7  1.5899E+00  1.4472E+00  1.4529E+00  1.4917E+00  1.4915E+00  1.4887E+00  1.5098E+00  1.4773E+00  1.4832E+00
  8  0.0000E+00  1.1258E-02  0.0000E+00  9.0890E-03  0.0000E+00  8.1656E-03  1.4194E-04  0.0000E+00  0.0000E+00
  9  0.0000E+00  2.9647E-02  8.3935E-03  8.2334E-02  4.9227E-02  6.5174E-03  7.5217E-03  2.3598E-02  0.0000E+00
 10  6.3760E+00  6.5645E+00  6.7234E+00  6.4323E+00  6.4225E+00  6.5193E+00  6.6118E+00  6.5681E+00  6.6364E+00
 11  4.8740E+00  6.5856E+00  6.3593E+00  6.7389E+00  6.6895E+00  6.2401E+00  6.2273E+00  6.7374E+00  6.4465E+00
 12  8.7036E+01  8.2602E+01  8.2596E+01  8.4341E+01  8.3692E+01  8.4313E+01  8.4160E+01  8.4232E+01  8.3666E+01
 13  0.0000E+00  3.2033E-01  3.7320E-01  3.5018E-01  0.0000E+00  0.0000E+00  5.4314E-01  2.0542E-01  6.8149E-01
 14  0.0000E+00  3.1429E-01  0.0000E+00  0.0000E+00  7.3677E-01  7.4396E-01  0.0000E+00  2.6684E-01  0.0000E+00
 15  0.0000E+00  4.2309E-01  1.7013E+00  0.0000E+00  0.0000E+00  0.0000E+00  0.0000E+00  0.0000E+00  0.0000E+00
 16  0.0000E+00  5.1326E-05  0.0000E+00  0.0000E+00  0.0000E+00  0.0000E+00  0.0000E+00  0.0000E+00  0.0000E+00
 17  0.0000E+00  4.9438E-05  0.0000E+00  0.0000E+00  0.0000E+00  0.0000E+00  1.7049E-04  0.0000E+00  7.1784E-05
 18  0.0000E+00  2.9531E-04  0.0000E+00  0.0000E+00  0.0000E+00  0.0000E+00  0.0000E+00  4.7413E-04  0.0000E+00
 19  0.0000E+00  2.2240E-04  0.0000E+00  0.0000E+00  0.0000E+00  0.0000E+00  0.0000E+00  0.0000E+00  0.0000E+00
 20  0.0000E+00  3.6566E-04  0.0000E+00  0.0000E+00  0.0000E+00  0.0000E+00  0.0000E+00  0.0000E+00  0.0000E+00
 21  0.0000E+00  1.5407E-03  0.0000E+00  0.0000E+00  0.0000E+00  3.7583E-04  0.0000E+00  0.0000E+00  0.0000E+00
 22  0.0000E+00  4.0232E-03  1.1302E-03  0.0000E+00  2.0643E-03  2.0084E-02  0.0000E+00  0.0000E+00  0.0000E+00
 23  0.0000E+00  5.3215E-03  0.0000E+00  0.0000E+00  3.2164E-03  0.0000E+00  3.0352E-03  0.0000E+00  0.0000E+00
 24  0.0000E+00  1.3273E-02  0.0000E+00  0.0000E+00  0.0000E+00  1.2913E-02  0.0000E+00  4.8311E-05  0.0000E+00
 25  0.0000E+00  5.4224E-02  0.0000E+00  1.1366E-01  0.0000E+00  1.5278E-03  9.6333E-02  6.4737E-02  0.0000E+00
 26  0.0000E+00  6.0692E-02  0.0000E+00  0.0000E+00  0.0000E+00  0.0000E+00  5.7239E-02  0.0000E+00  2.0623E-03
 27  0.0000E+00  1.0118E-01  0.0000E+00  0.0000E+00  0.0000E+00  0.0000E+00  0.0000E+00  0.0000E+00  2.1790E-01
 28  0.0000E+00  1.4446E-01  0.0000E+00  0.0000E+00  0.0000E+00  3.7963E-02  1.3019E-01  0.0000E+00  0.0000E+00
 29  0.0000E+00  5.8069E-02  0.0000E+00  0.0000E+00  0.0000E+00  0.0000E+00  0.0000E+00  0.0000E+00  0.0000E+00
 30  0.0000E+00  1.0885E-01  2.6806E-01  0.0000E+00  0.0000E+00  0.0000E+00  0.0000E+00  0.0000E+00  0.0000E+00
 31  0.0000E+00  3.8520E-05  0.0000E+00  2.8127E-04  0.0000E+00  0.0000E+00  0.0000E+00  0.0000E+00  0.0000E+00
 32  0.0000E+00  3.3293E-05  0.0000E+00  0.0000E+00  0.0000E+00  0.0000E+00  0.0000E+00  0.0000E+00  0.0000E+00
 33  0.0000E+00  7.7561E-05  0.0000E+00  0.0000E+00  0.0000E+00  0.0000E+00  3.4768E-04  0.0000E+00  0.0000E+00
