###################################################################
## OUTPUT of StarlightChains_v04.for    [Cid@UFSC - 01/Apr/2007] ##
###################################################################

## Some input info
NGC7078_a_2.cxt                          [arq_obs]
Base.BC03.N                              [arq_base]
NGC7078_a_2.msk                          [arq_masks]
StCv04.C99.config                        [arq_config]
   45                                    [N_base]
    0                                    [N_YAV_components = # of components with extra extinction!]
    0                                    [i_FitPowerLaw (1/0 = Yes/No)]
-9.99                                    [alpha_PowerLaw]
CCM                                      [red_law_option]
 1.458241                                [q_norm = A(l_norm)/A(V)]

## (Re)Sampling Parameters
 3359.00                                 [l_ini (A)]
 6428.00                                 [l_fin (A)]
    1.00                                 [dl    (A)]     (OBS: dl_cushion =    50.00 A)

## Normalization info
 4020.00                                 [l_norm (A) - for base]
 4010.00                                 [llow_norm (A) - window for f_obs]
 4060.00                                 [lupp_norm (A) - window for f_obs]
1.263103E-13                             [fobs_norm (in input units)]

## S/N
 4730.00                                 [llow_SN (A) - window for S/N]
 4780.00                                 [lupp_SN (A) - window for S/N]
 205.831                                 [S/N in S/N window]
 202.695                                 [S/N in norm. window]
 485.220                                 [S/N_err in S/N window]
 477.827                                 [S/N_err in norm. window]
  1.0000                                 [fscale_chi2]

## etc...
  2147483587                             [idum_orig]
  3067                                   [NOl_eff]
   700                                   [Nl_eff]
  2367    NSIGMA                         [Ntot_cliped & clip_method]
  1604400                                [Nglobal_steps]
   7                                     [N_chains]
   6                                     [NEX0s_base = N_base in EX0s-fits]
 0   1   1      254   2.0   1.005E+03    [Clip-Bug, RC-Crash & Burn-In warning-flags, n_censored_weights, wei_nsig_threshold & wei_limit]
    25     25.037     25.033      0.004  [idt_all, wdt_TotTime, wdt_UsrTime & wdt_SysTime (sec)]

## Synthesis Results - Best model ##

 2.64072E+00                             [chi2/Nl_eff]
     0.35675                             [adev (%)]

   104.34402                             [sum-of-x (%)]
 6.43580E-13                             [Flux_tot (units of input spectrum!)]
 1.22588E-09                             [Mini_tot (???)]
 7.10477E-10                             [Mcor_tot (???)]

 -54.46                                  [v0_min  (km/s)]
 139.66                                  [vd_min  (km/s)]
 1.1807                                  [AV_min  (mag)]
 0.0000                                  [YAV_min (mag)]

# j     x_j(%)      Mini_j(%)     Mcor_j(%)     age_j(yr)     Z_j      (L/M)_j    YAV?  Mstars   component_j        a/Fe...       SSP_chi2r SSP_adev(%)   SSP_AV   SSP_x(%)
  1      0.0000     0.0000E+00    0.0000E+00    1.000000E+06  0.00400  1.114E-02    0   1.0000   age020_m42            0.0000     4.0515E+03     9.6100   3.3637    79.7326
  2     30.0360     3.7104E-01    6.4013E-01    3.160000E+06  0.00400  4.073E-02    0   0.9999   age045_m42            0.0000     5.5291E+02     3.5036   2.3747    95.6208
  3      0.0000     0.0000E+00    0.0000E+00    5.010000E+06  0.00400  2.534E-02    0   0.9488   age055_m42            0.0000     1.8675E+03     6.5536   2.7909    88.3707
  4      6.8890     2.7271E-01    4.1699E-01    1.000000E+07  0.00400  1.271E-02    0   0.8862   age070_m42            0.0000     1.4835E+03     6.3094   1.9897    92.1760
  5      0.0000     0.0000E+00    0.0000E+00    2.512000E+07  0.00400  5.070E-03    0   0.8174   age090_m42            0.0000     1.2699E+03     5.7541   1.8618    93.6832
  6      0.0000     0.0000E+00    0.0000E+00    4.000000E+07  0.00400  3.505E-03    0   0.7851   age104_m42            0.0000     6.4533E+02     3.8519   1.5453    96.8773
  7     35.4245     7.8587E+00    9.7724E+00    1.015200E+08  0.00400  2.268E-03    0   0.7207   age116_m42            0.0000     1.1011E+03     4.4347   1.5476   107.8433
  8      0.0000     0.0000E+00    0.0000E+00    2.861200E+08  0.00400  1.079E-03    0   0.6613   age125_m42            0.0000     1.3838E+03     5.2999   1.0600   109.8917
  9      0.0000     0.0000E+00    0.0000E+00    6.405400E+08  0.00400  5.077E-04    0   0.6197   age132_m42            0.0000     1.6802E+03     5.6997   0.6882   114.5048
 10     12.7101     1.8090E+01    1.8803E+01    9.047900E+08  0.00400  3.535E-04    0   0.6024   age135_m42            0.0000     1.0106E+03     4.8145   0.4494   113.4628
 11     10.2067     2.6887E+01    2.6517E+01    1.434000E+09  0.00400  1.910E-04    0   0.5716   age139_m42            0.0000     8.7216E+02     5.1486  -0.0705   111.3492
 12      9.0777     4.6520E+01    4.3850E+01    2.500000E+09  0.00400  9.818E-05    0   0.5463   age150_m42            0.0000     1.1932E+03     4.7935  -0.3372   105.8577
 13      0.0000     0.0000E+00    0.0000E+00    5.000000E+09  0.00400  4.718E-05    0   0.5228   age161_m42            0.0000     1.6893E+03     5.0054  -0.4980   101.8754
 14      0.0000     0.0000E+00    0.0000E+00    1.100000E+10  0.00400  2.205E-05    0   0.4980   age185_m42            0.0000     2.7912E+03     6.3931  -0.7491    99.0708
 15      0.0000     0.0000E+00    0.0000E+00    1.300000E+10  0.00400  1.883E-05    0   0.4927   age193_m42            0.0000     2.9564E+03     6.5410  -0.7651    98.8061
 16      0.0000     0.0000E+00    0.0000E+00    1.000000E+06  0.02000  1.989E-02    0   1.0000   age020_m62            0.0000     4.1176E+03     9.6242   3.3244    80.5306
 17      0.0000     0.0000E+00    0.0000E+00    3.160000E+06  0.02000  3.772E-02    0   0.9858   age045_m62            0.0000     3.5923E+03     9.0245   3.1781    82.8559
 18      0.0000     0.0000E+00    0.0000E+00    5.010000E+06  0.02000  3.227E-02    0   0.9342   age055_m62            0.0000     1.0408E+03     4.8211   2.6466    91.6505
 19      0.0000     0.0000E+00    0.0000E+00    1.000000E+07  0.02000  1.011E-02    0   0.8751   age070_m62            0.0000     4.0878E+03    10.4945   2.0171    87.2710
 20      0.0000     0.0000E+00    0.0000E+00    2.512000E+07  0.02000  4.206E-03    0   0.8099   age090_m62            0.0000     2.9147E+03     8.5231   1.9549    88.4953
 21      0.0000     0.0000E+00    0.0000E+00    4.000000E+07  0.02000  3.373E-03    0   0.7799   age104_m62            0.0000     4.0103E+02     3.2340   1.7627    98.4511
 22      0.0000     0.0000E+00    0.0000E+00    1.015200E+08  0.02000  1.878E-03    0   0.7221   age116_m62            0.0000     6.8757E+02     3.1834   1.5744   107.7859
 23      0.0000     0.0000E+00    0.0000E+00    2.861200E+08  0.02000  8.869E-04    0   0.6700   age125_m62            0.0000     2.8390E+03     7.1764   1.0597   115.4351
 24      0.0000     0.0000E+00    0.0000E+00    6.405400E+08  0.02000  3.657E-04    0   0.6322   age132_m62            0.0000     2.2015E+03     7.5213   0.3756   119.0937
 25      0.0000     0.0000E+00    0.0000E+00    9.047900E+08  0.02000  2.312E-04    0   0.6152   age135_m62            0.0000     1.5700E+03     6.9235   0.0020   117.7803
 26      0.0000     0.0000E+00    0.0000E+00    1.434000E+09  0.02000  1.168E-04    0   0.5865   age139_m62            0.0000     1.3879E+03     5.6311  -0.4012   110.5992
 27      0.0000     0.0000E+00    0.0000E+00    2.500000E+09  0.02000  5.505E-05    0   0.5610   age150_m62            0.0000     2.3472E+03     6.5776  -0.7651   106.8883
 28      0.0000     0.0000E+00    0.0000E+00    5.000000E+09  0.02000  2.596E-05    0   0.5353   age161_m62            0.0000     4.0369E+03     7.9320  -1.0000   103.8198
 29      0.0000     0.0000E+00    0.0000E+00    1.100000E+10  0.02000  1.169E-05    0   0.5103   age185_m62            0.0000     7.5384E+03    11.2187  -1.0000    94.1471
 30      0.0000     0.0000E+00    0.0000E+00    1.300000E+10  0.02000  9.691E-06    0   0.5047   age193_m62            0.0000     8.2180E+03    11.8158  -1.0000    92.8914
 31      0.0000     0.0000E+00    0.0000E+00    1.000000E+06  0.05000  2.651E-02    0   0.9998   age020_m72            0.0000     3.8318E+03     9.0802   3.3304    81.5109
 32      0.0000     0.0000E+00    0.0000E+00    3.160000E+06  0.05000  4.817E-02    0   0.9577   age045_m72            0.0000     2.3979E+03     7.0824   3.0386    86.5730
 33      0.0000     0.0000E+00    0.0000E+00    5.010000E+06  0.05000  3.101E-02    0   0.9147   age055_m72            0.0000     2.1586E+03     7.0210   2.6726    89.2696
 34      0.0000     0.0000E+00    0.0000E+00    1.000000E+07  0.05000  8.954E-03    0   0.8524   age070_m72            0.0000     2.3825E+03     7.0182   2.9247    87.6474
 35      0.0000     0.0000E+00    0.0000E+00    2.512000E+07  0.05000  4.207E-03    0   0.7902   age090_m72            0.0000     9.1320E+02     4.3432   2.4826    93.7217
 36      0.0000     0.0000E+00    0.0000E+00    4.000000E+07  0.05000  3.198E-03    0   0.7618   age104_m72            0.0000     2.3401E+02     2.1542   1.9577   102.8900
 37      0.0000     0.0000E+00    0.0000E+00    1.015200E+08  0.05000  1.716E-03    0   0.7092   age116_m72            0.0000     1.0399E+03     4.1266   1.6630   108.1140
 38      0.0000     0.0000E+00    0.0000E+00    2.861200E+08  0.05000  7.047E-04    0   0.6618   age125_m72            0.0000     2.9394E+03     7.7630   0.8505   116.0284
 39      0.0000     0.0000E+00    0.0000E+00    6.405400E+08  0.05000  2.633E-04    0   0.6253   age132_m72            0.0000     2.1001E+03     7.8002  -0.0068   118.3574
 40      0.0000     0.0000E+00    0.0000E+00    9.047900E+08  0.05000  1.484E-04    0   0.6088   age135_m72            0.0000     1.9144E+03     7.0907  -0.4742   111.9455
 41      0.0000     0.0000E+00    0.0000E+00    1.434000E+09  0.05000  7.827E-05    0   0.5847   age139_m72            0.0000     2.9984E+03     7.8760  -0.8486   107.3525
 42      0.0000     0.0000E+00    0.0000E+00    2.500000E+09  0.05000  3.759E-05    0   0.5583   age150_m72            0.0000     4.5316E+03     8.3805  -1.0000   101.2472
 43      0.0000     0.0000E+00    0.0000E+00    5.000000E+09  0.05000  1.548E-05    0   0.5320   age161_m72            0.0000     8.9045E+03    12.8799  -1.0000    88.3483
 44      0.0000     0.0000E+00    0.0000E+00    1.100000E+10  0.05000  6.532E-06    0   0.5070   age185_m72            0.0000     1.5173E+04    16.9254  -1.0000    77.0436
 45      0.0000     0.0000E+00    0.0000E+00    1.300000E+10  0.05000  5.316E-06    0   0.5018   age193_m72            0.0000     1.7500E+04    18.0582  -1.0000    73.7768


## Synthesis Results - Average & Chains ##

# j      x_j: min, <> & last-chain-values for 1 ...  7 chains
  1      0.0000      0.0069      0.0000      0.0000      0.0000      0.0000      0.0054      0.0000      0.0000
  2     30.0360     29.4166     29.5550     29.6534     29.6687     29.5876     29.8435     29.3975     29.6292
  3      0.0000      0.0183      0.0379      0.0000      0.0333      0.0000      0.0136      0.0390      0.0000
  4      6.8890      6.7679      6.9078      6.6684      6.7636      6.7799      6.8717      6.7702      6.8390
  5      0.0000      0.0723      0.0000      0.2695      0.0000      0.0525      0.0083      0.0812      0.0143
  6      0.0000      0.1088      0.1575      0.0000      0.0000      0.0000      0.0000      0.0000      0.0000
  7     35.4245     34.8766     34.9570     34.9554     35.0360     34.9417     35.2201     34.8290     35.0123
  8      0.0000      0.1367      0.0249      0.0693      0.0215      0.2685      0.0091      0.2388      0.1577
  9      0.0000      0.0855      0.0000      0.1153      0.1334      0.0000      0.0015      0.0450      0.0000
 10     12.7101     12.6763     12.6547     12.6266     12.6342     12.7147     12.8149     12.6091     12.4396
 11     10.2067     10.2591     10.2741     10.2991     10.2001     10.2309     10.4589     10.1933     10.2645
 12      9.0777      9.0504      9.1028      9.0579      9.1811      9.0650      8.9440      9.0547      9.0838
 13      0.0000      0.0053      0.0000      0.0000      0.0073      0.0073      0.0000      0.0219      0.0140
 14      0.0000      0.0040      0.0000      0.0000      0.0000      0.0034      0.0000      0.0000      0.0249
 15      0.0000      0.0086      0.0000      0.0058      0.0000      0.0000      0.0086      0.0000      0.0270
 16      0.0000      0.0088      0.0000      0.0000      0.0000      0.0000      0.0062      0.0000      0.0000
 17      0.0000      0.0070      0.0000      0.0000      0.0000      0.0000      0.0121      0.0000      0.0000
 18      0.0000      0.0371      0.0000      0.0000      0.0024      0.0000      0.0178      0.0710      0.0467
 19      0.0000      0.0649      0.0473      0.0000      0.0592      0.0635      0.0136      0.1545      0.0416
 20      0.0000      0.0670      0.0000      0.0000      0.0000      0.1874      0.0074      0.0184      0.1083
 21      0.0000      0.1151      0.0891      0.1747      0.3180      0.0248      0.0021      0.1298      0.0973
 22      0.0000      0.0691      0.0000      0.0112      0.0277      0.0000      0.0044      0.0000      0.0000
 23      0.0000      0.0568      0.0309      0.0000      0.0000      0.0000      0.0031      0.0000      0.0000
 24      0.0000      0.0239      0.0000      0.0208      0.0000      0.0000      0.0000      0.0000      0.0000
 25      0.0000      0.0144      0.0000      0.0000      0.0119      0.0030      0.0007      0.0000      0.0000
 26      0.0000      0.0092      0.0313      0.0000      0.0000      0.0000      0.0023      0.0000      0.0059
 27      0.0000      0.0053      0.0000      0.0000      0.0110      0.0053      0.0009      0.0000      0.0000
 28      0.0000      0.0033      0.0042      0.0000      0.0000      0.0000      0.0000      0.0000      0.0000
 29      0.0000      0.0033      0.0000      0.0000      0.0000      0.0000      0.0014      0.0000      0.0000
 30      0.0000      0.0031      0.0000      0.0117      0.0000      0.0000      0.0013      0.0185      0.0000
 31      0.0000      0.0101      0.0073      0.0000      0.0000      0.0315      0.0042      0.0000      0.0024
 32      0.0000      0.0123      0.0136      0.0638      0.0000      0.0084      0.0023      0.0000      0.0000
 33      0.0000      0.0235      0.0000      0.0061      0.0000      0.0000      0.0167      0.0000      0.0000
 34      0.0000      0.0126      0.0014      0.0000      0.0000      0.0000      0.0246      0.0000      0.0000
 35      0.0000      0.0259      0.0000      0.0000      0.0000      0.0223      0.0000      0.0000      0.0000
 36      0.0000      0.0582      0.0000      0.1321      0.0000      0.0110      0.0035      0.2031      0.1711
 37      0.0000      0.1319      0.3779      0.1352      0.2190      0.2678      0.0031      0.3875      0.2182
 38      0.0000      0.0661      0.0488      0.0000      0.0000      0.0000      0.0062      0.0141      0.1054
 39      0.0000      0.0180      0.0000      0.0036      0.0000      0.0506      0.0000      0.0000      0.0209
 40      0.0000      0.0118      0.0000      0.0422      0.0000      0.0265      0.0039      0.0374      0.0000
 41      0.0000      0.0040      0.0000      0.0000      0.0014      0.0000      0.0000      0.0000      0.0000
 42      0.0000      0.0022      0.0000      0.0000      0.0000      0.0000      0.0087      0.0218      0.0236
 43      0.0000      0.0033      0.0000      0.0231      0.0364      0.0000      0.0020      0.0025      0.0000
 44      0.0000      0.0009      0.0077      0.0000      0.0000      0.0000      0.0031      0.0000      0.0000
 45      0.0000      0.0038      0.0254      0.0068      0.0000      0.0000      0.0009      0.0089      0.0000

# j      m_j: min, <> & last-chain-values for 1 ...  7 chains
  1  0.0000E+00  5.2582E-04  0.0000E+00  0.0000E+00  0.0000E+00  0.0000E+00  4.1900E-04  0.0000E+00  0.0000E+00
  2  6.4013E-01  6.1699E-01  6.1064E-01  6.1787E-01  6.2083E-01  6.2717E-01  6.3022E-01  6.1301E-01  6.2159E-01
  3  0.0000E+00  5.8472E-04  1.1957E-03  0.0000E+00  1.0624E-03  0.0000E+00  4.3901E-04  1.2388E-03  0.0000E+00
  4  4.1699E-01  4.0317E-01  4.0536E-01  3.9463E-01  4.0197E-01  4.0817E-01  4.1214E-01  4.0096E-01  4.0749E-01
  5  0.0000E+00  9.9615E-03  0.0000E+00  3.6874E-02  0.0000E+00  7.3062E-03  1.1529E-03  1.1124E-02  1.9741E-03
  6  0.0000E+00  2.0823E-02  2.9688E-02  0.0000E+00  0.0000E+00  0.0000E+00  0.0000E+00  0.0000E+00  0.0000E+00
  7  9.7724E+00  9.4687E+00  9.3488E+00  9.4277E+00  9.4899E+00  9.5871E+00  9.6272E+00  9.4008E+00  9.5076E+00
  8  0.0000E+00  7.1604E-02  1.2869E-02  3.6030E-02  1.1212E-02  1.4206E-01  4.8109E-03  1.2434E-01  8.2593E-02
  9  0.0000E+00  8.9121E-02  0.0000E+00  1.1947E-01  1.3881E-01  0.0000E+00  1.6118E-03  4.6665E-02  0.0000E+00
 10  1.8803E+01  1.8456E+01  1.8149E+01  1.8263E+01  1.8352E+01  1.8708E+01  1.8785E+01  1.8251E+01  1.8115E+01
 11  2.6517E+01  2.6231E+01  2.5877E+01  2.6160E+01  2.6019E+01  2.6436E+01  2.6924E+01  2.5911E+01  2.6250E+01
 12  4.3850E+01  4.3025E+01  4.2628E+01  4.2778E+01  4.3545E+01  4.3552E+01  4.2809E+01  4.2795E+01  4.3193E+01
 13  0.0000E+00  5.0016E-02  0.0000E+00  0.0000E+00  6.8587E-02  6.9508E-02  0.0000E+00  2.0604E-01  1.3261E-01
 14  0.0000E+00  7.6386E-02  0.0000E+00  0.0000E+00  0.0000E+00  6.6695E-02  0.0000E+00  0.0000E+00  4.7970E-01
 15  0.0000E+00  1.9294E-01  0.0000E+00  1.2775E-01  0.0000E+00  0.0000E+00  1.9372E-01  0.0000E+00  6.0308E-01
 16  0.0000E+00  3.7651E-04  0.0000E+00  0.0000E+00  0.0000E+00  0.0000E+00  2.6784E-04  0.0000E+00  0.0000E+00
 17  0.0000E+00  1.5569E-04  0.0000E+00  0.0000E+00  0.0000E+00  0.0000E+00  2.7170E-04  0.0000E+00  0.0000E+00
 18  0.0000E+00  9.1698E-04  0.0000E+00  0.0000E+00  5.9812E-05  0.0000E+00  4.4363E-04  1.7452E-03  1.1551E-03
 19  0.0000E+00  4.8013E-03  3.4455E-03  0.0000E+00  4.3656E-03  4.7466E-03  1.0159E-03  1.1361E-02  3.0762E-03
 20  0.0000E+00  1.1017E-02  0.0000E+00  0.0000E+00  0.0000E+00  3.1160E-02  1.2198E-03  3.0071E-03  1.7817E-02
 21  0.0000E+00  2.2737E-02  1.7345E-02  3.4283E-02  6.2676E-02  4.9571E-03  4.1510E-04  2.5501E-02  1.9218E-02
 22  0.0000E+00  2.2704E-02  0.0000E+00  3.6565E-03  9.0887E-03  0.0000E+00  1.4543E-03  0.0000E+00  0.0000E+00
 23  0.0000E+00  3.6654E-02  1.9651E-02  0.0000E+00  0.0000E+00  0.0000E+00  2.0085E-03  0.0000E+00  0.0000E+00
 24  0.0000E+00  3.5269E-02  0.0000E+00  3.0536E-02  0.0000E+00  0.0000E+00  0.0000E+00  0.0000E+00  0.0000E+00
 25  0.0000E+00  3.2784E-02  0.0000E+00  0.0000E+00  2.7018E-02  6.9971E-03  1.5480E-03  0.0000E+00  0.0000E+00
 26  0.0000E+00  3.9586E-02  1.3208E-01  0.0000E+00  0.0000E+00  0.0000E+00  9.8065E-03  0.0000E+00  2.5208E-02
 27  0.0000E+00  4.6168E-02  0.0000E+00  0.0000E+00  9.5364E-02  4.6844E-02  8.1067E-03  0.0000E+00  0.0000E+00
 28  0.0000E+00  5.8525E-02  7.2489E-02  0.0000E+00  0.0000E+00  0.0000E+00  0.0000E+00  0.0000E+00  0.0000E+00
 29  0.0000E+00  1.2401E-01  0.0000E+00  0.0000E+00  0.0000E+00  0.0000E+00  5.3534E-02  0.0000E+00  0.0000E+00
 30  0.0000E+00  1.3998E-01  0.0000E+00  5.1791E-01  0.0000E+00  0.0000E+00  5.8161E-02  8.1697E-01  0.0000E+00
 31  0.0000E+00  3.2556E-04  2.3271E-04  0.0000E+00  0.0000E+00  1.0247E-03  1.3655E-04  0.0000E+00  7.7229E-05
 32  0.0000E+00  2.0906E-04  2.2779E-04  1.0771E-03  0.0000E+00  1.4457E-04  3.9451E-05  0.0000E+00  0.0000E+00
 33  0.0000E+00  5.9140E-04  0.0000E+00  1.5270E-04  0.0000E+00  0.0000E+00  4.2453E-04  0.0000E+00  0.0000E+00
