###################################################################
## OUTPUT of StarlightChains_v04.for    [Cid@UFSC - 01/Apr/2007] ##
###################################################################

## Some input info
NGC7078_a_1.cxt                          [arq_obs]
Base.BC03.N                              [arq_base]
NGC7078_a_1.msk                          [arq_masks]
StCv04.C99.config                        [arq_config]
   45                                    [N_base]
    0                                    [N_YAV_components = # of components with extra extinction!]
    0                                    [i_FitPowerLaw (1/0 = Yes/No)]
-9.99                                    [alpha_PowerLaw]
CCM                                      [red_law_option]
 1.458241                                [q_norm = A(l_norm)/A(V)]

## (Re)Sampling Parameters
 3359.00                                 [l_ini (A)]
 6428.00                                 [l_fin (A)]
    1.00                                 [dl    (A)]     (OBS: dl_cushion =    50.00 A)

## Normalization info
 4020.00                                 [l_norm (A) - for base]
 4010.00                                 [llow_norm (A) - window for f_obs]
 4060.00                                 [lupp_norm (A) - window for f_obs]
6.411706E-14                             [fobs_norm (in input units)]

## S/N
 4730.00                                 [llow_SN (A) - window for S/N]
 4780.00                                 [lupp_SN (A) - window for S/N]
 192.615                                 [S/N in S/N window]
 195.031                                 [S/N in norm. window]
 239.554                                 [S/N_err in S/N window]
 242.560                                 [S/N_err in norm. window]
  1.0000                                 [fscale_chi2]

## etc...
  2147483588                             [idum_orig]
  3068                                   [NOl_eff]
  1097                                   [Nl_eff]
  1971    NSIGMA                         [Ntot_cliped & clip_method]
  1243200                                [Nglobal_steps]
   7                                     [N_chains]
   5                                     [NEX0s_base = N_base in EX0s-fits]
 0   0   1      255   2.0   5.108E+02    [Clip-Bug, RC-Crash & Burn-In warning-flags, n_censored_weights, wei_nsig_threshold & wei_limit]
    23     22.808     22.796      0.012  [idt_all, wdt_TotTime, wdt_UsrTime & wdt_SysTime (sec)]

## Synthesis Results - Best model ##

 2.24065E+00                             [chi2/Nl_eff]
     0.61089                             [adev (%)]

   103.80090                             [sum-of-x (%)]
 3.53257E-13                             [Flux_tot (units of input spectrum!)]
 5.69468E-10                             [Mini_tot (???)]
 3.30870E-10                             [Mcor_tot (???)]

 -56.66                                  [v0_min  (km/s)]
 143.99                                  [vd_min  (km/s)]
 1.2428                                  [AV_min  (mag)]
 0.0000                                  [YAV_min (mag)]

# j     x_j(%)      Mini_j(%)     Mcor_j(%)     age_j(yr)     Z_j      (L/M)_j    YAV?  Mstars   component_j        a/Fe...       SSP_chi2r SSP_adev(%)   SSP_AV   SSP_x(%)
  1      0.0000     0.0000E+00    0.0000E+00    1.000000E+06  0.00400  1.114E-02    0   1.0000   age020_m42            0.0000     1.0884E+03     9.7312   3.2372    80.9393
  2     35.9008     5.2676E-01    9.0652E-01    3.160000E+06  0.00400  4.073E-02    0   0.9999   age045_m42            0.0000     1.6554E+02     3.7118   2.2669    95.6639
  3      0.0000     0.0000E+00    0.0000E+00    5.010000E+06  0.00400  2.534E-02    0   0.9488   age055_m42            0.0000     5.1335E+02     6.7149   2.6740    89.0565
  4      0.0000     0.0000E+00    0.0000E+00    1.000000E+07  0.00400  1.271E-02    0   0.8862   age070_m42            0.0000     4.1767E+02     6.6376   1.8810    92.7004
  5      0.0000     0.0000E+00    0.0000E+00    2.512000E+07  0.00400  5.070E-03    0   0.8174   age090_m42            0.0000     3.5827E+02     6.0275   1.7517    94.2203
  6      0.0000     0.0000E+00    0.0000E+00    4.000000E+07  0.00400  3.505E-03    0   0.7851   age104_m42            0.0000     1.9203E+02     4.1324   1.4375    97.1608
  7     42.7492     1.1264E+01    1.3972E+01    1.015200E+08  0.00400  2.268E-03    0   0.7207   age116_m42            0.0000     2.0301E+02     3.8047   1.4538   106.7767
  8      0.0000     0.0000E+00    0.0000E+00    2.861200E+08  0.00400  1.079E-03    0   0.6613   age125_m42            0.0000     2.7516E+02     4.7758   0.9669   108.6416
  9      0.0000     0.0000E+00    0.0000E+00    6.405400E+08  0.00400  5.077E-04    0   0.6197   age132_m42            0.0000     3.4489E+02     5.1300   0.5984   113.0153
 10     12.1987     2.0623E+01    2.1382E+01    9.047900E+08  0.00400  3.535E-04    0   0.6024   age135_m42            0.0000     2.1192E+02     4.4117   0.3592   112.0166
 11      0.0000     0.0000E+00    0.0000E+00    1.434000E+09  0.00400  1.910E-04    0   0.5716   age139_m42            0.0000     2.0720E+02     4.9097  -0.1645   110.0350
 12     10.9914     6.6903E+01    6.2906E+01    2.500000E+09  0.00400  9.818E-05    0   0.5463   age150_m42            0.0000     2.9242E+02     4.8040  -0.4392   104.9771
 13      0.0000     0.0000E+00    0.0000E+00    5.000000E+09  0.00400  4.718E-05    0   0.5228   age161_m42            0.0000     4.1499E+02     5.0978  -0.6034   101.2772
 14      0.0000     0.0000E+00    0.0000E+00    1.100000E+10  0.00400  2.205E-05    0   0.4980   age185_m42            0.0000     6.9230E+02     6.5390  -0.8587    98.6001
 15      0.0000     0.0000E+00    0.0000E+00    1.300000E+10  0.00400  1.883E-05    0   0.4927   age193_m42            0.0000     7.3531E+02     6.6817  -0.8749    98.3633
 16      0.0000     0.0000E+00    0.0000E+00    1.000000E+06  0.02000  1.989E-02    0   1.0000   age020_m62            0.0000     1.0952E+03     9.7549   3.1982    81.7583
 17      0.0000     0.0000E+00    0.0000E+00    3.160000E+06  0.02000  3.772E-02    0   0.9858   age045_m62            0.0000     9.5716E+02     9.2140   3.0557    83.9829
 18      0.0000     0.0000E+00    0.0000E+00    5.010000E+06  0.02000  3.227E-02    0   0.9342   age055_m62            0.0000     2.9654E+02     5.0704   2.5351    92.0671
 19      0.0000     0.0000E+00    0.0000E+00    1.000000E+07  0.02000  1.011E-02    0   0.8751   age070_m62            0.0000     1.0758E+03    10.8539   1.9024    88.5211
 20      0.0000     0.0000E+00    0.0000E+00    2.512000E+07  0.02000  4.206E-03    0   0.8099   age090_m62            0.0000     7.7458E+02     8.8154   1.8403    89.5556
 21      0.0000     0.0000E+00    0.0000E+00    4.000000E+07  0.02000  3.373E-03    0   0.7799   age104_m62            0.0000     1.1757E+02     3.4416   1.6571    98.6499
 22      0.0000     0.0000E+00    0.0000E+00    1.015200E+08  0.02000  1.878E-03    0   0.7221   age116_m62            0.0000     1.1923E+02     2.6914   1.4767   107.0757
 23      0.0000     0.0000E+00    0.0000E+00    2.861200E+08  0.02000  8.869E-04    0   0.6700   age125_m62            0.0000     5.8842E+02     6.5635   0.9632   114.1889
 24      0.0000     0.0000E+00    0.0000E+00    6.405400E+08  0.02000  3.657E-04    0   0.6322   age132_m62            0.0000     5.0596E+02     7.3022   0.2805   117.4095
 25      0.0000     0.0000E+00    0.0000E+00    9.047900E+08  0.02000  2.312E-04    0   0.6152   age135_m62            0.0000     3.7090E+02     6.7531  -0.0939   116.1513
 26      0.0000     0.0000E+00    0.0000E+00    1.434000E+09  0.02000  1.168E-04    0   0.5865   age139_m62            0.0000     3.4818E+02     5.7337  -0.5063   109.6135
 27      0.0000     0.0000E+00    0.0000E+00    2.500000E+09  0.02000  5.505E-05    0   0.5610   age150_m62            0.0000     5.8628E+02     6.7917  -0.8757   106.1510
 28      0.0000     0.0000E+00    0.0000E+00    5.000000E+09  0.02000  2.596E-05    0   0.5353   age161_m62            0.0000     1.1131E+03     7.8394  -1.0000   100.2376
 29      0.0000     0.0000E+00    0.0000E+00    1.100000E+10  0.02000  1.169E-05    0   0.5103   age185_m62            0.0000     2.1874E+03    11.8937  -1.0000    91.0178
 30      0.0000     0.0000E+00    0.0000E+00    1.300000E+10  0.02000  9.691E-06    0   0.5047   age193_m62            0.0000     2.3826E+03    12.4989  -1.0000    89.8283
 31      0.0000     0.0000E+00    0.0000E+00    1.000000E+06  0.05000  2.651E-02    0   0.9998   age020_m72            0.0000     1.0181E+03     9.1942   3.2041    82.6783
 32      0.0000     0.0000E+00    0.0000E+00    3.160000E+06  0.05000  4.817E-02    0   0.9577   age045_m72            0.0000     6.4654E+02     7.2593   2.9179    87.4403
 33      0.0000     0.0000E+00    0.0000E+00    5.010000E+06  0.05000  3.101E-02    0   0.9147   age055_m72            0.0000     5.7809E+02     7.1599   2.5565    90.0679
 34      0.0000     0.0000E+00    0.0000E+00    1.000000E+07  0.05000  8.954E-03    0   0.8524   age070_m72            0.0000     6.3474E+02     7.1100   2.8041    88.5547
 35      0.0000     0.0000E+00    0.0000E+00    2.512000E+07  0.05000  4.207E-03    0   0.7902   age090_m72            0.0000     2.5269E+02     4.3669   2.3688    94.2081
 36      0.0000     0.0000E+00    0.0000E+00    4.000000E+07  0.05000  3.198E-03    0   0.7618   age104_m72            0.0000     3.5781E+01     1.8603   1.8558   102.5186
 37      1.9609     6.8289E-01    8.3355E-01    1.015200E+08  0.05000  1.716E-03    0   0.7092   age116_m72            0.0000     1.8848E+02     3.5868   1.5685   107.2697
 38      0.0000     0.0000E+00    0.0000E+00    2.861200E+08  0.05000  7.047E-04    0   0.6618   age125_m72            0.0000     6.2669E+02     7.2299   0.7568   114.5361
 39      0.0000     0.0000E+00    0.0000E+00    6.405400E+08  0.05000  2.633E-04    0   0.6253   age132_m72            0.0000     4.8458E+02     7.5524  -0.0978   116.4598
 40      0.0000     0.0000E+00    0.0000E+00    9.047900E+08  0.05000  1.484E-04    0   0.6088   age135_m72            0.0000     4.7264E+02     7.0752  -0.5747   110.5633
 41      0.0000     0.0000E+00    0.0000E+00    1.434000E+09  0.05000  7.827E-05    0   0.5847   age139_m72            0.0000     7.5022E+02     8.0418  -0.9591   106.4289
 42      0.0000     0.0000E+00    0.0000E+00    2.500000E+09  0.05000  3.759E-05    0   0.5583   age150_m72            0.0000     1.2755E+03     8.6400  -1.0000    97.7578
 43      0.0000     0.0000E+00    0.0000E+00    5.000000E+09  0.05000  1.548E-05    0   0.5320   age161_m72            0.0000     2.5549E+03    13.4126  -1.0000    85.5920
 44      0.0000     0.0000E+00    0.0000E+00    1.100000E+10  0.05000  6.532E-06    0   0.5070   age185_m72            0.0000     4.2398E+03    17.4882  -1.0000    74.8149
 45      0.0000     0.0000E+00    0.0000E+00    1.300000E+10  0.05000  5.316E-06    0   0.5018   age193_m72            0.0000     4.8487E+03    18.6287  -1.0000    71.6908


## Synthesis Results - Average & Chains ##

# j      x_j: min, <> & last-chain-values for 1 ...  7 chains
  1      0.0000      0.0163      0.0261      0.0000      0.0000      0.0000      0.0037      0.0000      0.0000
  2     35.9008     34.7077     34.9937     34.9516     34.7993     34.5566     35.2983     34.9937     34.7874
  3      0.0000      0.0440      0.0000      0.0540      0.0000      0.0315      0.0000      0.0348      0.0000
  4      0.0000      0.1381      0.2045      0.3114      0.0905      0.2547      0.0000      0.0000      0.3394
  5      0.0000      0.0954      0.0000      0.1572      0.4223      0.1740      0.0000      0.1465      0.0000
  6      0.0000      0.0505      0.0000      0.0000      0.0000      0.0000      0.0000      0.0000      0.0000
  7     42.7492     43.9974     44.0858     43.9435     43.8863     43.9198     44.0259     44.2240     44.2064
  8      0.0000      0.1340      0.0000      0.0000      0.0000      0.0116      0.0709      0.0000      0.2234
  9      0.0000      0.2567      0.1374      0.4646      0.0000      0.5019      0.2016      0.3827      0.4164
 10     12.1987     11.7697     11.7360     11.8406     12.1088     11.8916     11.8624     11.7003     11.5583
 11      0.0000      0.0168      0.0000      0.0791      0.0201      0.0000      0.0000      0.0675      0.0000
 12     10.9914     11.2463     11.3036     11.1562     11.2029     11.1355     11.3453     11.2643     11.2595
 13      0.0000      0.0114      0.0504      0.0330      0.0000      0.0166      0.0159      0.0000      0.0000
 14      0.0000      0.0058      0.0000      0.0000      0.0000      0.0000      0.0000      0.0000      0.0000
 15      0.0000      0.0030      0.0000      0.0000      0.0000      0.0000      0.0005      0.0000      0.0000
 16      0.0000      0.0098      0.0000      0.0000      0.0000      0.0000      0.0000      0.0000      0.0000
 17      0.0000      0.0132      0.0000      0.0000      0.0000      0.0081      0.0000      0.0000      0.0000
 18      0.0000      0.0984      0.1125      0.1077      0.1650      0.3676      0.1834      0.3381      0.0681
 19      0.0000      0.0632      0.0000      0.0031      0.0000      0.0979      0.0266      0.0380      0.0000
 20      0.0000      0.0466      0.0000      0.0000      0.0000      0.0000      0.0000      0.0023      0.0000
 21      0.0000      0.1151      0.0886      0.0018      0.2212      0.0086      0.1744      0.0000      0.0343
 22      0.0000      0.1022      0.0395      0.0000      0.0138      0.0000      0.0000      0.0000      0.0000
 23      0.0000      0.0379      0.0000      0.0231      0.0000      0.0000      0.0000      0.0000      0.0000
 24      0.0000      0.0137      0.0000      0.0000      0.0000      0.0000      0.0000      0.0000      0.0000
 25      0.0000      0.0092      0.0000      0.0000      0.0000      0.0000      0.0000      0.0000      0.0000
 26      0.0000      0.0094      0.0000      0.0000      0.0000      0.0000      0.0000      0.0000      0.0000
 27      0.0000      0.0084      0.0000      0.0413      0.0141      0.0000      0.0000      0.0000      0.0185
 28      0.0000      0.0040      0.0000      0.0000      0.0100      0.0000      0.0181      0.0000      0.0000
 29      0.0000      0.0027      0.0151      0.0000      0.0000      0.0048      0.0000      0.0000      0.0000
 30      0.0000      0.0027      0.0000      0.0000      0.0000      0.0000      0.0000      0.0000      0.0000
 31      0.0000      0.0109      0.0169      0.0026      0.0000      0.0007      0.0000      0.0000      0.0000
 32      0.0000      0.0186      0.0000      0.0000      0.0000      0.0000      0.0000      0.0000      0.0000
 33      0.0000      0.0502      0.0000      0.0293      0.0000      0.0000      0.0030      0.0000      0.2294
 34      0.0000      0.0120      0.0000      0.0000      0.0000      0.0000      0.0021      0.0000      0.0000
 35      0.0000      0.0265      0.0505      0.0000      0.0000      0.0000      0.0204      0.0000      0.0697
 36      0.0000      0.1314      0.0751      0.0453      0.0417      0.1560      0.0000      0.1115      0.1694
 37      1.9609      0.4643      0.8681      0.5773      0.8185      0.6146      0.5422      0.4371      0.3528
 38      0.0000      0.0423      0.0000      0.0000      0.0000      0.0214      0.0000      0.0000      0.0270
 39      0.0000      0.0135      0.0000      0.0000      0.0000      0.0000      0.0000      0.0000      0.0000
 40      0.0000      0.0068      0.0000      0.0000      0.0000      0.0000      0.0000      0.0000      0.0000
 41      0.0000      0.0039      0.0000      0.0000      0.0000      0.0000      0.0000      0.0226      0.0000
 42      0.0000      0.0018      0.0000      0.0000      0.0000      0.0080      0.0083      0.0000      0.0000
 43      0.0000      0.0026      0.0000      0.0000      0.0000      0.0000      0.0000      0.0202      0.0171
 44      0.0000      0.0030      0.0277      0.0000      0.0000      0.0000      0.0187      0.0220      0.0000
 45      0.0000      0.0028      0.0000      0.0000      0.0000      0.0340      0.0000      0.0000      0.0361

# j      m_j: min, <> & last-chain-values for 1 ...  7 chains
  1  0.0000E+00  1.4668E-03  2.3010E-03  0.0000E+00  0.0000E+00  0.0000E+00  3.2797E-04  0.0000E+00  0.0000E+00
  2  9.0652E-01  8.5290E-01  8.4436E-01  8.6682E-01  8.6587E-01  8.3373E-01  8.5878E-01  8.5046E-01  8.3448E-01
  3  0.0000E+00  1.6484E-03  0.0000E+00  2.0433E-03  0.0000E+00  1.1598E-03  0.0000E+00  1.2902E-03  0.0000E+00
  4  0.0000E+00  9.6400E-03  1.4016E-02  2.1936E-02  6.3980E-03  1.7454E-02  0.0000E+00  0.0000E+00  2.3126E-02
  5  0.0000E+00  1.5401E-02  0.0000E+00  2.5602E-02  6.9004E-02  2.7577E-02  0.0000E+00  2.3376E-02  0.0000E+00
  6  0.0000E+00  1.1324E-02  0.0000E+00  0.0000E+00  0.0000E+00  0.0000E+00  0.0000E+00  0.0000E+00  0.0000E+00
  7  1.3972E+01  1.3995E+01  1.3769E+01  1.4107E+01  1.4134E+01  1.3716E+01  1.3865E+01  1.3912E+01  1.3726E+01
  8  0.0000E+00  8.2210E-02  0.0000E+00  0.0000E+00  0.0000E+00  7.0044E-03  4.3058E-02  0.0000E+00  1.3381E-01
  9  0.0000E+00  3.1368E-01  1.6488E-01  5.7285E-01  0.0000E+00  6.0207E-01  2.4385E-01  4.6238E-01  4.9666E-01
 10  2.1382E+01  2.0077E+01  1.9657E+01  2.0384E+01  2.0914E+01  1.9915E+01  2.0033E+01  1.9738E+01  1.9246E+01
 11  0.0000E+00  5.0383E-02  0.0000E+00  2.3928E-01  6.0916E-02  0.0000E+00  0.0000E+00  1.9984E-01  0.0000E+00
 12  6.2906E+01  6.2639E+01  6.1819E+01  6.2711E+01  6.3180E+01  6.0893E+01  6.2562E+01  6.2049E+01  6.1218E+01
 13  0.0000E+00  1.2674E-01  5.4916E-01  3.6943E-01  0.0000E+00  1.8114E-01  1.7443E-01  0.0000E+00  0.0000E+00
 14  0.0000E+00  1.3023E-01  0.0000E+00  0.0000E+00  0.0000E+00  0.0000E+00  0.0000E+00  0.0000E+00  0.0000E+00
 15  0.0000E+00  7.9514E-02  0.0000E+00  0.0000E+00  0.0000E+00  0.0000E+00  1.3083E-02  0.0000E+00  0.0000E+00
 16  0.0000E+00  4.9319E-04  0.0000E+00  0.0000E+00  0.0000E+00  0.0000E+00  0.0000E+00  0.0000E+00  0.0000E+00
 17  0.0000E+00  3.4424E-04  0.0000E+00  0.0000E+00  0.0000E+00  2.0805E-04  0.0000E+00  0.0000E+00  0.0000E+00
 18  0.0000E+00  2.8503E-03  3.2007E-03  3.1508E-03  4.8406E-03  1.0458E-02  5.2620E-03  9.6888E-03  1.9266E-03
 19  0.0000E+00  5.4742E-03  0.0000E+00  2.7406E-04  0.0000E+00  8.3306E-03  2.2851E-03  3.2596E-03  0.0000E+00
 20  0.0000E+00  8.9853E-03  0.0000E+00  0.0000E+00  0.0000E+00  0.0000E+00  0.0000E+00  4.3669E-04  0.0000E+00
 21  0.0000E+00  2.6638E-02  2.0145E-02  4.2322E-04  5.1838E-02  1.9534E-03  3.9970E-02  0.0000E+00  7.7404E-03
 22  0.0000E+00  3.9346E-02  1.4941E-02  0.0000E+00  5.3883E-03  0.0000E+00  0.0000E+00  0.0000E+00  0.0000E+00
 23  0.0000E+00  2.8675E-02  0.0000E+00  1.7634E-02  0.0000E+00  0.0000E+00  0.0000E+00  0.0000E+00  0.0000E+00
 24  0.0000E+00  2.3631E-02  0.0000E+00  0.0000E+00  0.0000E+00  0.0000E+00  0.0000E+00  0.0000E+00  0.0000E+00
 25  0.0000E+00  2.4451E-02  0.0000E+00  0.0000E+00  0.0000E+00  0.0000E+00  0.0000E+00  0.0000E+00  0.0000E+00
 26  0.0000E+00  4.7193E-02  0.0000E+00  0.0000E+00  0.0000E+00  0.0000E+00  0.0000E+00  0.0000E+00  0.0000E+00
 27  0.0000E+00  8.5300E-02  0.0000E+00  4.2569E-01  1.4579E-01  0.0000E+00  0.0000E+00  0.0000E+00  1.8408E-01
 28  0.0000E+00  8.1695E-02  0.0000E+00  0.0000E+00  2.0849E-01  0.0000E+00  3.7050E-01  0.0000E+00  0.0000E+00
 29  0.0000E+00  1.1958E-01  6.4639E-01  0.0000E+00  0.0000E+00  2.0749E-01  0.0000E+00  0.0000E+00  0.0000E+00
 30  0.0000E+00  1.4216E-01  0.0000E+00  0.0000E+00  0.0000E+00  0.0000E+00  0.0000E+00  0.0000E+00  0.0000E+00
 31  0.0000E+00  4.1155E-04  6.2485E-04  9.8733E-05  0.0000E+00  2.4415E-05  0.0000E+00  0.0000E+00  0.0000E+00
 32  0.0000E+00  3.7055E-04  0.0000E+00  0.0000E+00  0.0000E+00  0.0000E+00  0.0000E+00  0.0000E+00  0.0000E+00
 33  0.0000E+00  1.4813E-03  0.0000E+00  8.7383E-04  0.0000E+00  0.0000E+00  8.6601E-05  0.0000E+00  6.6124E-03
