BITPIX  =                    8  /  8-bit ASCII characters                       
NAXIS   =                    1  /  Number of Image Dimensions                   
NAXIS1  =                 2048  /  Length of axis                               
ORIGIN  = 'NOAO-IRAF: WTEXTIMAGE'  /
IRAF-MAX=                   0.  /  Max image pixel (out of date)                
IRAF-MIN=                   0.  /  Min image pixel (out of date)                
IRAF-B/P=                   32  /  Image bits per pixel                         
IRAFTYPE= 'REAL FLOATING     '  /  Image datatype                              
OBJECT  = 'S HR  6018        R+L 130224'  /
FILENAME= 'SDR_1.0001.FITS   '  /  IRAF filename                               
FORMAT  = '5G14.7            '  /  Text line format                            
EXTEND  =                    F / File may contain extensions                    
ORIGIN  = 'NOAO-IRAF FITS Image Kernel July 2003' / FITS file originator        
DATE    = '2015-11-16T02:30:03' / Date FITS file was generated                  
IRAF-TLM= '2015-11-16T02:30:03' / Time of last modification                     
                                                                                
CRVAL1  =   3892.2                                                  
CDELT1  =   1.25                                                  
CRPIX1  =                    1                                                  
STATUS  = 'SPECTRUM                                                        '    
CTYPE1  = 'LAMBDA                                                          '    
OBJECT  = 'S HR  6018        R+L 130224'                                        
OBSNUM  =                13224                                                  
SDR RUN =                   13                                                  
RUN TAPE=                    2                                                  
TAPESCAN=                   24                                                  
IDS SLIT= 'R+L                                                             '    
INSTRUME= 'Lick 3.0 mts, Blue ITS                                          '    
OBSERVER= 'S.M. Faber et al                                                '    
TAPENUM =                 1061                                                  
LICK    = 'FITS2                                                           '    
APNUM1  = '1 0 1.00 1.00 1.00 1.00'                                             
DC-FLAG =                    0                                                  
WCSDIM  =                    1                                                  
CD1_1   =  1.25                                                  
LTM1_1  =                   1.                                                  
WAT0_001= 'system=equispec'                                                     
WAT1_001= 'wtype=linear label=lambda units=angstroms'                           
END                                                                             
                                                                                
                                                                                
                                                                                
                                                                                
                                                                                
                                                                                
                                                                                
                                                                                
                                                                                
                                                                                
                                                                                
                                                                                
                                                                                
                                                                                
                                                                                
                                                                                
                                                                                
                                                                                
                                                                                
                                                                                
                                                                                
                                                                                
                                                                                
                                                                                
                                                                                
                                                                                
                                                                                
                                                                                
                                                                                
                                                                                
                                                                                
3892.2  -2395.444
3893.4  63.16504
3894.7  63.90158
3895.9  90.49271
3897.2  104.2797
3898.4  98.34747
3899.7  100.1884
3900.9  110.0068
3902.2  117.4933
3903.4  121.2572
3904.7  125.3893
3905.9  130.503
3907.2  131.7302
3908.4  128.8664
3909.7  136.3941
3910.9  132.8758
3912.2  127.9663
3913.4  130.8301
3914.7  128.3346
3915.9  120.3163
3917.2  114.4252
3918.4  105.6704
3919.7  100.8022
3920.9  95.5249
3922.2  90.73823
3923.4  86.64732
3924.7  77.81093
3925.9  78.71101
3927.2  76.91086
3928.4  67.95171
3929.7  72.45168
3930.9  71.2653
3932.2  73.39252
3933.4  79.61066
3934.7  87.71093
3935.9  90.16564
3937.2  102.4388
3938.4  110.7842
3939.7  118.5162
3940.9  129.5622
3942.2  130.1755
3943.4  140.2395
3944.7  150.5897
3945.9  149.6077
3947.2  155.5807
3948.4  159.0583
3949.7  166.1357
3950.9  156.5216
3952.2  154.6806
3953.4  156.44
3954.7  151.5714
3955.9  138.6029
3957.2  130.7485
3958.4  126.2482
3959.7  121.5847
3960.9  114.4252
3962.2  106.5297
3963.4  98.18393
3964.7  96.71127
3965.9  104.157
3967.2  109.2295
3968.4  117.6573
3969.7  125.7983
3970.9  142.1212
3972.2  158.4445
3973.4  171.2902
3974.7  184.054
3975.9  197.2272
3977.2  207.741
3978.4  218.7458
3979.7  238.7098
3980.9  254.8691
3982.2  270.497
3983.4  273.1153
3984.7  275.5696
3985.9  276.9607
3987.2  281.0108
3988.4  283.2608
3989.7  279.2515
3990.9  286.2066
3992.2  282.4835
3993.4  297.784
3994.7  294.7974
3995.9  301.7113
3997.2  318.9343
3998.4  305.4752
3999.7  306.416
4000.9  312.1843
4002.2  315.7434
4003.4  317.7479
4004.7  324.048
4005.9  335.8709
4007.2  328.3844
4008.4  337.0165
4009.7  346.3032
4010.9  345.5666
4012.2  359.6399
4013.4  357.635
4014.7  379.8494
4015.9  368.7218
4017.2  385.0451
4018.4  384.6768
4019.7  374.1219
4020.9  363.8128
4022.2  368.5171
4023.4  367.2899
4024.7  366.8809
4025.9  368.272
4027.2  357.4307
4028.4  348.1033
4029.7  344.4214
4030.9  344.3394
4032.2  343.3166
4033.4  339.021
4034.7  349.2077
4035.9  347.0805
4037.2  353.8716
4038.4  350.8851
4039.7  356.6942
4040.9  350.1486
4042.2  350.6396
4043.4  363.9356
4044.7  346.8757
4045.9  345.5666
4047.2  338.6939
4048.4  349.1669
4049.7  361.4396
4050.9  364.7537
4052.2  360.54
4053.4  359.2716
4054.7  353.7076
4055.9  358.9854
4057.2  360.7035
4058.4  352.4805
4059.7  351.4989
4060.9  356.3259
4062.2  357.635
4063.4  360.1717
4064.7  357.5123
4065.9  360.458
4067.2  365.1219
4068.4  378.4175
4069.7  379.3996
4070.9  381.0765
4072.2  398.9952
4073.4  390.977
4074.7  402.1861
4075.9  402.0633
4077.2  420.1456
4078.4  417.6913
4079.7  438.0235
4080.9  453.651
4082.2  459.7876
4083.4  468.8695
4084.7  475.9877
4085.9  460.6057
4087.2  481.7972
4088.4  484.7833
4089.7  477.9106
4090.9  475.6199
4092.2  482.4926
4093.4  473.7377
4094.7  463.7558
4095.9  456.3513
4097.2  448.9055
4098.4  450.0919
4099.7  435.7323
4100.9  443.9553
4102.2  432.214
4103.4  436.6324
4104.7  447.3917
4105.9  452.3419
4107.2  449.4373
4108.4  455.41
4109.7  466.865
4110.9  471.3242
4112.2  470.6284
4113.4  476.356
4114.7  484.1288
4115.9  483.5562
4117.2  476.6015
4118.4  470.2606
4119.7  469.0742
4120.9  470.9559
4122.2  461.9556
4123.4  464.9829
4124.7  470.874
4125.9  461.6285
4127.2  446.3281
4128.4  452.669
4129.7  457.8647
4130.9  446.2461
4132.2  441.3371
4133.4  436.5504
4134.7  436.3461
4135.9  454.8374
4137.2  461.5058
4138.4  450.7873
4139.7  444.5279
4140.9  437.0007
4142.2  442.769
4143.4  432.296
4144.7  428.6961
4145.9  424.8503
4147.2  433.2368
4148.4  446.4508
4149.7  433.5643
4150.9  434.6279
4152.2  438.187
4153.4  443.5463
4154.7  450.0919
4155.9  449.3554
4157.2  466.2105
4158.4  477.9514
4159.7  492.8836
4160.9  487.9746
4162.2  495.2155
4163.4  501.9659
4164.7  498.4476
4165.9  492.802
4167.2  477.4196
4168.4  472.0196
4169.7  462.4059
4170.9  464.7378
4172.2  466.0057
4173.4  466.2513
4174.7  450.7053
4175.9  464.4511
4177.2  471.5285
4178.4  478.7287
4179.7  484.9881
4180.9  492.4337
4182.2  490.6744
4183.4  497.9565
4184.7  500.4521
4185.9  509.1249
4187.2  504.2975
4188.4  511.7839
4189.7  515.3434
4190.9  502.5385
4192.2  498.9382
4193.4  520.1705
4194.7  506.5886
4195.9  494.6017
4197.2  496.9745
4198.4  505.7293
4199.7  499.9202
4200.9  508.9206
4202.2  517.6342
4203.4  540.1757
4204.7  543.8983
4205.9  560.3851
4207.2  568.1579
4208.4  579.8585
4209.7  572.29
4210.9  583.2948
4212.2  579.0811
4213.4  588.9404
4214.7  585.913
4215.9  597.8995
4217.2  615.0001
4218.4  601.4178
4219.7  602.7681
4220.9  589.4722
4222.2  589.3087
4223.4  569.5082
4224.7  554.9443
4225.9  551.0169
4227.2  550.6894
4228.4  567.1355
4229.7  590.495
4230.9  604.5271
4232.2  619.0502
4233.4  633.1231
4234.7  638.3188
4235.9  656.5239
4237.2  659.1421
4238.4  664.4601
4239.7  681.3152
4240.9  666.8741
4242.2  682.0106
4243.4  680.7015
4244.7  677.2651
4245.9  679.4331
4247.2  673.4605
4248.4  669.4512
4249.7  652.76
4250.9  650.3873
4252.2  640.5688
4253.4  636.9685
4254.7  633.9412
4255.9  644.9872
4257.2  663.8056
4258.4  667.2012
4259.7  674.7697
4260.9  690.2744
4262.2  687.5334
4263.4  682.8287
4264.7  695.1019
4265.9  686.6745
4267.2  660.41
4268.4  644.1279
4269.7  631.7733
4270.9  611.6046
4272.2  610.4182
4273.4  608.2498
4274.7  626.5367
4275.9  642.4098
4277.2  655.0508
4278.4  666.5466
4279.7  672.3969
4280.9  678.4922
4282.2  675.6285
4283.4  669.1241
4284.7  671.0466
4285.9  671.3741
4287.2  655.8693
4288.4  642.4098
4289.7  630.3005
4290.9  625.4731
4292.2  625.3911
4293.4  606.6951
4294.7  589.4314
4295.9  575.9719
4297.2  558.6669
4298.4  544.9211
4299.7  522.8707
4300.9  508.0613
4302.2  498.8566
4303.4  499.6747
4304.7  499.2657
4305.9  500.0838
4307.2  516.9797
4308.4  546.5577
4309.7  583.7858
4310.9  646.7054
4312.2  699.0292
4313.4  743.5803
4314.7  812.6772
4315.9  849.9461
4317.2  863.6511
4318.4  881.4467
4319.7  873.5104
4320.9  856.6553
4322.2  843.9323
4323.4  830.3504
4324.7  821.7591
4325.9  836.5278
4327.2  879.8513
4328.4  896.3788
4329.7  919.207
4330.9  948.4984
4332.2  959.0941
4333.4  965.1895
4334.7  944.5302
4335.9  938.2709
4337.2  916.2612
4338.4  914.0521
4339.7  906.4836
4340.9  917.7751
4342.2  921.8248
4343.4  924.6886
4344.7  953.2438
4345.9  976.5218
4347.2  989.04
4348.4  970.4672
4349.7  975.2534
4350.9  969.8534
4352.2  966.8669
4353.4  974.2718
4354.7  988.8765
4355.9  990.8402
4357.2  1003.318
4358.4  1035.391
4359.7  1046.519
4360.9  1056.582
4362.2  1059.078
4363.4  1063.906
4364.7  1052.41
4365.9  1046.191
4367.2  1034.9
4368.4  1019.027
4369.7  1002.54
4370.9  983.2717
4372.2  985.7264
4373.4  978.5262
4374.7  967.1944
4375.9  948.212
4377.2  935.3251
4378.4  916.5887
4379.7  889.7924
4380.9  862.5875
4382.2  850.0688
4383.4  834.9731
4384.7  846.6325
4385.9  869.3375
4387.2  895.1109
4388.4  904.7246
4389.7  936.7162
4390.9  986.9948
4392.2  983.9675
4393.4  1017.186
4394.7  1011.868
4395.9  1032.527
4397.2  1024.918
4398.4  1041.569
4399.7  1021.196
4400.9  997.8356
4402.2  986.5858
4403.4  977.3399
4404.7  979.8762
4405.9  987.4039
4407.2  992.8859
4408.4  1031.137
4409.7  1069.756
4410.9  1079.124
4412.2  1123.675
4413.4  1119.707
4414.7  1111.279
4415.9  1127.807
4417.2  1143.23
4418.4  1152.312
4419.7  1160.412
4420.9  1172.644
4422.2  1174.567
4423.4  1172.031
4424.7  1184.631
4425.9  1168.676
4427.2  1168.103
4428.4  1164.135
4429.7  1172.89
4430.9  1155.83
4432.2  1155.421
4433.4  1164.953
4434.7  1176.94
4435.9  1189.09
4437.2  1208.645
4438.4  1230.614
4439.7  1242.273
4440.9  1247.223
4442.2  1257.737
4443.4  1270.705
4444.7  1270.01
4445.9  1275.86
4447.2  1288.706
4448.4  1279.378
4449.7  1266.165
4450.9  1241.291
4452.2  1211.386
4453.4  1197.886
4454.7  1180.703
4455.9  1169.453
4457.2  1147.444
4458.4  1156.076
4459.7  1169.74
4460.9  1173.994
4462.2  1194.735
4463.4  1229.345
4464.7  1279.419
4465.9  1293.451
4467.2  1309.079
4468.4  1324.87
4469.7  1373.021
4470.9  1402.108
4472.2  1408.327
4473.4  1420.518
4474.7  1438.437
4475.9  1447.805
4477.2  1458.932
4478.4  1435.859
4479.7  1436.636
4480.9  1422.604
4482.2  1440.237
4483.4  1424.609
4484.7  1436.636
4485.9  1434.509
4487.2  1435.041
4488.4  1432.832
4489.7  1402.068
4490.9  1390.572
4492.2  1407.754
4493.4  1405.218
4494.7  1417.368
4495.9  1438.027
4497.2  1463.883
4498.4  1481.597
4499.7  1517.393
4500.9  1548.607
4502.2  1603.263
4503.4  1594.836
4504.7  1620.363
4505.9  1629.118
4507.2  1618.113
4508.4  1607.19
4509.7  1586.981
4510.9  1567.18
4512.2  1572.253
4513.4  1563.171
4514.7  1571.517
4515.9  1571.19
4517.2  1567.876
4518.4  1572.212
4519.7  1547.953
4520.9  1529.297
4522.2  1497.592
4523.4  1470.796
4524.7  1426.982
4525.9  1401.004
4527.2  1382.799
4528.4  1379.485
4529.7  1399.449
4530.9  1401.658
4532.2  1414.259
4533.4  1436.105
4534.7  1468.014
4535.9  1492.07
4537.2  1540.875
4538.4  1555.071
4539.7  1547.462
4540.9  1542.921
4542.2  1547.38
4543.4  1556.216
4544.7  1551.757
4545.9  1542.143
4547.2  1539.893
4548.4  1543.698
4549.7  1545.58
4550.9  1545.621
4552.2  1548.894
4553.4  1557.526
4554.7  1572.908
4555.9  1589.108
4557.2  1612.468
4558.4  1635.296
4559.7  1628.423
4560.9  1630.468
4562.2  1624.7
4563.4  1640.041
4564.7  1644.337
4565.9  1640.45
4567.2  1657.223
4568.4  1667.614
4569.7  1667.532
4570.9  1682.751
4572.2  1698.501
4573.4  1687.824
4574.7  1686.065
4575.9  1654.646
4577.2  1645.114
4578.4  1612.754
4579.7  1574.585
4580.9  1566.608
4582.2  1582.972
4583.4  1600.767
4584.7  1628.218
4585.9  1670.764
4587.2  1689.174
4588.4  1705.947
4589.7  1685.369
4590.9  1673.669
4592.2  1660.21
4593.4  1630.959
4594.7  1628.873
4595.9  1636.891
4597.2  1651.864
4598.4  1644.255
4599.7  1667.778
4600.9  1696.292
4602.2  1710.324
4603.4  1753.075
4604.7  1782.653
4605.9  1807.977
4607.2  1814.931
4608.4  1830.354
4609.7  1855.228
4610.9  1866.355
4612.2  1867.419
4613.4  1855.555
4614.7  1861.487
4615.9  1865.496
4617.2  1870.773
4618.4  1866.928
4619.7  1888.16
4620.9  1904.319
4622.2  1921.052
4623.4  1926.411
4624.7  1904.319
4625.9  1915.979
4627.2  1908.942
4628.4  1906.856
4629.7  1864.187
4630.9  1854.205
4632.2  1846.432
4633.4  1827.941
4634.7  1773.899
4635.9  1764.776
4637.2  1759.621
4638.4  1766.985
4639.7  1741.579
4640.9  1741.866
4642.2  1756.553
4643.4  1732.866
4644.7  1708.074
4645.9  1699.156
4647.2  1724.643
4648.4  1723.293
4649.7  1759.335
4650.9  1775.371
4652.2  1787.194
4653.4  1800.531
4654.7  1822.009
4655.9  1845.614
4657.2  1835.223
4658.4  1827.123
4659.7  1806.79
4660.9  1805.931
4662.2  1773.08
4663.4  1725.461
4664.7  1700.915
4665.9  1704.883
4667.2  1696.456
4668.4  1719.243
4669.7  1734.134
4670.9  1760.235
4672.2  1807.077
4673.4  1827.041
4674.7  1828.595
4675.9  1818.94
4677.2  1805.113
4678.4  1809.04
4679.7  1805.972
4680.9  1822.459
4682.2  1827.818
4683.4  1818.163
4684.7  1824.259
4685.9  1794.108
4687.2  1817.999
4688.4  1808.468
4689.7  1817.795
4690.9  1825.118
4692.2  1817.999
4693.4  1829.495
4694.7  1822.99
4695.9  1824.954
4697.2  1818.531
4698.4  1794.476
4699.7  1766.085
4700.9  1744.852
4702.2  1753.771
4703.4  1767.394
4704.7  1783.103
4705.9  1784.412
4707.2  1785.23
4708.4  1807.813
4709.7  1821.436
4710.9  1827.982
4712.2  1857.518
4713.4  1872.778
4714.7  1902.765
4715.9  1971.003
4717.2  2006.881
4718.4  2042.145
4719.7  2060.309
4720.9  2056.055
4722.2  2038.3
4723.4  2001.972
4724.7  1979.43
4725.9  1969.612
4727.2  1927.106
4728.4  1910.006
4729.7  1890.001
4730.9  1897.119
4732.2  1933.611
4733.4  1939.052
4734.7  1947.234
4735.9  1968.098
4737.2  1972.026
4738.4  2005.245
4739.7  2000.049
4740.9  2014.981
4742.2  2042.186
4743.4  2059.082
4744.7  2072.705
4745.9  2073.687
4747.2  2096.065
4748.4  2092.587
4749.7  2077.737
4750.9  2061.455
4752.2  2055.441
4753.4  2034.25
4754.7  2039.773
4755.9  2048.282
4757.2  2042.636
4758.4  2023.531
4759.7  2025.045
4760.9  2000.622
4762.2  1982.908
4763.4  1990.476
4764.7  1984.217
4765.9  1995.303
4767.2  1996.613
4768.4  2007.985
4769.7  2034.536
4770.9  2071.928
4772.2  2108.379
4773.4  2121.265
4774.7  2125.315
4775.9  2127.279
4777.2  2151.416
4778.4  2140.084
4779.7  2125.356
4780.9  2101.015
4782.2  2086.41
4783.4  2096.678
4784.7  2082.196
4785.9  2100.565
4787.2  2121.184
4788.4  2113.656
4789.7  2129.447
4790.9  2145.688
4792.2  2155.752
4793.4  2165.98
4794.7  2175.267
4795.9  2168.721
4797.2  2179.317
4798.4  2200.59
4799.7  2190.608
4800.9  2199.976
4802.2  2180.585
4803.4  2169.498
4804.7  2174.162
4805.9  2146.384
4807.2  2146.793
4808.4  2158.616
4809.7  2159.353
4810.9  2181.117
4812.2  2212.781
4813.4  2235.527
4814.7  2246.409
4815.9  2270.423
4817.2  2269.605
4818.4  2261.546
4819.7  2258.968
4820.9  2241.132
4822.2  2223.336
4823.4  2225.013
4824.7  2218.058
4825.9  2202.308
4827.2  2209.59
4828.4  2200.794
4829.7  2197.235
4830.9  2204.354
4832.2  2205.99
4833.4  2211.677
4834.7  2215.358
4835.9  2213.927
4837.2  2195.435
4838.4  2172.894
4839.7  2168.844
4840.9  2161.357
4842.2  2152.562
4843.4  2168.516
4844.7  2202.922
4845.9  2209.754
4847.2  2216.872
4848.4  2228.245
4849.7  2227.918
4850.9  2206.113
4852.2  2182.385
4853.4  2121.429
4854.7  2075.16
4855.9  2034.618
4857.2  1994.035
4858.4  1955.048
4859.7  1940.688
4860.9  1935.861
4862.2  1931.729
4863.4  1958.607
4864.7  1994.894
4865.9  2009.458
4867.2  2013.304
4868.4  2022.836
4869.7  2051.964
4870.9  2037.604
4872.2  2050.696
4873.4  2064.441
4874.7  2087.924
4875.9  2120.243
4877.2  2149.289
4878.4  2160.621
4879.7  2163.73
4880.9  2178.662
4882.2  2156.366
4883.4  2135.338
4884.7  2103.674
4885.9  2077.819
4887.2  2055.114
4888.4  2069.678
4889.7  2095.819
4890.9  2146.343
4892.2  2231.681
4893.4  2291.574
4894.7  2327.697
4895.9  2364.107
4897.2  2366.234
4898.4  2387.262
4899.7  2370.98
4900.9  2363.984
4902.2  2357.643
4903.4  2336.738
4904.7  2343.979
4905.9  2328.72
4907.2  2286.01
4908.4  2285.069
4909.7  2289.978
4910.9  2278.523
4912.2  2273.042
4913.4  2255.696
4914.7  2234.545
4915.9  2179.317
4917.2  2124.579
4918.4  2095.942
4919.7  2079.66
4920.9  2078.392
4922.2  2088.619
4923.4  2157.594
4924.7  2203.904
4925.9  2254.386
4927.2  2299.428
4928.4  2336.493
4929.7  2339.847
4930.9  2339.479
4932.2  2323.443
4933.4  2285.601
4934.7  2259.787
4935.9  2252.545
4937.2  2246.736
4938.4  2243.75
4939.7  2262.037
4940.9  2310.801
4942.2  2355.557
4943.4  2396.262
4944.7  2428.704
4945.9  2452.146
4947.2  2495.183
4948.4  2469.859
4949.7  2461.882
4950.9  2464.255
4952.2  2417.822
4953.4  2374.866
4954.7  2365.498
4955.9  2338.579
4957.2  2344.143
4958.4  2356.375
4959.7  2346.802
