BITPIX  =                    8  /  8-bit ASCII characters                       
NAXIS   =                    1  /  Number of Image Dimensions                   
NAXIS1  =                 2048  /  Length of axis                               
ORIGIN  = 'NOAO-IRAF: WTEXTIMAGE'  /
IRAF-MAX=                   0.  /  Max image pixel (out of date)                
IRAF-MIN=                   0.  /  Min image pixel (out of date)                
IRAF-B/P=                   32  /  Image bits per pixel                         
IRAFTYPE= 'REAL FLOATING     '  /  Image datatype                              
OBJECT  = 'S HR  6018        R+L 380420'  /
FILENAME= 'SDR_2.0001.FITS   '  /  IRAF filename                               
FORMAT  = '5G14.7            '  /  Text line format                            
EXTEND  =                    F / File may contain extensions                    
ORIGIN  = 'NOAO-IRAF FITS Image Kernel July 2003' / FITS file originator        
DATE    = '2015-11-16T02:30:19' / Date FITS file was generated                  
IRAF-TLM= '2015-11-16T02:30:19' / Time of last modification                     
                                                                                
CRVAL1  =   3915.1                                                  
CDELT1  =   1.25                                                  
CRPIX1  =                    1                                                  
STATUS  = 'SPECTRUM                                                        '    
CTYPE1  = 'LAMBDA                                                          '    
OBJECT  = 'S HR  6018        R+L 380420'                                        
OBSNUM  =                38420                                                  
SDR RUN =                   38                                                  
RUN TAPE=                    4                                                  
TAPESCAN=                   20                                                  
IDS SLIT= 'R+L                                                             '    
INSTRUME= 'Lick 3.0 mts, Blue ITS                                          '    
OBSERVER= 'S.M. Faber et al                                                '    
TAPENUM =                  343                                                  
LICK    = 'FITS2                                                           '    
APNUM1  = '1 0 1.00 1.00 1.00 1.00'                                             
DC-FLAG =                    0                                                  
WCSDIM  =                    1                                                  
CD1_1   =  1.25                                                  
LTM1_1  =                   1.                                                  
WAT0_001= 'system=equispec'                                                     
WAT1_001= 'wtype=linear label=lambda units=angstroms'                           
END                                                                             
                                                                                
                                                                                
                                                                                
                                                                                
                                                                                
                                                                                
                                                                                
                                                                                
                                                                                
                                                                                
                                                                                
                                                                                
                                                                                
                                                                                
                                                                                
                                                                                
                                                                                
                                                                                
                                                                                
                                                                                
                                                                                
                                                                                
                                                                                
                                                                                
                                                                                
                                                                                
                                                                                
                                                                                
                                                                                
                                                                                
                                                                                
3915.1  -917.2602
3916.4  -461.1557
3917.6  37.53393
3918.9  36.78547
3920.1  36.65458
3921.4  43.36217
3922.6  51.30495
3923.9  53.45221
3925.1  51.91028
3926.4  47.444
3927.6  50.69555
3928.9  54.17205
3930.1  53.52174
3931.4  47.29676
3932.6  43.77118
3933.9  44.28652
3935.1  42.37239
3936.4  41.3049
3937.6  35.43166
3938.9  36.36011
3940.1  32.77726
3941.4  23.61566
3942.6  22.83038
3943.9  25.54205
3945.1  31.00628
3946.4  37.43168
3947.6  43.43171
3948.9  51.54627
3950.1  54.7651
3951.4  60.18026
3952.6  64.65472
3953.9  64.36024
3955.1  66.98602
3956.4  60.57698
3957.6  60.51564
3958.9  56.30294
3960.1  51.69761
3961.4  45.55851
3962.6  41.82026
3963.9  38.85499
3965.1  37.49712
3966.4  35.53393
3967.6  31.47255
3968.9  32.13513
3970.1  34.36419
3971.4  34.58913
3972.6  36.24149
3973.9  39.5503
3975.1  40.35195
3976.4  47.6894
3977.6  54.94097
3978.9  55.75896
3980.1  67.10872
3981.4  70.37663
3982.6  76.24986
3983.9  80.16809
3985.1  84.93703
3986.4  88.59349
3987.6  92.85118
3988.9  93.85323
3990.1  97.75509
3991.4  97.73465
3992.6  105.2316
3993.9  102.6017
3995.1  102.7571
3996.4  106.295
3997.6  108.1314
3998.9  111.3012
4000.1  113.4975
4001.4  116.3891
4002.6  113.2971
4003.9  113.8002
4005.1  113.2725
4006.4  112.1969
4007.6  113.2807
4008.9  111.6979
4010.1  115.8493
4011.4  120.8391
4012.6  121.5425
4013.9  122.2174
4015.1  122.2174
4016.4  125.8616
4017.6  126.3851
4018.9  126.6878
4020.1  127.8329
4021.4  127.154
4022.6  129.3871
4023.9  129.5548
4025.1  131.0641
4026.4  126.7491
4027.6  126.3156
4028.9  118.9413
4030.1  115.8206
4031.4  113.702
4032.6  112.5323
4033.9  110.8799
4035.1  116.1151
4036.4  119.7634
4037.6  119.2726
4038.9  125.6244
4040.1  127.8329
4041.4  126.5528
4042.6  124.0374
4043.9  120.3196
4045.1  120.291
4046.4  118.246
4047.6  120.7163
4048.9  126.1929
4050.1  130.9045
4051.4  129.1786
4052.6  130.1438
4053.9  130.4424
4055.1  130.0497
4056.4  127.5507
4057.6  123.3503
4058.9  123.9802
4060.1  124.9659
4061.4  117.9106
4062.6  120.565
4063.9  117.2276
4065.1  120.929
4066.4  125.109
4067.6  124.8718
4068.9  127.3299
4070.1  131.8657
4071.4  129.5998
4072.6  131.9639
4073.9  135.2318
4075.1  132.1152
4076.4  138.7001
4077.6  141.8985
4078.9  143.1745
4080.1  147.8535
4081.4  156.0458
4082.6  157.3259
4083.9  156.3321
4085.1  160.054
4086.4  171.1011
4087.6  170.3158
4088.9  165.8495
4090.1  173.6082
4091.4  170.7861
4092.6  162.2544
4093.9  155.2605
4095.1  152.8474
4096.4  147.3586
4097.6  145.0396
4098.9  143.6326
4100.1  142.467
4101.4  143.5467
4102.6  144.3484
4103.9  148.4302
4105.1  148.9537
4106.4  152.7124
4107.6  155.7308
4108.9  155.919
4110.1  158.6511
4111.4  158.6388
4112.6  156.3443
4113.9  155.8413
4115.1  159.8208
4116.4  162.099
4117.6  160.6511
4118.9  156.0417
4120.1  163.9068
4121.4  159.0028
4122.6  157.3587
4123.9  155.604
4125.1  155.0069
4126.4  149.0723
4127.6  143.1991
4128.9  143.1091
4130.1  139.6367
4131.4  143.5917
4132.6  141.4935
4133.9  139.9966
4135.1  140.7451
4136.4  143.6326
4137.6  143.4077
4138.9  137.2972
4140.1  138.9864
4141.4  135.5303
4142.6  135.2849
4143.9  132.1438
4145.1  131.5835
4146.4  134.0048
4147.6  134.9086
4148.9  132.8677
4150.1  136.0007
4151.4  138.3688
4152.6  139.7144
4153.9  141.6285
4155.1  143.3627
4156.4  151.8044
4157.6  152.8965
4158.9  160.7738
4160.1  166.8475
4161.4  169.2646
4162.6  164.2912
4163.9  166.0336
4165.1  161.6245
4166.4  157.4159
4167.6  157.2237
4168.9  154.8188
4170.1  153.555
4171.4  152.2339
4172.6  151.2318
4173.9  150.4547
4175.1  152.7083
4176.4  152.0744
4177.6  153.1582
4178.9  153.6122
4180.1  152.3934
4181.4  152.8188
4182.6  157.1419
4183.9  160.4793
4185.1  160.1235
4186.4  165.3996
4187.6  168.8188
4188.9  169.5878
4190.1  168.5612
4191.4  169.007
4192.6  162.5161
4193.9  158.3771
4195.1  154.2503
4196.4  151.1378
4197.6  150.9169
4198.9  153.0151
4200.1  157.5754
4201.4  163.6777
4202.6  167.2483
4203.9  168.872
4205.1  179.0684
4206.4  181.1461
4207.6  176.4303
4208.9  180.7903
4210.1  176.8884
4211.4  179.641
4212.6  183.2197
4213.9  184.7412
4215.1  184.9866
4216.4  187.9846
4217.6  191.9887
4218.9  191.3629
4220.1  188.9253
4221.4  188.1523
4222.6  180.005
4223.9  172.7943
4225.1  169.3628
4226.4  170.8925
4227.6  172.7289
4228.9  185.142
4230.1  192.3772
4231.4  194.2014
4232.6  196.3241
4233.9  198.2341
4235.1  196.5654
4236.4  198.3036
4237.6  200.7945
4238.9  202.41
4240.1  208.8109
4241.4  213.772
4242.6  214.5491
4243.9  214.9172
4245.1  206.999
4246.4  209.0317
4247.6  203.8415
4248.9  193.9355
4250.1  187.5388
4251.4  189.3547
4252.6  188.6512
4253.9  193.6083
4255.1  195.9069
4256.4  196.7863
4257.6  198.774
4258.9  199.5347
4260.1  202.9581
4261.4  205.6902
4262.6  208.091
4263.9  216.3978
4265.1  214.4878
4266.4  211.0481
4267.6  203.3875
4268.9  195.8333
4270.1  187.8537
4271.4  183.2238
4272.6  182.2463
4273.9  185.3956
4275.1  189.821
4276.4  196.455
4277.6  201.6697
4278.9  206.7945
4280.1  208.3405
4281.4  204.7045
4282.6  208.0133
4283.9  204.999
4285.1  201.1462
4286.4  196.7167
4287.6  196.6268
4288.9  191.6247
4290.1  191.3793
4291.4  192.185
4292.6  193.6574
4293.9  184.8516
4295.1  179.9068
4296.4  172.9129
4297.6  165.8331
4298.9  157.1787
4300.1  149.1337
4301.4  145.5549
4302.6  144.5365
4303.9  141.7962
4305.1  133.7471
4306.4  136.7655
4307.6  143.2972
4308.9  151.7104
4310.1  164.238
4311.4  182.3199
4312.6  197.6452
4313.9  224.177
4315.1  241.036
4316.4  251.5923
4317.6  251.0115
4318.9  248.0994
4320.1  243.6086
4321.4  234.1525
4322.6  227.2813
4323.9  226.5206
4325.1  225.04
4326.4  233.8089
4327.6  244.6024
4328.9  258.7375
4330.1  268.6557
4331.4  271.1711
4332.6  275.5801
4333.9  273.032
4335.1  267.6087
4336.4  262.4471
4337.6  255.7272
4338.9  252.7825
4340.1  249.8949
4341.4  257.4001
4342.6  264.3285
4343.9  272.5249
4345.1  281.437
4346.4  285.9524
4347.6  283.3838
4348.9  277.9932
4350.1  272.6312
4351.4  271.3265
4352.6  272.7744
4353.9  274.0832
4355.1  279.9646
4356.4  287.5515
4357.6  292.6886
4358.9  299.1344
4360.1  303.5025
4361.4  308.2878
4362.6  312.9872
4363.9  306.4596
4365.1  304.8195
4366.4  301.6089
4367.6  295.8911
4368.9  291.5925
4370.1  281.2775
4371.4  279.3756
4372.6  279.6619
4373.9  277.6497
4375.1  275.3838
4376.4  270.484
4377.6  262.623
4378.9  258.8234
4380.1  253.1833
4381.4  240.2548
4382.6  230.7333
4383.9  229.5758
4385.1  233.5717
4386.4  242.1075
4387.6  252.9092
4388.9  265.3224
4390.1  267.9195
4391.4  267.6823
4392.6  277.257
4393.9  277.8582
4395.1  278.0382
4396.4  281.8665
4397.6  282.3736
4398.9  281.4697
4400.1  269.9891
4401.4  264.2058
4402.6  255.5268
4403.9  254.9706
4405.1  257.8254
4406.4  262.4308
4407.6  270.7703
4408.9  285.6333
4410.1  292.9095
4411.4  301.298
4412.6  301.8461
4413.9  301.9156
4415.1  310.3287
4416.4  310.8277
4417.6  315.6049
4418.9  320.2307
4420.1  318.292
4421.4  316.7623
4422.6  312.8646
4423.9  311.932
4425.1  316.3697
4426.4  315.5681
4427.6  308.0302
4428.9  305.5762
4430.1  310.7132
4431.4  307.0731
4432.6  302.3451
4433.9  304.2346
4435.1  311.0159
4436.4  310.8891
4437.6  319.8585
4438.9  321.0568
4440.1  328.5088
4441.4  335.7154
4442.6  340.6357
4443.9  348.0958
4445.1  351.7114
4446.4  355.3024
4447.6  352.7543
4448.9  351.515
4450.1  350.3862
4451.4  345.7318
4452.6  338.4639
4453.9  328.3288
4455.1  318.8769
4456.4  313.613
4457.6  310.2919
4458.9  303.1303
4460.1  303.4698
4461.4  307.5067
4462.6  308.1365
4463.9  314.2552
4465.1  322.2225
4466.4  331.1509
4467.6  337.7808
4468.9  343.106
4470.1  353.1552
4471.4  361.6992
4472.6  375.5479
4473.9  379.3639
4475.1  376.4232
4476.4  376.5704
4477.6  372.8076
4478.9  366.7544
4480.1  364.7053
4481.4  363.2861
4482.6  361.2902
4483.9  374.7258
4485.1  373.1961
4486.4  377.0816
4487.6  374.6317
4488.9  376.3618
4490.1  379.8056
4491.4  374.6972
4492.6  368.7135
4493.9  369.2861
4495.1  371.188
4496.4  370.6399
4497.6  373.3148
4498.9  382.2759
4500.1  391.6339
4501.4  406.4356
4502.6  418.8733
4503.9  423.9203
4505.1  438.1167
4506.4  443.5851
4507.6  437.9736
4508.9  434.6934
4510.1  428.0267
4511.4  416.3252
4512.6  414.0143
4513.9  406.6155
4515.1  401.2658
4516.4  400.2924
4517.6  399.9652
4518.9  410.5256
4520.1  409.6544
4521.4  402.5296
4522.6  399.5357
4523.9  394.6032
4525.1  385.0735
4526.4  371.1225
4527.6  364.3658
4528.9  358.01
4530.1  353.7809
4531.4  349.7809
4532.6  358.2431
4533.9  372.6767
4535.1  378.4559
4536.4  384.6849
4537.6  393.6502
4538.9  396.3456
4540.1  396.8077
4541.4  394.1124
4542.6  394.8282
4543.9  393.0245
4545.1  392.3087
4546.4  387.8874
4547.6  390.0183
4548.9  383.6175
4550.1  387.6052
4551.4  386.1246
4552.6  384.64
4553.9  388.8813
4555.1  398.5582
4556.4  410.4478
4557.6  414.6197
4558.9  422.0389
4560.1  419.9735
4561.4  422.5543
4562.6  425.2046
4563.9  424.9469
4565.1  422.0389
4566.4  418.4643
4567.6  411.2822
4568.9  410.6074
4570.1  411.6912
4571.4  416.3661
4572.6  421.7731
4573.9  423.086
4575.1  427.1841
4576.4  428.1944
4577.6  419.8549
4578.9  417.2741
4580.1  410.1616
4581.4  402.3619
4582.6  401.7852
4583.9  405.3803
4585.1  413.8794
4586.4  416.4233
4587.6  423.4336
4588.9  421.2414
4590.1  423.1841
4591.4  417.5113
4592.6  408.5951
4593.9  401.2126
4595.1  399.6871
4596.4  399.4417
4597.6  403.4908
4598.9  406.8446
4600.1  408.5174
4601.4  417.2495
4602.6  420.0021
4603.9  423.4009
4605.1  427.3232
4606.4  434.3253
4607.6  441.3478
4608.9  449.9164
4610.1  455.446
4611.4  458.2068
4612.6  462.6731
4613.9  459.9696
4615.1  456.08
4616.4  461.5238
4617.6  464.894
4618.9  467.0698
4620.1  464.0596
4621.4  465.8101
4622.6  462.7058
4623.9  465.8019
4625.1  468.714
4626.4  465.3438
4627.6  467.4584
4628.9  473.8347
4630.1  471.9655
4631.4  472.5259
4632.6  471.1394
4633.9  464.6731
4635.1  457.3193
4636.4  448.7711
4637.6  440.313
4638.9  437.3192
4640.1  436.9061
4641.4  433.9081
4642.6  433.5645
4643.9  433.1637
4645.1  433.4173
4646.4  427.3109
4647.6  424.3334
4648.9  432.2189
4650.1  437.585
4651.4  445.5442
4652.6  445.2619
4653.9  449.0534
4655.1  452.7385
4656.4  453.1556
4657.6  455.6383
4658.9  463.2538
4660.1  461.6179
4661.4  461.1434
4662.6  457.0657
4663.9  445.765
4665.1  436.5421
4666.4  424.9796
4667.6  421.5031
4668.9  417.3559
4670.1  422.8283
4671.4  431.4623
4672.6  438.313
4673.9  443.131
4675.1  448.7425
4676.4  453.7691
4677.6  453.8428
4678.9  453.6669
4680.1  452.2681
4681.4  456.4522
4682.6  453.7773
4683.9  458.1863
4685.1  456.8326
4686.4  456.8121
4687.6  448.1045
4688.9  446.4726
4690.1  462.0964
4691.4  460.3581
4692.6  463.8755
4693.9  465.532
4695.1  468.1373
4696.4  465.3643
4697.6  455.7896
4698.9  448.3458
4700.1  450.1208
4701.4  447.6873
4702.6  440.3907
4703.9  436.5052
4705.1  438.0308
4706.4  439.2415
4707.6  441.3683
4708.9  442.6771
4710.1  447.0534
4711.4  454.5912
4712.6  461.5401
4713.9  469.029
4715.1  478.2887
4716.4  492.6405
4717.6  503.0536
4718.9  504.2561
4720.1  506.0312
4721.4  505.4095
4722.6  495.9657
4723.9  484.3214
4725.1  479.7488
4726.4  463.1148
4727.6  453.6955
4728.9  453.9082
4730.1  452.2068
4731.4  456.6444
4732.6  457.1761
4733.9  465.9124
4735.1  468.1741
4736.4  479.7366
4737.6  478.4155
4738.9  481.4911
4740.1  486.6895
4741.4  491.7857
4742.6  492.1047
4743.9  497.0086
4745.1  502.8041
4746.4  505.5363
4747.6  509.6017
4748.9  509.8921
4750.1  508.8574
4751.4  507.569
4752.6  500.1743
4753.9  496.5833
4755.1  490.0475
4756.4  492.4156
4757.6  488.4073
4758.9  493.5035
4760.1  483.3521
4761.4  481.4257
4762.6  482.4237
4763.9  473.6097
4765.1  476.3214
4766.4  474.4441
4767.6  478.0515
4768.9  484.1292
4770.1  490.9513
4771.4  500.3461
4772.6  510.6978
4773.9  518.0681
4775.1  525.1969
4776.4  530.0722
4777.6  531.3646
4778.9  529.8431
4780.1  522.6488
4781.4  516.0516
4782.6  512.1334
4783.9  508.3706
4785.1  509.0741
4786.4  508.7592
4787.6  506.1375
4788.9  509.6794
4790.1  514.1252
4791.4  525.3646
4792.6  532.5712
4793.9  543.7001
4795.1  545.062
4796.4  549.97
4797.6  543.0293
4798.9  538.5303
4800.1  530.338
4801.4  532.6979
4802.6  528.7143
4803.9  524.9147
4805.1  528.5712
4806.4  532.0272
4807.6  531.8227
4808.9  528.5466
4810.1  521.2092
4811.4  518.2521
4812.6  515.8758
4813.9  517.5322
4815.1  523.0414
4816.4  528.9597
4817.6  535.8555
4818.9  538.8452
4820.1  538.9147
4821.4  536.0518
4822.6  526.2031
4823.9  523.0251
4825.1  520.6079
4826.4  516.3707
4827.6  511.9085
4828.9  513.0087
4830.1  515.1927
4831.4  515.2704
4832.6  516.5302
4833.9  511.3032
4835.1  515.0046
4836.4  515.3973
4837.6  513.4832
4838.9  515.9208
4840.1  514.1539
4841.4  515.6467
4842.6  516.0271
4843.9  524.5793
4845.1  531.7082
4846.4  527.8677
4847.6  525.4546
4848.9  530.3912
4850.1  530.7756
4851.4  519.7327
4852.6  515.9862
4853.9  510.5547
4855.1  501.4585
4856.4  489.5444
4857.6  480.1128
4858.9  469.8428
4860.1  463.352
4861.4  455.3888
4862.6  457.3029
4863.9  466.1741
4865.1  477.2907
4866.4  481.4298
4867.6  491.4953
4868.9  486.4482
4870.1  483.1844
4871.4  484.1169
4872.6  481.8756
4873.9  484.5914
4875.1  492.4973
4876.4  503.0005
4877.6  510.796
4878.9  516.8206
4880.1  519.021
4881.4  516.4975
4882.6  507.3154
4883.9  506.6406
4885.1  501.7448
4886.4  496.9146
4887.6  499.2867
4888.9  505.3809
4890.1  511.6304
4891.4  519.5281
4892.6  530.7266
4893.9  541.9005
4895.1  550.9517
4896.4  567.3975
4897.6  569.2217
4898.9  574.7227
4900.1  566.2891
4901.4  565.373
4902.6  566.3914
4903.9  556.6858
4905.1  551.3525
4906.4  544.833
4907.6  538.7593
4908.9  533.7245
4910.1  533.9373
4911.4  534.5425
4912.6  533.3646
4913.9  535.1847
4915.1  540.2358
4916.4  530.7266
4917.6  520.5507
4918.9  505.7039
4920.1  492.8614
4921.4  492.3092
4922.6  495.5976
4923.9  506.886
4925.1  519.8308
4926.4  535.246
4927.6  546.7676
4928.9  555.3893
4930.1  560.9557
4931.4  552.7308
4932.6  551.9455
4933.9  550.1704
4935.1  541.5651
4936.4  532.4853
4937.6  522.6365
4938.9  530.7715
4940.1  535.6877
4941.4  544.2399
4942.6  557.7206
4943.9  567.8842
4945.1  575.5121
4946.4  579.009
4947.6  580.5469
4948.9  585.7575
4950.1  577.9947
4951.4  571.2953
4952.6  567.5406
4953.9  561.692
4955.1  553.8065
4956.4  549.2993
4957.6  548.8126
4958.9  557.5447
4960.1  566.9558
4961.4  576.0438
4962.6  579.1931
4963.9  572.9558
4965.1  568.694
4966.4  561.463
4967.6  554.8167
4968.9  554.8821
4970.1  562.8372
4971.4  569.5366
4972.6  571.0867
4973.9  567.4957
4975.1  567.2012
4976.4  568.6245
4977.6  558.3218
4978.9  545.1356
4980.1  536.8248
4981.4  531.3646
4982.6  520.3953
