BITPIX  =                    8  /  8-bit ASCII characters                       
NAXIS   =                    1  /  Number of Image Dimensions                   
NAXIS1  =                 2048  /  Length of axis                               
ORIGIN  = 'NOAO-IRAF: WTEXTIMAGE'  /
IRAF-MAX=                   0.  /  Max image pixel (out of date)                
IRAF-MIN=                   0.  /  Min image pixel (out of date)                
IRAF-B/P=                   32  /  Image bits per pixel                         
IRAFTYPE= 'REAL FLOATING     '  /  Image datatype                              
OBJECT  = 'S HR  6018        R+L 560523'  /
FILENAME= 'SDR_3.0001.FITS   '  /  IRAF filename                               
FORMAT  = '5G14.7            '  /  Text line format                            
EXTEND  =                    F / File may contain extensions                    
ORIGIN  = 'NOAO-IRAF FITS Image Kernel July 2003' / FITS file originator        
DATE    = '2015-11-16T02:30:37' / Date FITS file was generated                  
IRAF-TLM= '2015-11-16T02:30:37' / Time of last modification                     
                                                                                
CRVAL1  =   3938.1                                                  
CDELT1  =   1.25                                                  
CRPIX1  =                    1                                                  
STATUS  = 'SPECTRUM                                                        '    
CTYPE1  = 'LAMBDA                                                          '    
OBJECT  = 'S HR  6018        R+L 560523'                                        
OBSNUM  =                56523                                                  
SDR RUN =                   56                                                  
RUN TAPE=                    5                                                  
TAPESCAN=                   23                                                  
IDS SLIT= 'R+L                                                             '    
INSTRUME= 'Lick 3.0 mts, Blue ITS                                          '    
OBSERVER= 'S.M. Faber, J.J. Gonzalez                                       '    
TAPENUM =                  297                                                  
LICK    = 'FITS2                                                           '    
APNUM1  = '1 0 1.00 1.00 1.00 1.00'                                             
DC-FLAG =                    0                                                  
WCSDIM  =                    1                                                  
CD1_1   =  1.25                                                  
LTM1_1  =                   1.                                                  
WAT0_001= 'system=equispec'                                                     
WAT1_001= 'wtype=linear label=lambda units=angstroms'                           
END                                                                             
                                                                                
                                                                                
                                                                                
                                                                                
                                                                                
                                                                                
                                                                                
                                                                                
                                                                                
                                                                                
                                                                                
                                                                                
                                                                                
                                                                                
                                                                                
                                                                                
                                                                                
                                                                                
                                                                                
                                                                                
                                                                                
                                                                                
                                                                                
                                                                                
                                                                                
                                                                                
                                                                                
                                                                                
                                                                                
                                                                                
                                                                               

3940.6  9.382453
3941.8  8.462208
3943.1  11.97553
3944.3  -344.4803
3945.6  -27.75884
3946.8  21.09622
3948.1  26.79768
3949.3  26.81812
3950.6  30.78952
3951.8  27.01855
3953.1  21.84879
3954.3  23.5993
3955.6  28.67089
3956.8  35.76295
3958.1  40.03291
3959.3  41.3949
3960.6  41.71801
3961.8  42.91637
3963.1  46.83459
3964.3  48.06568
3965.6  43.98795
3966.8  41.25991
3968.1  41.9634
3969.3  36.05744
3970.6  31.77929
3971.8  24.9081
3973.1  25.17394
3974.3  24.67907
3975.6  28.2578
3976.8  36.14333
3978.1  43.6403
3979.3  52.35609
3980.6  64.85513
3981.8  66.47887
3983.1  71.59545
3984.3  78.05765
3985.6  77.19876
3986.8  74.62204
3988.1  78.31532
3989.3  76.26215
3990.6  77.1742
3991.8  78.21717
3993.1  79.84907
3994.3  82.33579
3995.6  81.51369
3996.8  82.50347
3998.1  83.3542
3999.3  87.41966
4000.6  87.526
4001.8  84.66709
4003.1  78.60162
4004.3  81.98814
4005.6  83.67322
4006.8  84.80615
4008.1  83.86545
4009.3  86.00043
4010.6  91.11702
4011.8  92.58533
4013.1  90.46672
4014.3  91.08839
4015.6  93.85323
4016.8  97.70601
4018.1  98.07002
4019.3  93.67736
4020.6  89.34196
4021.8  88.78981
4023.1  89.26425
4024.3  92.48308
4025.6  91.28471
4026.8  89.44012
4028.1  90.04544
4029.3  85.41965
4030.6  86.31945
4031.8  87.38694
4033.1  87.63643
4034.3  94.47081
4035.6  93.5383
4036.8  88.48306
4038.1  93.37879
4039.3  91.34197
4040.6  88.96159
4041.8  86.59757
4043.1  85.13744
4044.3  86.87978
4045.6  90.66304
4046.8  89.12519
4048.1  89.0802
4049.3  95.93913
4050.6  95.44833
4051.8  95.18248
4053.1  95.0107
4054.3  91.75506
4055.6  91.65281
4056.8  93.25609
4058.1  92.79392
4059.3  93.75507
4060.6  95.73463
4061.8  93.42787
4063.1  92.33175
4064.3  93.0884
4065.6  96.11091
4066.8  94.01274
4068.1  95.9923
4069.3  95.87778
4070.6  97.69374
4071.8  99.30929
4073.1  102.9698
4074.3  97.75918
4075.6  101.3747
4076.8  105.1948
4078.1  106.5527
4079.3  109.7142
4080.6  111.1989
4081.8  111.3339
4083.1  112.9699
4084.3  113.7593
4085.6  126.2378
4086.8  123.702
4088.1  128.8882
4089.3  127.5916
4090.6  126.0988
4091.8  125.5221
4093.1  121.5343
4094.3  119.2603
4095.6  116.9004
4096.8  113.2766
4098.1  110.2623
4099.3  111.068
4100.6  109.432
4101.8  114.0456
4103.1  115.4198
4104.3  119.5957
4105.6  117.9106
4106.8  116.1928
4108.1  118.8268
4109.3  119.3298
4110.6  118.6713
4111.8  122.929
4113.1  123.3626
4114.3  116.291
4115.6  119.8984
4116.8  117.7593
4118.1  115.0599
4119.3  117.3994
4120.6  118.3319
4121.8  114.1355
4123.1  116.9004
4124.3  117.5425
4125.6  117.8288
4126.8  113.0517
4128.1  114.2173
4129.3  109.4116
4130.6  108.8185
4131.8  108.5977
4133.1  113.5425
4134.3  112.3809
4135.6  115.3912
4136.8  108.7531
4138.1  109.5016
4139.3  108.8881
4140.6  104.7285
4141.8  105.8247
4143.1  104.8022
4144.3  104.4054
4145.6  107.8737
4146.8  109.7551
4148.1  108.4136
4149.3  109.0149
4150.6  107.023
4151.8  110.8595
4153.1  113.0108
4154.3  110.8963
4155.6  111.7797
4156.8  118.5691
4158.1  124.4751
4159.3  123.1131
4160.6  123.6898
4161.8  124.4382
4163.1  117.3666
4164.3  118.5282
4165.6  119.5793
4166.8  114.2869
4168.1  114.2828
4169.3  109.8042
4170.6  111.6243
4171.8  110.6304
4173.1  107.2194
4174.3  105.2889
4175.6  107.7551
4176.8  112.7
4178.1  111.0271
4179.3  112.5077
4180.6  116.4914
4181.8  122.1069
4183.1  124.5814
4184.3  124.4219
4185.6  125.3749
4186.8  128.246
4188.1  130.8882
4189.3  127.6244
4190.6  127.5017
4191.8  124.4301
4193.1  122.1029
4194.3  121.2031
4195.6  116.4382
4196.8  116.066
4198.1  120.2255
4199.3  125.0722
4200.6  129.7471
4201.8  135.1704
4203.1  138.6019
4204.3  140.0252
4205.6  140.651
4206.8  140.6837
4208.1  141.105
4209.3  147.5549
4210.6  137.2236
4211.8  140.7819
4213.1  146.5242
4214.3  147.6367
4215.6  156.7002
4216.8  154.7124
4218.1  153.5181
4219.3  147.0682
4220.6  144.0253
4221.8  139.4976
4223.1  133.6367
4224.3  130.4465
4225.6  133.3013
4226.8  136.1397
4228.1  141.5467
4229.3  144.9946
4230.6  149.3341
4231.8  150.0253
4233.1  150.332
4234.3  152.2666
4235.6  153.6613
4236.8  154.9006
4238.1  158.1767
4239.3  165.7759
4240.6  168.1072
4241.8  166.328
4243.1  170.5366
4244.3  167.1869
4245.6  165.1706
4246.8  166.0704
4248.1  161.5386
4249.3  160.9456
4250.6  163.4691
4251.8  160.463
4253.1  164.4834
4254.3  165.6246
4255.6  164.7493
4256.8  164.9088
4258.1  165.7391
4259.3  167.8291
4260.6  171.0683
4261.8  170.1276
4263.1  171.8045
4264.3  168.8393
4265.6  162.5571
4266.8  157.649
4268.1  152.1603
4269.3  149.7104
4270.6  146.3484
4271.8  148.6306
4273.1  152.9946
4274.3  158.692
4275.6  163.0274
4276.8  168.3362
4278.1  175.1502
4279.3  174.0131
4280.6  174.7248
4281.8  168.1276
4283.1  166.9088
4284.3  160.8883
4285.6  157.33
4286.8  155.9967
4288.1  157.0151
4289.3  153.784
4290.6  151.1828
4291.8  150.9578
4293.1  145.3668
4294.3  140.7696
4295.6  129.0436
4296.8  122.9577
4298.1  114.1355
4299.3  110.9576
4300.6  110.2746
4301.8  105.8451
4303.1  105.8451
4304.3  110.6141
4305.6  110.3727
4306.8  118.8595
4308.1  130.3115
4309.3  142.8678
4310.6  154.058
4311.8  169.1338
4313.1  181.9028
4314.3  192.7453
4315.6  206.1278
4316.8  205.7311
4318.1  203.0889
4319.3  195.412
4320.6  186.2136
4321.8  172.0459
4323.1  174.0622
4324.3  177.0561
4325.6  181.3629
4326.8  189.2198
4328.1  197.2443
4329.3  206.5286
4330.6  212.7945
4331.8  211.8497
4333.1  207.8006
4334.3  204.2996
4335.6  204.001
4336.8  203.4366
4338.1  201.4039
4339.3  201.7761
4340.6  211.4775
4341.8  216.7496
4343.1  216.2465
4344.3  220.8804
4345.6  227.5553
4346.8  223.9193
4348.1  219.5757
4349.3  214.5859
4350.6  212.545
4351.8  209.9438
4353.1  207.1626
4354.3  205.9029
4355.6  211.7966
4356.8  218.8968
4358.1  220.8764
4359.3  227.3835
4360.6  231.0155
4361.8  232.7823
4363.1  233.9807
4364.3  231.7844
4365.6  231.2977
4366.8  226.2833
4368.1  219.7966
4369.3  218.9622
4370.6  216.3569
4371.8  207.4366
4373.1  208.8886
4374.3  213.7107
4375.6  209.817
4376.8  202.4223
4378.1  191.3793
4379.3  185.0889
4380.6  184.8435
4381.8  179.3588
4383.1  179.6042
4384.3  186.2095
4385.6  190.9417
4386.8  193.1216
4388.1  197.1584
4389.3  203.7311
4390.6  210.8231
4391.8  216.177
4393.1  218.2588
4394.3  223.1177
4395.6  227.9071
4396.8  229.1136
4398.1  227.3345
4399.3  223.5021
4400.6  218.5614
4401.8  211.1953
4403.1  205.8211
4404.3  206.2873
4405.6  211.044
4406.8  221.1218
4408.1  230.9132
4409.3  237.6494
4410.6  238.8601
4411.8  240.3857
4413.1  241.6127
4414.3  245.3346
4415.6  246.8029
4416.8  248.3652
4418.1  255.9849
4419.3  258.6148
4420.6  259.1015
4421.8  263.2447
4423.1  266.5657
4424.3  264.3081
4425.6  260.2099
4426.8  260.9543
4428.1  258.4471
4429.3  256.353
4430.6  256.713
4431.8  256.5412
4433.1  252.627
4434.3  254.8029
4435.6  260.5003
4436.8  261.58
4438.1  261.4819
4439.3  266.0504
4440.6  269.0075
4441.8  272.6885
4443.1  276.2754
4444.3  278.5004
4445.6  285.0321
4446.8  283.8665
4448.1  281.4738
4449.3  280.4431
4450.6  277.9891
4451.8  269.666
4453.1  264.3776
4454.3  256.9256
4455.6  257.1097
4456.8  256.4716
4458.1  252.0831
4459.3  255.1628
4460.6  250.6025
4461.8  256.8643
4463.1  266.0872
4464.3  269.1261
4465.6  272.4308
4466.8  272.6721
4468.1  283.6906
4469.3  285.4738
4470.6  298.4637
4471.8  300.0506
4473.1  307.4412
4474.3  309.9729
4475.6  308.0056
4476.8  312.3492
4478.1  303.9974
4479.3  308.0097
4480.6  305.9156
4481.8  311.7071
4483.1  309.2572
4484.3  311.1508
4485.6  304.9954
4486.8  305.8297
4488.1  302.1733
4489.3  298.296
4490.6  300.2633
4491.8  292.7049
4493.1  293.6047
4494.3  297.0567
4495.6  300.4678
4496.8  310.4106
4498.1  321.6294
4499.3  327.5967
4500.6  333.8258
4501.8  338.8851
4503.1  342.6029
4504.3  343.4946
4505.6  344.9997
4506.8  348.0549
4508.1  346.2798
4509.3  341.1428
4510.6  336.0712
4511.8  328.2552
4513.1  324.6356
4514.3  326.157
4515.6  326.9014
4516.8  328.9301
4518.1  332.6397
4519.3  335.4291
4520.6  329.4618
4521.8  324.7337
4523.1  316.8646
4524.3  310.9259
4525.6  303.2817
4526.8  292.4514
4528.1  290.615
4529.3  287.392
4530.6  289.1794
4531.8  294.8031
4533.1  291.4411
4534.3  301.5352
4535.6  310.6559
4536.8  319.6212
4538.1  328.0793
4539.3  325.1305
4540.6  330.9587
4541.8  326.3288
4543.1  328.1407
4544.3  324.7051
4545.6  326.9341
4546.8  330.9055
4548.1  322.5006
4549.3  324.9382
4550.6  321.3349
4551.8  329.7644
4553.1  334.701
4554.3  343.924
4555.6  349.9649
4556.8  352.9588
4558.1  360.3904
4559.3  352.7175
4560.6  347.3637
4561.8  344.5089
4563.1  336.926
4564.3  334.4148
4565.6  331.4372
4566.8  336.0221
4568.1  337.5845
4569.3  343.7809
4570.6  348.4844
4571.8  347.7359
4573.1  351.1142
4574.3  347.4005
4575.6  351.5355
4576.8  347.0324
4578.1  343.9567
4579.3  342.5825
4580.6  339.2328
4581.8  337.3555
4583.1  339.4864
4584.3  342.0099
4585.6  353.7359
4586.8  351.0488
4588.1  344.9956
4589.3  349.7195
4590.6  342.1367
4591.8  344.0017
4593.1  343.5273
4594.3  339.5477
4595.6  335.6745
4596.8  337.3718
4598.1  333.1346
4599.3  338.9669
4600.6  337.9444
4601.8  340.9383
4603.1  349.3555
4604.3  354.9098
4605.6  362.9507
4606.8  370.8607
4608.1  375.462
4609.3  369.9282
4610.6  374.1287
4611.8  377.2657
4613.1  372.6358
4614.3  376.1205
4615.6  381.5234
4616.8  384.0837
4618.1  386.6768
4619.3  384.4723
4620.6  379.0203
4621.8  378.006
4623.1  377.8546
4624.3  377.8669
4625.6  381.8629
4626.8  377.781
4628.1  383.1307
4629.3  376.2432
4630.6  372.5213
4631.8  367.6255
4633.1  361.6828
4634.3  356.4272
4635.6  351.3474
4636.8  349.1674
4638.1  351.151
4639.3  349.8709
4640.6  350.1981
4641.8  348.1776
4643.1  350.0222
4644.3  349.5764
4645.6  349.5478
4646.8  344.4107
4648.1  346.0753
4649.3  347.5478
4650.6  352.1122
4651.8  356.6194
4653.1  365.6051
4654.3  366.8321
4655.6  370.6808
4656.8  377.1512
4658.1  384.6195
4659.3  383.6747
4660.6  380.2555
4661.8  376.1532
4663.1  368.8362
4664.3  361.3924
4665.6  351.7441
4666.8  346.243
4668.1  348.4271
4669.3  350.6602
4670.6  351.2737
4671.8  358.1122
4673.1  360.2922
4674.3  363.7646
4675.6  364.8444
4676.8  366.1695
4678.1  364.9834
4679.3  359.4169
4680.6  361.0775
4681.8  363.7646
4683.1  363.9445
4684.3  366.1777
4685.6  369.871
4686.8  367.6787
4688.1  375.3434
4689.3  372.1736
4690.6  375.3679
4691.8  376.6277
4693.1  372.9507
4694.3  371.4783
4695.6  374.4886
4696.8  364.8934
4698.1  356.0386
4699.3  355.4865
4700.6  354.0795
4701.8  348.9138
4703.1  353.6664
4704.3  354.374
4705.6  356.7666
4706.8  359.6092
4708.1  363.2779
4709.3  370.0346
4710.6  373.7401
4711.8  375.233
4713.1  375.8751
4714.3  377.8056
4715.6  379.143
4716.8  381.4252
4718.1  387.5684
4719.3  393.2044
4720.6  395.4785
4721.8  398.0143
4723.1  393.7566
4724.3  388.5214
4725.6  390.3169
4726.8  380.5949
4728.1  380.55
4729.3  383.7115
4730.6  381.3884
4731.8  387.2289
4733.1  391.4621
4734.3  390.8445
4735.6  394.7545
4736.8  398.8936
4738.1  398.8813
4739.3  396.7341
4740.6  399.5603
4741.8  400.73
4743.1  403.6298
4744.3  409.454
4745.6  411.18
4746.8  410.0552
4748.1  407.8344
4749.3  411.6708
4750.6  412.8323
4751.8  404.3824
4753.1  396.9345
4754.3  394.1001
4755.6  391.458
4756.8  393.1185
4758.1  391.8752
4759.3  390.8813
4760.6  385.4007
4761.8  380.7177
4763.1  380.4927
4764.3  382.7831
4765.6  381.7729
4766.8  389.2289
4768.1  397.4908
4769.3  412.0021
4770.6  408.3947
4771.8  422.2271
4773.1  428.8611
4774.3  428.088
4775.6  432.1862
4776.8  437.8468
4778.1  430.2476
4779.3  430.8447
4780.6  424.497
4781.8  421.6054
4783.1  416.8078
4784.3  409.8753
4785.6  407.728
4786.8  407.0532
4788.1  408.8528
4789.3  415.1964
4790.6  420.5256
4791.8  422.4029
4793.1  424.0594
4794.3  427.54
4795.6  425.1473
4796.8  424.4643
4798.1  424.5665
4799.3  424.7751
4800.6  419.0123
4801.8  423.3068
4803.1  422.4111
4804.3  422.2721
4805.6  420.7056
4806.8  417.2127
4808.1  419.2863
4809.3  416.7792
4810.6  417.1146
4811.8  426.5175
4813.1  427.904
4814.3  433.8835
4815.6  439.6464
4816.8  442.7711
4818.1  441.5073
4819.3  441.0451
4820.6  437.81
4821.8  434.9633
4823.1  438.4766
4824.3  437.3519
4825.6  431.0124
4826.8  428.9551
4828.1  431.2905
4829.3  428.9183
4830.6  421.9694
4831.8  422.7465
4833.1  421.3232
4834.3  423.8017
4835.6  426.7711
4836.8  423.0533
4838.1  427.4663
4839.3  424.0226
4840.6  418.7465
4841.8  428.1208
4843.1  428.3375
4844.3  422.2884
4845.6  424.3947
4846.8  427.2373
4848.1  428.0962
4849.3  424.3825
4850.6  416.5052
4851.8  420.8773
4853.1  415.6872
4854.3  407.1431
4855.6  400.4315
4856.8  392.7341
4858.1  385.4457
4859.3  378.28
4860.6  376.0428
4861.8  375.8383
4863.1  380.5868
4864.3  390.3251
4865.6  393.7075
4866.8  394.0183
4868.1  396.6073
4869.3  400.5337
4870.6  405.3885
4871.8  401.1431
4873.1  413.7976
4874.3  416.7833
4875.6  421.8017
4876.8  430.3375
4878.1  427.724
4879.3  422.8078
4880.6  425.0042
4881.8  421.5277
4883.1  415.6053
4884.3  407.9161
4885.6  402.4887
4886.8  401.9775
4888.1  400.7832
4889.3  406.9018
4890.6  417.8712
4891.8  427.4173
4893.1  439.3028
4894.3  447.2906
4895.6  454.9552
4896.8  456.7835
4898.1  455.1925
4899.3  452.2149
4900.6  445.4746
4901.8  438.5093
4903.1  444.5544
4904.3  446.1822
4905.6  449.0002
4906.8  438.2149
4908.1  440.3294
4909.3  434.5707
4910.6  433.679
4911.8  431.814
4913.1  425.0778
4914.3  422.0471
4915.6  411.3967
4916.8  402.6768
4918.1  397.3353
4919.3  399.2903
4920.6  403.5235
4921.8  409.6748
4923.1  420.7833
4924.3  432.1003
4925.6  439.7323
4926.8  445.3969
4928.1  449.7773
4929.3  447.2415
4930.6  446.0268
4931.8  435.1351
4933.1  432.9429
4934.3  425.0982
4935.6  422.2925
4936.8  417.2332
4938.1  421.7772
4939.3  426.3784
4940.6  433.4664
4941.8  448.3908
4943.1  457.3479
4944.3  464.399
4945.6  467.4175
4946.8  471.3275
4948.1  472.8858
4949.3  472.8245
4950.6  470.1987
4951.8  459.5647
4953.1  452.1004
4954.3  445.4214
4955.6  445.4501
4956.8  451.2047
4958.1  454.8039
4959.3  459.0248
4960.6  465.9614
4961.8  472.2478
4963.1  464.1741
4964.3  467.0126
4965.6  469.532
4966.8  471.2498
4968.1  463.4134
4969.3  464.4154
4970.6  460.7058
4971.8  457.5074
4973.1  456.1291
4974.3  453.4215
4975.6  457.3275
4976.8  443.6668
4978.1  437.4214
4979.3  434.3784
4980.6  427.1596
4981.8  423.3559
4983.1  425.6504
4984.3  429.2946
4985.6  435.0206
4986.8  441.082
4988.1  442.4562
4989.3  448.8284
4990.6  445.8141
4991.8  448.5339
4993.1  446.2026
4994.3  442.0063
4995.6  443.1556
4996.8  440.3785
4998.1  431.679
4999.3  426.5625
5000.6  422.6074
5001.8  417.5195
5003.1  416.5951
5004.3  414.4274
5005.6  414.3252
5006.8  415.0859
5008.1  413.7608
