BITPIX  =                    8  /  8-bit ASCII characters                       
NAXIS   =                    1  /  Number of Image Dimensions                   
NAXIS1  =                 2048  /  Length of axis                               
ORIGIN  = 'NOAO-IRAF: WTEXTIMAGE'  /
IRAF-MAX=                   0.  /  Max image pixel (out of date)                
IRAF-MIN=                   0.  /  Min image pixel (out of date)                
IRAF-B/P=                   32  /  Image bits per pixel                         
IRAFTYPE= 'REAL FLOATING     '  /  Image datatype                              
OBJECT  = 'S HR  7576        R+L 130215'  /
FILENAME= 'SDR_1.0001.FITS   '  /  IRAF filename                               
FORMAT  = '5G14.7            '  /  Text line format                            
EXTEND  =                    F / File may contain extensions                    
ORIGIN  = 'NOAO-IRAF FITS Image Kernel July 2003' / FITS file originator        
DATE    = '2015-11-16T03:03:36' / Date FITS file was generated                  
IRAF-TLM= '2015-11-16T03:03:36' / Time of last modification                     
                                                                                
CRVAL1  =   3892.2                                                  
CDELT1  =   1.25                                                  
CRPIX1  =                    1                                                  
STATUS  = 'SPECTRUM                                                        '    
CTYPE1  = 'LAMBDA                                                          '    
OBJECT  = 'S HR  7576        R+L 130215'                                        
OBSNUM  =                13215                                                  
SDR RUN =                   13                                                  
RUN TAPE=                    2                                                  
TAPESCAN=                   15                                                  
IDS SLIT= 'R+L                                                             '    
INSTRUME= 'Lick 3.0 mts, Blue ITS                                          '    
OBSERVER= 'S.M. Faber et al                                                '    
TAPENUM =                 1052                                                  
LICK    = 'FITS2                                                           '    
APNUM1  = '1 0 1.00 1.00 1.00 1.00'                                             
DC-FLAG =                    0                                                  
WCSDIM  =                    1                                                  
CD1_1   =  1.25                                                  
LTM1_1  =                   1.                                                  
WAT0_001= 'system=equispec'                                                     
WAT1_001= 'wtype=linear label=lambda units=angstroms'                           
END                                                                             
                                                                                
                                                                                
                                                                                
                                                                                
                                                                                
                                                                                
                                                                                
                                                                                
                                                                                
                                                                                
                                                                                
                                                                                
                                                                                
                                                                                
                                                                                
                                                                                
                                                                                
                                                                                
                                                                                
                                                                                
                                                                                
                                                                                
                                                                                
                                                                                
                                                                                
                                                                                
                                                                                
                                                                                
                                                                                
                                                                                
                                                                                
3892.2  -1551.43
3893.4  20.29126
3894.7  24.5461
3895.9  29.33228
3897.2  35.22359
3898.4  31.66416
3899.7  38.33249
3900.9  39.23275
3902.2  40.70558
3903.4  42.91462
3904.7  37.63709
3905.9  40.13261
3907.2  40.99166
3908.4  42.54652
3909.7  36.9825
3910.9  32.03267
3912.2  35.79616
3913.4  35.46886
3914.7  36.6552
3915.9  32.03267
3917.2  31.95064
3918.4  27.08243
3919.7  27.04162
3920.9  24.17799
3922.2  24.01434
3923.4  29.49593
3924.7  26.71432
3925.9  21.06869
3927.2  20.86423
3928.4  24.66853
3929.7  26.05974
3930.9  26.67352
3932.2  30.92795
3933.4  29.12782
3934.7  35.2644
3935.9  39.76451
3937.2  41.60544
3938.4  38.37371
3939.7  42.75097
3940.9  48.80553
3942.2  53.14198
3943.4  51.87402
3944.7  52.07848
3945.9  57.51966
3947.2  60.71058
3948.4  48.51945
3949.7  50.31916
3950.9  56.9875
3952.2  53.01955
3953.4  47.53756
3954.7  47.12824
3955.9  43.56921
3957.2  40.25545
3958.4  39.23275
3959.7  42.1372
3960.9  37.55547
3962.2  36.32791
3963.4  44.14178
3964.7  40.05099
3965.9  45.73744
3967.2  51.42389
3968.4  55.59669
3969.7  60.62856
3970.9  64.35123
3972.2  67.46053
3973.4  73.22901
3974.7  83.86569
3975.9  86.32
3977.2  90.28835
3978.4  91.27024
3979.7  92.82468
3980.9  98.3887
3982.2  104.0751
3983.4  102.0294
3984.7  94.33833
3985.9  99.61586
3987.2  105.6704
3988.4  103.5434
3989.7  112.6252
3990.9  116.8801
3992.2  115.0387
3993.4  116.9209
3994.7  117.9844
3995.9  118.4753
3997.2  127.9257
3998.4  129.4801
3999.7  130.1755
4000.9  128.0893
4002.2  133.8574
4003.4  134.1031
4004.7  137.1711
4005.9  147.767
4007.2  158.1988
4008.4  160.2034
4009.7  151.9806
4010.9  156.1943
4012.2  162.6989
4013.4  154.4762
4014.7  159.2627
4015.9  159.508
4017.2  148.9942
4018.4  141.9985
4019.7  141.5076
4020.9  140.7714
4022.2  131.5667
4023.4  135.5347
4024.7  143.5122
4025.9  131.3619
4027.2  132.1393
4028.4  119.2527
4029.7  114.9163
4030.9  118.8434
4032.2  126.6573
4033.4  131.6075
4034.7  134.1031
4035.9  127.5576
4037.2  129.3573
4038.4  134.9213
4039.7  138.2759
4040.9  142.1622
4042.2  138.4803
4043.4  140.8942
4044.7  147.194
4045.9  149.9352
4047.2  142.776
4048.4  146.0897
4049.7  135.862
4050.9  137.4168
4052.2  130.1755
4053.4  137.2532
4054.7  130.9529
4055.9  133.0804
4057.2  128.0893
4058.4  132.385
4059.7  133.3664
4060.9  129.3985
4062.2  132.9167
4063.4  129.3165
4064.7  125.5938
4065.9  144.2488
4067.2  138.235
4068.4  145.8441
4069.7  138.235
4070.9  146.0077
4072.2  154.8851
4073.4  154.8443
4074.7  165.4401
4075.9  172.681
4077.2  177.0583
4078.4  186.1405
4079.7  181.2311
4080.9  182.2542
4082.2  190.2313
4083.4  190.8043
4084.7  186.7543
4085.9  180.5769
4087.2  186.7131
4088.4  180.4949
4089.7  175.3402
4090.9  176.9359
4092.2  164.7035
4093.4  173.7449
4094.7  163.3947
4095.9  177.1403
4097.2  185.3223
4098.4  176.0356
4099.7  177.5492
4100.9  187.0404
4102.2  199.3136
4103.4  194.6498
4104.7  186.8768
4105.9  178.7768
4107.2  177.4676
4108.4  176.2813
4109.7  176.5678
4110.9  182.2542
4112.2  179.9632
4113.4  175.5039
4114.7  172.5582
4115.9  171.6583
4117.2  175.2994
4118.4  173.4176
4119.7  158.1172
4120.9  149.0762
4122.2  156.4399
4123.4  157.5855
4124.7  155.2124
4125.9  147.4805
4127.2  150.0169
4128.4  150.385
4129.7  155.376
4130.9  147.1532
4132.2  147.9307
4133.4  146.7443
4134.7  148.3396
4135.9  146.335
4137.2  134.3895
4138.4  131.7304
4139.7  126.33
4140.9  131.2394
4142.2  139.9532
4143.4  137.3348
4144.7  136.1076
4145.9  132.4666
4147.2  132.5482
4148.4  126.6573
4149.7  130.1347
4150.9  136.9667
4152.2  146.0485
4153.4  146.6215
4154.7  154.8851
4155.9  161.9627
4157.2  163.558
4158.4  157.6671
4159.7  161.2261
4160.9  160.8992
4162.2  163.1899
4163.4  154.1897
4164.7  153.3714
4165.9  154.5578
4167.2  155.867
4168.4  158.0764
4169.7  156.7672
4170.9  163.9265
4172.2  168.1809
4173.4  164.4991
4174.7  168.8763
4175.9  178.163
4177.2  185.5268
4178.4  175.5859
4179.7  182.5815
4180.9  191.0908
4182.2  191.4181
4183.4  187.6542
4184.7  188.1859
4185.9  182.7452
4187.2  179.4314
4188.4  172.1085
4189.7  183.2769
4190.9  185.3223
4192.2  184.0539
4193.4  185.5676
4194.7  182.9496
4195.9  184.3404
4197.2  189.9861
4198.4  198.3317
4199.7  201.7683
4200.9  208.1909
4202.2  205.7362
4203.4  225.1278
4204.7  220.4233
4205.9  225.6596
4207.2  229.137
4208.4  236.4187
4209.7  224.7597
4210.9  238.5053
4212.2  235.9278
4213.4  240.3463
4214.7  236.0098
4215.9  232.9005
4217.2  226.8459
4218.4  211.1366
4219.7  210.9321
4220.9  201.8091
4222.2  205.0408
4223.4  206.923
4224.7  206.5957
4225.9  221.2823
4227.2  231.6325
4228.4  244.0689
4229.7  247.0962
4230.9  254.1739
4232.2  271.0287
4233.4  271.5197
4234.7  290.7473
4235.9  301.2611
4237.2  309.6067
4238.4  309.7704
4239.7  316.1526
4240.9  323.4756
4242.2  318.689
4243.4  316.9297
4244.7  307.5613
4245.9  287.3519
4247.2  286.9426
4248.4  288.8247
4249.7  276.3879
4250.9  273.0333
4252.2  284.1609
4253.4  299.2565
4254.7  300.975
4255.9  320.98
4257.2  331.9028
4258.4  316.8888
4259.7  327.1162
4260.9  330.1847
4262.2  332.1072
4263.4  321.471
4264.7  315.907
4265.9  298.4383
4267.2  286.1655
4268.4  281.0108
4269.7  279.7017
4270.9  285.02
4272.2  280.7652
4273.4  291.9336
4274.7  308.6248
4275.9  324.2934
4277.2  324.171
4278.4  310.6706
4279.7  325.1936
4280.9  308.3388
4282.2  300.8114
4283.4  297.6613
4284.7  291.77
4285.9  292.1793
4287.2  291.852
4288.4  296.6794
4289.7  282.238
4290.9  281.0925
4292.2  278.2697
4293.4  275.4468
4294.7  263.1741
4295.9  258.6331
4297.2  249.8782
4298.4  237.319
4299.7  237.0325
4300.9  239.4464
4302.2  249.5917
4303.4  269.1062
4304.7  287.7608
4305.9  298.111
4307.2  335.0529
4308.4  366.4716
4309.7  395.1907
4310.9  416.3409
4312.2  444.8143
4313.4  455.451
4314.7  455.7375
4315.9  442.9326
4317.2  418.5095
4318.4  418.9184
4319.7  410.9001
4320.9  406.9726
4322.2  409.1
4323.4  424.8914
4324.7  453.4872
4325.9  477.3377
4327.2  506.343
4328.4  500.4521
4329.7  496.9746
4330.9  484.4154
4332.2  481.4698
4333.4  479.588
4334.7  472.1422
4335.9  479.015
4337.2  475.7425
4338.4  479.3015
4339.7  497.8337
4340.9  494.3155
4342.2  513.0113
4343.4  522.9934
4344.7  537.5164
4345.9  510.9659
4347.2  506.5474
4348.4  512.3159
4349.7  505.7296
4350.9  509.0429
4352.2  516.6523
4353.4  533.548
4354.7  558.749
4355.9  548.4396
4357.2  562.1443
4358.4  582.1085
4359.7  583.0492
4360.9  550.9351
4362.2  544.4712
4363.4  557.2349
4364.7  543.0804
4365.9  526.5524
4367.2  524.507
4368.4  502.4974
4369.7  492.679
4370.9  482.9834
4372.2  475.5788
4373.4  462.9376
4374.7  455.1237
4375.9  414.9501
4377.2  405.3773
4378.4  393.6771
4379.7  395.3544
4380.9  395.3544
4382.2  410.2863
4383.4  424.7277
4384.7  440.1506
4385.9  452.9963
4387.2  469.8924
4388.4  486.9109
4389.7  491.7383
4390.9  524.7115
4392.2  528.639
4393.4  531.2166
4394.7  540.9938
4395.9  528.2301
4397.2  508.634
4398.4  490.3471
4399.7  472.5103
4400.9  469.6875
4402.2  476.2742
4403.4  494.8472
4404.7  514.8522
4405.9  528.3525
4407.2  538.4983
4408.4  554.126
4409.7  556.908
4410.9  563.0854
4412.2  579.3265
4413.4  586.8131
4414.7  596.0998
4415.9  584.9722
4417.2  596.7952
4418.4  600.1497
4419.7  591.9269
4420.9  589.9632
4422.2  592.3767
4423.4  592.2131
4424.7  577.7308
4425.9  587.304
4427.2  574.8672
4428.4  592.9496
4429.7  576.4221
4430.9  588.4496
4432.2  618.3546
4433.4  622.4866
4434.7  633.205
4435.9  638.1144
4437.2  643.2278
4438.4  652.4325
4439.7  662.0465
4440.9  667.242
4442.2  670.0648
4443.4  674.5241
4444.7  676.1194
4445.9  662.2922
4447.2  639.7916
4448.4  617.9865
4449.7  597.2041
4450.9  587.8358
4452.2  567.8716
4453.4  565.1716
4454.7  571.5535
4455.9  583.3765
4457.2  584.522
4458.4  589.9632
4459.7  610.5815
4460.9  625.7184
4462.2  639.4232
4463.4  658.8148
4464.7  676.4467
4465.9  693.7109
4467.2  708.3159
4468.4  726.3979
4469.7  741.2482
4470.9  743.0076
4472.2  754.2168
4473.4  758.3896
4474.7  756.9576
4475.9  739.2029
4477.2  734.4571
4478.4  732.7798
4479.7  744.2755
4480.9  730.4071
4482.2  738.7935
4483.4  724.066
4484.7  727.1342
4485.9  713.3885
4487.2  689.947
4488.4  687.329
4489.7  686.3471
4490.9  699.0292
4492.2  707.1292
4493.4  735.1529
4494.7  754.9943
4495.9  776.39
4497.2  800.2405
4498.4  813.1679
4499.7  829.9412
4500.9  847.5735
4502.2  847.0417
4503.4  861.1146
4504.7  855.9191
4505.9  837.8779
4507.2  822.9456
4508.4  818.8956
4509.7  815.8683
4510.9  807.7679
4512.2  822.5366
4513.4  838.1231
4514.7  827.1592
4515.9  817.0546
4517.2  797.8267
4518.4  775.7762
4519.7  737.6072
4520.9  717.8071
4522.2  693.9974
4523.4  674.4012
4524.7  655.9099
4525.9  661.4739
4527.2  675.3832
4528.4  701.0746
4529.7  718.0115
4530.9  746.4846
4532.2  764.6898
4533.4  787.5585
4534.7  810.7952
4535.9  798.5633
4537.2  803.1862
4538.4  790.8314
4539.7  780.1127
4540.9  780.0719
4542.2  787.1083
4543.4  800.527
4544.7  796.2314
4545.9  790.9951
4547.2  816.9726
4548.4  851.337
4549.7  845.2008
4550.9  868.642
4552.2  890.2426
4553.4  905.093
4554.7  916.7111
4555.9  902.4338
4557.2  912.1702
4558.4  919.8204
4559.7  915.4839
4560.9  916.7111
4562.2  918.184
4563.4  923.9116
4564.7  919.6567
4565.9  910.4929
4567.2  912.4567
4568.4  909.6339
4569.7  896.2156
4570.9  891.8787
4572.2  881.815
4573.4  884.4333
4574.7  872.0374
4575.9  882.9605
4577.2  869.8283
4578.4  854.0782
4579.7  865.6967
4580.9  880.6287
4582.2  896.5428
4583.4  905.0109
4584.7  916.1385
4585.9  917.3657
4587.2  908.4067
4588.4  901.82
4589.7  883.2058
4590.9  877.8058
4592.2  875.1467
4593.4  882.1423
4594.7  876.333
4595.9  874.4512
4597.2  898.9155
4598.4  889.0971
4599.7  925.5477
4600.9  931.3162
4602.2  975.7442
4603.4  1011.132
4604.7  1043.287
4605.9  1040.955
4607.2  1055.151
4608.4  1049.955
4609.7  1083.952
4610.9  1077.324
4612.2  1089.147
4613.4  1059.61
4614.7  1067.178
4615.9  1078.428
4617.2  1065.501
4618.4  1047.051
4619.7  1067.628
4620.9  1076.138
4622.2  1067.464
4623.4  1063.496
4624.7  1050.528
4625.9  1035.023
4627.2  1042.182
4628.4  1024.796
4629.7  1006.468
4630.9  988.9584
4632.2  951.4028
4633.4  922.2751
4634.7  907.3836
4635.9  888.156
4637.2  858.4146
4638.4  847.4506
4639.7  842.7869
4640.9  833.0505
4642.2  828.4275
4643.4  858.0873
4644.7  885.8242
4645.9  903.5793
4647.2  936.5937
4648.4  951.2391
4649.7  976.7673
4650.9  1018.127
4652.2  1017.023
4653.4  1012.768
4654.7  1014.568
4655.9  1003.563
4657.2  977.0946
4658.4  958.6033
4659.7  912.4975
4660.9  887.4606
4662.2  896.2156
4663.4  899.9382
4664.7  915.5248
4665.9  937.9845
4667.2  957.3757
4668.4  976.44
4669.7  969.4852
4670.9  970.6716
4672.2  960.3622
4673.4  951.444
4674.7  956.2714
4675.9  960.2393
4677.2  950.2985
4678.4  964.2489
4679.7  978.1173
4680.9  971.6126
4682.2  971.8987
4683.4  960.485
4684.7  972.308
4685.9  964.8622
4687.2  942.8527
4688.4  917.3249
4689.7  892.6561
4690.9  898.261
4692.2  919.0842
4693.4  913.1929
4694.7  906.1157
4695.9  922.0707
4697.2  922.8069
4698.4  926.4888
4699.7  932.9934
4700.9  921.6613
4702.2  931.0709
4703.4  955.1259
4704.7  971.9807
4705.9  994.3992
4707.2  1022.382
4708.4  1024.509
4709.7  1036.332
4710.9  1053.432
4712.2  1092.993
4713.4  1135.784
4714.7  1161.435
4715.9  1179.19
4717.2  1177.022
4718.4  1174.117
4719.7  1137.216
4720.9  1105.961
4722.2  1063.169
4723.4  1015.264
4724.7  986.9127
4725.9  984.6628
4727.2  997.3857
4728.4  1029.745
4729.7  1046.314
4730.9  1065.583
4732.2  1094.792
4733.4  1105.961
4734.7  1124.411
4735.9  1127.561
4737.2  1144.539
4738.4  1155.585
4739.7  1150.226
4740.9  1165.403
4742.2  1148.507
4743.4  1148.548
4744.7  1142.657
4745.9  1146.748
4747.2  1155.257
4748.4  1166.262
4749.7  1150.757
4750.9  1158.612
4752.2  1140.162
4753.4  1127.684
4754.7  1133.003
4755.9  1121.752
4757.2  1128.175
4758.4  1094.711
4759.7  1086.447
4760.9  1090.292
4762.2  1096.552
4763.4  1104.693
4764.7  1135.293
4765.9  1158.203
4767.2  1195.431
4768.4  1215.804
4769.7  1200.872
4770.9  1224.273
4772.2  1214.781
4773.4  1219.077
4774.7  1182.299
4775.9  1169.044
4777.2  1157.467
4778.4  1154.03
4779.7  1135.662
4780.9  1153.048
4782.2  1133.289
4783.4  1161.926
4784.7  1187.699
4785.9  1228.036
4787.2  1242.764
4788.4  1258.146
4789.7  1292.715
4790.9  1270.828
4792.2  1271.196
4793.4  1280.524
4794.7  1279.542
4795.9  1292.674
4797.2  1301.674
4798.4  1291.16
4799.7  1299.342
4800.9  1296.724
4802.2  1272.505
4803.4  1271.81
4804.7  1308.097
4805.9  1311.697
4807.2  1303.679
4808.4  1304.865
4809.7  1318.897
4810.9  1319.675
4812.2  1326.261
4813.4  1342.584
4814.7  1342.994
4815.9  1323.602
4817.2  1322.17
4818.4  1319.429
4819.7  1300.283
4820.9  1277.947
4822.2  1270.256
4823.4  1255.405
4824.7  1247.878
4825.9  1264.446
4827.2  1264.242
4828.4  1270.542
4829.7  1290.179
4830.9  1294.883
4832.2  1299.424
4833.4  1268.251
4834.7  1261.787
4835.9  1257.083
4837.2  1242.027
4838.4  1230.573
4839.7  1231.514
4840.9  1233.887
4842.2  1264.446
4843.4  1284.288
4844.7  1292.551
4845.9  1288.747
4847.2  1269.887
4848.4  1271.319
4849.7  1265.796
4850.9  1255.323
4852.2  1221.041
4853.4  1181.685
4854.7  1166.998
4855.9  1161.844
4857.2  1140.284
4858.4  1151.125
4859.7  1147.075
4860.9  1154.358
4862.2  1165.117
4863.4  1161.721
4864.7  1162.54
4865.9  1158.694
4867.2  1166.63
4868.4  1160.044
4869.7  1178.822
4870.9  1211.427
4872.2  1238.796
4873.4  1233.191
4874.7  1266.86
4875.9  1267.187
4877.2  1281.138
4878.4  1226.604
4879.7  1189.99
4880.9  1187.822
4882.2  1181.849
4883.4  1180.09
4884.7  1189.949
4885.9  1194.899
4887.2  1221.859
4888.4  1269.233
4889.7  1323.029
4890.9  1373.635
4892.2  1410.372
4893.4  1416.263
4894.7  1405.708
4895.9  1393.272
4897.2  1397.445
4898.4  1392.535
4899.7  1378.79
4900.9  1378.135
4902.2  1366.598
4903.4  1316.484
4904.7  1308.588
4905.9  1295.865
4907.2  1309.693
4908.4  1327.202
4909.7  1337.798
4910.9  1351.953
4912.2  1306.952
4913.4  1264.037
4914.7  1227.055
4915.9  1177.799
4917.2  1158.858
4918.4  1169.044
4919.7  1212.163
4920.9  1245.709
4922.2  1301.224
4923.4  1365.903
4924.7  1395.604
4925.9  1408.695
4927.2  1413.809
4928.4  1388.403
4929.7  1388.199
4930.9  1364.062
4932.2  1336.243
4933.4  1307.524
4934.7  1303.597
4935.9  1321.434
4937.2  1354.734
4938.4  1384.476
4939.7  1426.695
4940.9  1444.491
4942.2  1456.723
4943.4  1474.478
4944.7  1484.747
4945.9  1477.833
4947.2  1504.465
4948.4  1469.651
4949.7  1448.869
4950.9  1437.945
4952.2  1413.89
4953.4  1414.627
4954.7  1390.94
4955.9  1407.631
4957.2  1409.554
4958.4  1426.532
4959.7  1419.372
4960.9  1429.109
