BITPIX  =                    8  /  8-bit ASCII characters                       
NAXIS   =                    1  /  Number of Image Dimensions                   
NAXIS1  =                 2048  /  Length of axis                               
ORIGIN  = 'NOAO-IRAF: WTEXTIMAGE'  /
IRAF-MAX=                   0.  /  Max image pixel (out of date)                
IRAF-MIN=                   0.  /  Min image pixel (out of date)                
IRAF-B/P=                   32  /  Image bits per pixel                         
IRAFTYPE= 'REAL FLOATING     '  /  Image datatype                              
OBJECT  = 'S HR  7576        R+L 450123'  /
FILENAME= 'SDR_2.0001.FITS   '  /  IRAF filename                               
FORMAT  = '5G14.7            '  /  Text line format                            
EXTEND  =                    F / File may contain extensions                    
ORIGIN  = 'NOAO-IRAF FITS Image Kernel July 2003' / FITS file originator        
DATE    = '2015-11-16T03:03:47' / Date FITS file was generated                  
IRAF-TLM= '2015-11-16T03:03:47' / Time of last modification                     
CRVAL1  =  3916.8                                                  
CDELT1  =  1.25                                                  
CRPIX1  =                    1                                                  
STATUS  = 'SPECTRUM                                                        '    
CTYPE1  = 'LAMBDA                                                          '    
OBJECT  = 'S HR  7576        R+L 450123'                                        
OBSNUM  =                45123                                                  
SDR RUN =                   45                                                  
RUN TAPE=                    1                                                  
TAPESCAN=                   23                                                  
IDS SLIT= 'R+L                                                             '    
INSTRUME= 'Lick 3.0 mts, Blue ITS                                          '    
OBSERVER= 'S.M. Faber et al                                                '    
TAPENUM =                   58                                                  
LICK    = 'FITS2                                                           '    
APNUM1  = '1 0 1.00 1.00 1.00 1.00'                                             
DC-FLAG =                    0                                                  
WCSDIM  =                    1                                                  
CD1_1   =  1.25                                                  
LTM1_1  =                   1.                                                  
WAT0_001= 'system=equispec'                                                     
WAT1_001= 'wtype=linear label=lambda units=angstroms'                           
END                                                                             
                                                                                
                                                                                
                                                                                
                                                                                
                                                                                
                                                                                
                                                                                
                                                                                
                                                                                
                                                                                
                                                                                
                                                                                
                                                                                
                                                                                
                                                                                
                                                                                
                                                                                
                                                                                
                                                                                
                                                                                
                                                                                
                                                                                
                                                                                
                                                                                
                                                                                
                                                                                
                                                                                
                                                                                
                                                                                
                                                                                
                                                                                
                                                                                
3918.1  -710.4412
3919.3  12.6749
3920.6  15.23933
3921.8  24.27414
3923.1  -2307.034
3924.3  -172.2544
3925.6  45.55034
3926.8  49.62399
3928.1  63.46454
3929.3  53.28859
3930.6  54.26204
3931.8  59.77946
3933.1  58.88782
3934.3  50.00026
3935.6  41.4399
3936.8  35.94292
3938.1  33.11673
3939.3  32.24557
3940.6  26.81812
3941.8  26.79769
3943.1  26.76085
3944.3  31.8243
3945.6  35.97562
3946.8  39.80386
3948.1  46.21702
3949.3  52.94094
3950.6  60.7733
3951.8  69.84495
3953.1  72.87153
3954.3  73.78361
3955.6  73.80814
3956.8  68.21301
3958.1  58.58105
3959.3  52.42561
3960.6  48.5033
3961.8  42.57282
3963.1  39.08813
3964.3  39.66074
3965.6  43.26402
3966.8  51.51357
3968.1  62.54019
3969.3  69.72222
3970.6  75.6691
3971.8  83.7182
3973.1  90.49535
3974.3  92.11091
3975.6  97.51378
3976.8  107.3502
3978.1  110.1151
3979.3  116.7204
3980.6  120.9822
3981.8  127.0108
3983.1  128.0415
3984.3  129.8289
3985.6  139.653
3986.8  142.062
3988.1  147.6449
3989.3  148.4916
3990.6  150.422
3991.8  148.876
3993.1  152.5325
3994.3  154.7901
3995.6  156.5611
3996.8  158.3648
3998.1  161.964
3999.3  164.2258
4000.6  162.4466
4001.8  165.1419
4003.1  166.054
4004.3  169.4037
4005.6  176.8925
4006.8  177.5264
4008.1  181.8619
4009.3  186.1809
4010.6  185.5469
4011.8  189.4079
4013.1  194.1032
4014.3  192.5286
4015.6  191.8456
4016.8  192.2709
4018.1  190.3159
4019.3  189.641
4020.6  185.5838
4021.8  182.0704
4023.1  181.3792
4024.3  176.1358
4025.6  168.418
4026.8  162.9333
4028.1  162.4466
4029.3  159.5141
4030.6  160.7288
4031.8  164.6757
4033.1  170.2299
4034.3  181.0357
4035.6  183.6287
4036.8  179.9682
4038.1  177.3547
4039.3  172.1726
4040.6  165.3383
4041.8  164.3362
4043.1  167.1092
4044.3  175.007
4045.6  179.6205
4046.8  183.3506
4048.1  188.8598
4049.3  189.6206
4050.6  181.5142
4051.8  177.5019
4053.1  177.4774
4054.3  173.3628
4055.6  167.0479
4056.8  168.4998
4058.1  169.4364
4059.3  163.8863
4060.6  166.9333
4061.8  169.0888
4063.1  168.9947
4064.3  173.187
4065.6  179.3383
4066.8  179.9764
4068.1  180.6676
4069.3  180.6389
4070.6  183.6737
4071.8  182.7698
4073.1  186.7085
4074.3  193.5306
4075.6  201.6329
4076.8  208.7372
4078.1  222.2547
4079.3  229.7844
4080.6  234.4633
4081.8  237.8253
4083.1  238.5329
4084.3  240.4306
4085.6  244.5329
4086.8  242.9296
4088.1  232.5779
4089.3  227.6412
4090.6  221.6412
4091.8  212.1197
4093.1  200.1237
4094.3  194.0787
4095.6  197.3752
4096.8  197.5388
4098.1  202.1114
4099.3  205.7842
4100.6  210.4428
4101.8  213.1217
4103.1  211.0481
4104.3  213.3548
4105.6  202.2382
4106.8  202.3159
4108.1  204.0092
4109.3  196.3404
4110.6  196.8108
4111.8  200.4386
4113.1  201.547
4114.3  200.8231
4115.6  199.8906
4116.8  202.3159
4118.1  206.2219
4119.3  200.5286
4120.6  204.8272
4121.8  197.7229
4123.1  194.0705
4124.3  190.9866
4125.6  186.3077
4126.8  182.868
4128.1  177.187
4129.3  177.7841
4130.6  179.1338
4131.8  182.095
4133.1  179.7432
4134.3  176.279
4135.6  166.8884
4136.8  162.0049
4138.1  159.8781
4139.3  156.9497
4140.6  160.0335
4141.8  161.8372
4143.1  168.0213
4144.3  168.9538
4145.6  169.7105
4146.8  167.87
4148.1  169.9027
4149.3  174.6471
4150.6  179.506
4151.8  182.0255
4153.1  186.1154
4154.3  193.3302
4155.6  196.7985
4156.8  198.7208
4158.1  199.956
4159.3  200.3036
4160.6  192.9048
4161.8  193.4897
4163.1  192.0705
4164.3  190.459
4165.6  187.8783
4166.8  187.3302
4168.1  183.6124
4169.3  182.2995
4170.6  183.4651
4171.8  183.2729
4173.1  185.641
4174.3  191.1911
4175.6  197.7065
4176.8  200.2546
4178.1  209.1626
4179.3  212.3119
4180.6  217.6616
4181.8  218.0093
4183.1  223.539
4184.3  226.042
4185.6  224.7987
4186.8  218.7577
4188.1  218.4878
4189.3  210.1647
4190.6  207.6861
4191.8  209.0849
4193.1  210.2464
4194.3  206.8476
4195.6  212.2137
4196.8  217.8866
4198.1  225.7844
4199.3  237.355
4200.6  243.7394
4201.8  246.5329
4203.1  246.6147
4204.3  247.1669
4205.6  249.0524
4206.8  247.0074
4208.1  248.6883
4209.3  263.8909
4210.6  274.03
4211.8  290.1201
4213.1  294.8195
4214.3  292.6518
4215.6  289.4698
4216.8  270.2754
4218.1  249.6127
4219.3  231.5758
4220.6  221.7516
4221.8  219.4694
4223.1  228.6515
4224.3  242.582
4225.6  259.715
4226.8  276.6026
4228.1  294.4432
4229.3  302.7132
4230.6  311.1304
4231.8  324.1857
4233.1  338.382
4234.3  348.4394
4235.6  359.6378
4236.8  368.8689
4238.1  374.1491
4239.3  372.4027
4240.6  365.2738
4241.8  348.2062
4243.1  337.2696
4244.3  320.1488
4245.6  307.6457
4246.8  304.4351
4248.1  305.2858
4249.3  306.0138
4250.6  318.4515
4251.8  329.2
4253.1  334.5702
4254.3  344.059
4255.6  353.3719
4256.8  365.7401
4258.1  371.2697
4259.3  371.4374
4260.6  364.1122
4261.8  354.329
4263.1  336.0467
4264.3  312.3288
4265.6  294.709
4266.8  284.0055
4268.1  283.8133
4269.3  292.6436
4270.6  306.7173
4271.8  323.1918
4273.1  338.7583
4274.3  345.241
4275.6  353.4292
4276.8  357.9404
4278.1  354.3167
4279.3  347.65
4280.6  339.1101
4281.8  328.6601
4283.1  322.4801
4284.3  320.2756
4285.6  317.0282
4286.8  319.8544
4288.1  319.6458
4289.3  319.9975
4290.6  311.5762
4291.8  305.9729
4293.1  293.4411
4294.3  281.4656
4295.6  275.2652
4296.8  264.7253
4298.1  253.2651
4299.3  250.5534
4300.6  247.9153
4301.8  256.488
4303.1  266.6844
4304.3  289.1589
4305.6  316.2633
4306.8  354.5294
4308.1  396.9918
4309.3  432.5216
4310.6  460.8121
4311.8  480.4482
4313.1  484.7223
4314.3  477.9983
4315.6  462.4399
4316.8  446.8734
4318.1  430.3212
4319.3  420.1575
4320.6  424.3579
4321.8  442.8652
4323.1  464.5995
4324.3  490.481
4325.6  512.0394
4326.8  528.1213
4328.1  530.8493
4329.3  532.5998
4330.6  517.2296
4331.8  497.843
4333.1  484.7386
4334.3  479.0658
4335.6  483.7734
4336.8  488.4278
4338.1  508.5506
4339.3  526.8083
4340.6  540.0886
4341.8  546.7185
4343.1  547.4506
4344.3  546.6694
4345.6  536.8534
4346.8  527.8799
4348.1  525.0415
4349.3  535.2706
4350.6  545.0252
4351.8  554.4404
4353.1  565.8433
4354.3  574.1419
4355.6  581.7943
4356.8  588.9518
4358.1  588.4978
4359.3  584.1501
4360.6  581.3076
4361.8  575.2626
4363.1  564.7595
4364.3  552.4036
4365.6  537.8268
4366.8  526.2358
4368.1  519.5977
4369.3  510.0639
4370.6  503.8553
4371.8  496.7509
4373.1  482.5546
4374.3  463.761
4375.6  438.2149
4376.8  408.5992
4378.1  392.0592
4379.3  383.1635
4380.6  389.143
4381.8  401.7975
4383.1  422.2843
4384.3  444.2517
4385.6  462.1168
4386.8  480.4073
4388.1  495.8921
4389.3  510.6651
4390.6  520.7675
4391.8  535.655
4393.1  538.1499
4394.3  529.111
4395.6  515.1232
4396.8  497.5199
4398.1  476.5668
4399.3  465.2375
4400.6  461.2579
4401.8  471.2539
4403.1  482.1824
4404.3  507.5854
4405.6  533.336
4406.8  550.9312
4408.1  555.7778
4409.3  563.4548
4410.6  560.8985
4411.8  564.1951
4413.1  571.2176
4414.3  581.2872
4415.6  589.0745
4416.8  585.0377
4418.1  589.7167
4419.3  587.1972
4420.6  581.9539
4421.8  581.9743
4423.1  575.9783
4424.3  574.8863
4425.6  568.6163
4426.8  569.5775
4428.1  572.6041
4429.3  576.326
4430.6  581.7166
4431.8  590.6165
4433.1  602.1953
4434.3  609.9622
4435.6  619.9377
4436.8  631.6228
4438.1  643.9296
4439.3  651.6474
4440.6  659.9011
4441.8  671.169
4443.1  676.8623
4444.3  676.0975
4445.6  661.1526
4446.8  646.7354
4448.1  626.4899
4449.3  605.1032
4450.6  586.4078
4451.8  572.7309
4453.1  565.1276
4454.3  556.1909
4455.6  555.97
4456.8  569.9538
4458.1  583.6062
4459.3  602.6983
4460.6  617.0706
4461.8  629.2874
4463.1  647.402
4464.3  659.8397
4465.6  669.4021
4466.8  682.6332
4468.1  701.5699
4469.3  714.2694
4470.6  728.6621
4471.8  730.883
4473.1  736.2082
4474.3  730.7726
4475.6  735.4025
4476.8  735.7256
4478.1  738.5967
4479.3  739.0834
4480.6  744.3718
4481.8  741.8156
4483.1  734.6663
4484.3  722.5476
4485.6  703.0056
4486.8  685.5372
4488.1  671.8112
4489.3  661.5861
4490.6  665.0095
4491.8  677.4839
4493.1  700.478
4494.3  730.0732
4495.6  763.4762
4496.8  795.4478
4498.1  819.4193
4499.3  842.4868
4500.6  857.5707
4501.8  864.6464
4503.1  859.0063
4504.3  845.0022
4505.6  829.223
4506.8  817.8732
4508.1  802.1472
4509.3  787.5009
4510.6  777.0877
4511.8  773.4558
4513.1  778.2166
4514.3  785.6235
4515.6  793.3864
4516.8  784.6297
4518.1  773.0345
4519.3  745.4966
4520.6  718.4412
4521.8  685.4022
4523.1  659.4962
4524.3  646.1545
4525.6  639.4429
4526.8  643.6188
4528.1  660.0074
4529.3  681.5453
4530.6  707.7581
4531.8  728.9607
4533.1  748.4209
4534.3  766.0693
4535.6  775.5376
4536.8  780.556
4538.1  780.0652
4539.3  779.3454
4540.6  776.5438
4541.8  777.5336
4543.1  772.3147
4544.3  778.3311
4545.6  782.5315
4546.8  786.3965
4548.1  795.4355
4549.3  809.3701
4550.6  827.9101
4551.8  848.1106
4553.1  866.0698
4554.3  881.166
4555.6  880.851
4556.8  877.2109
4558.1  875.7958
4559.3  871.5953
4560.6  865.4113
4561.8  868.7569
4563.1  871.7794
4564.3  881.3582
4565.6  880.7979
4566.8  872.2825
4568.1  871.579
4569.3  864.0084
4570.6  860.6832
4571.8  841.7506
4573.1  835.5788
4574.3  832.1882
4575.6  819.088
4576.8  818.2945
4578.1  825.7219
4579.3  845.8079
4580.6  856.2579
4581.8  872.8101
4583.1  881.1046
4584.3  886.3807
4585.6  880.7692
4586.8  871.8408
4588.1  860.7487
4589.3  847.9224
4590.6  833.816
4591.8  826.3231
4593.1  827.3824
4594.3  822.8958
4595.6  831.6892
4596.8  837.3007
4598.1  847.2271
4599.3  855.7425
4600.6  879.031
4601.8  903.2397
4603.1  920.7776
4604.3  948.6959
4605.6  969.3464
4606.8  980.3607
4608.1  999.502
4609.3  1006.602
4610.6  1009.007
4611.8  1008.884
4613.1  1009.289
4614.3  1017.952
4615.6  1014.394
4616.8  1010.635
4618.1  1007.162
4619.3  1002.443
4620.6  992.0336
4621.8  991.3751
4623.1  989.4692
4624.3  988.4385
4625.6  982.4794
4626.8  970.0826
4628.1  961.1459
4629.3  944.61
4630.6  923.5425
4631.8  903.7509
4633.1  879.4768
4634.3  861.4153
4635.6  848.3846
4636.8  823.2311
4638.1  805.8527
4639.3  791.6563
4640.6  785.2554
4641.8  783.46
4643.1  791.64
4644.3  819.8364
4645.6  836.9122
4646.8  870.0248
4648.1  891.0392
4649.3  903.2642
4650.6  923.796
4651.8  932.6386
4653.1  936.4996
4654.3  949.244
4655.6  940.5282
4656.8  926.655
4658.1  909.0557
4659.3  875.5422
4660.6  847.3458
4661.8  822.2004
4663.1  811.4437
4664.3  821.1084
4665.6  837.5052
4666.8  856.9859
4668.1  877.5095
4669.3  885.2396
4670.6  890.0126
4671.8  891.8695
4673.1  884.1926
4674.3  876.761
4675.6  876.8633
4676.8  884.4462
4678.1  886.0004
4679.3  880.0944
4680.6  878.8633
4681.8  888.5648
4683.1  887.5587
4684.3  883.1005
4685.6  879.6731
4686.8  876.2866
4688.1  873.4849
4689.3  873.0555
4690.6  870.0575
4691.8  860.7078
4693.1  854.6219
4694.3  849.9756
4695.6  839.8569
4696.8  839.1371
4698.1  841.1003
4699.3  841.7302
4700.6  848.4337
4701.8  853.5135
4703.1  860.0534
4704.3  873.5544
4705.6  884.7856
4706.8  893.1987
4708.1  908.2745
4709.3  928.9494
4710.6  953.199
4711.8  978.6389
4713.1  1008.107
4714.3  1033.662
4715.6  1049.494
4716.8  1055.04
4718.1  1051.15
4719.3  1039.392
4720.6  1008.062
4721.8  973.1132
4723.1  935.2521
4724.3  909.2397
4725.6  890.8184
4726.8  885.9103
4728.1  902.4094
4729.3  924.1069
4730.6  943.428
4731.8  962.4465
4733.1  985.42
4734.3  1000.7
4735.6  1014.406
4736.8  1026.41
4738.1  1038.181
4739.3  1051.02
4740.6  1058.541
4741.8  1057.842
4743.1  1048.741
4744.3  1043.441
4745.6  1039.788
4746.8  1031.756
4748.1  1022.336
4749.3  1011.985
4750.6  1004.475
4751.8  1003.228
4753.1  1001.097
4754.3  997.4896
4755.6  995.8823
4756.8  985.8618
4758.1  975.011
4759.3  968.0989
4760.6  967.9926
4761.8  976.7329
4763.1  990.6757
4764.3  1007.531
4765.6  1038.561
4766.8  1054.345
4768.1  1062.627
4769.3  1086.177
4770.6  1087.699
4771.8  1090.75
4773.1  1090.345
4774.3  1075.429
4775.6  1053.052
4776.8  1043.265
4778.1  1033.735
4779.3  1026.087
4780.6  1018.201
4781.8  1022.046
4783.1  1038.234
4784.3  1056.132
4785.6  1075.924
4786.8  1092.21
4788.1  1110.325
4789.3  1118.513
4790.6  1119.069
4791.8  1117.065
4793.1  1109.613
4794.3  1107.29
4795.6  1104.987
4796.8  1112.087
4798.1  1118.983
4799.3  1126.648
4800.6  1129.036
4801.8  1135.49
4803.1  1128.059
4804.3  1124.729
4805.6  1120.059
4806.8  1118.182
4808.1  1121.339
4809.3  1128.386
4810.6  1138.709
4811.8  1155.765
4813.1  1165.384
4814.3  1166.824
4815.6  1157.887
4816.8  1144.161
4818.1  1133.744
4819.3  1126.063
4820.6  1118.145
4821.8  1107.081
4823.1  1103.666
4824.3  1097.245
4825.6  1085.973
4826.8  1080.991
4828.1  1077.596
4829.3  1080.586
4830.6  1087.159
4831.8  1081.96
4833.1  1074.447
4834.3  1075.506
4835.6  1075.821
4836.8  1066.468
4838.1  1083.551
4839.3  1092.41
4840.6  1102.86
4841.8  1108.325
4843.1  1109.437
4844.3  1107.703
4845.6  1095.196
4846.8  1075.637
4848.1  1054.259
4849.3  1037.109
4850.6  1019.404
4851.8  1005.469
4853.1  993.6655
4854.3  986.7207
4855.6  987.0806
4856.8  986.1522
4858.1  994.2545
4859.3  1004.267
4860.6  1014.005
4861.8  1012.966
4863.1  1015.801
4864.3  1008.966
4865.6  1010.651
4866.8  1010.639
4868.1  1023.49
4869.3  1053.077
4870.6  1076.361
4871.8  1090.758
4873.1  1106.738
4874.3  1106.145
4875.6  1097.49
4876.8  1080.149
4878.1  1059.539
4879.3  1036.099
4880.6  1017.567
4881.8  1010.079
4883.1  1012.402
4884.3  1023.756
4885.6  1042.512
4886.8  1071.347
4888.1  1109.715
4889.3  1149.854
4890.6  1183.413
4891.8  1201.785
4893.1  1203.155
4894.3  1197.331
4895.6  1187.253
4896.8  1179.519
4898.1  1169.724
4899.3  1166.403
4900.6  1159.061
4901.8  1152.689
4903.1  1146.464
4904.3  1144.901
4905.6  1128.93
4906.8  1124.865
4908.1  1114.828
4909.3  1107.932
4910.6  1083.96
4911.8  1059.519
4913.1  1033.764
4914.3  1014.054
4915.6  1007.739
4916.8  1021.289
4918.1  1050.701
4919.3  1090.308
4920.6  1125.028
4921.8  1154.693
4923.1  1187.642
4924.3  1210.877
4925.6  1210.296
4926.8  1200.685
4928.1  1179.167
4929.3  1156.942
4930.6  1114.734
4931.8  1091.007
4933.1  1083.776
4934.3  1100.656
4935.6  1131.928
4936.8  1179.392
4938.1  1217.082
4939.3  1247.409
4940.6  1274.996
4941.8  1282.223
4943.1  1275.577
4944.3  1270.501
4945.6  1267.053
4946.8  1255.454
4948.1  1236.628
4949.3  1219.765
4950.6  1200.759
4951.8  1191.372
4953.1  1198.783
4954.3  1210.93
4955.6  1221.773
4956.8  1227.254
4958.1  1226.501
4959.3  1220.718
4960.6  1213.02
4961.8  1201.527
4963.1  1214.591
4964.3  1233.151
4965.6  1255.671
4966.8  1281.258
4968.1  1280.931
4969.3  1273.916
4970.6  1251.098
4971.8  1206.022
4973.1  1167.016
4974.3  1126.419
4975.6  1102.386
4976.8  1079.605
4978.1  1072.112
4979.3  1085.805
4980.6  1102.361
4981.8  1122.153
4983.1  1144.038
4984.3  1161.102
4985.6  1166.664
4986.8  1170.664
