BITPIX  =                    8  /  8-bit ASCII characters                       
NAXIS   =                    1  /  Number of Image Dimensions                   
NAXIS1  =                 2048  /  Length of axis                               
ORIGIN  = 'NOAO-IRAF: WTEXTIMAGE'  /
IRAF-MAX=                   0.  /  Max image pixel (out of date)                
IRAF-MIN=                   0.  /  Min image pixel (out of date)                
IRAF-B/P=                   32  /  Image bits per pixel                         
IRAFTYPE= 'REAL FLOATING     '  /  Image datatype                              
OBJECT  = 'S HR  7576        R+L 580314'  /
FILENAME= 'SDR_3.0001.FITS   '  /  IRAF filename                               
FORMAT  = '5G14.7            '  /  Text line format                            
EXTEND  =                    F / File may contain extensions                    
ORIGIN  = 'NOAO-IRAF FITS Image Kernel July 2003' / FITS file originator        
DATE    = '2015-11-16T03:04:00' / Date FITS file was generated                  
IRAF-TLM= '2015-11-16T03:04:00' / Time of last modification                     
                                                                                
CRVAL1  =   3923.1                                                  
CDELT1  =   1.25                                                  
CRPIX1  =                    1                                                  
STATUS  = 'SPECTRUM                                                        '    
CTYPE1  = 'LAMBDA                                                          '    
OBJECT  = 'S HR  7576        R+L 580314'                                        
OBSNUM  =                58314                                                  
SDR RUN =                   58                                                  
RUN TAPE=                    3                                                  
TAPESCAN=                   14                                                  
IDS SLIT= 'R+L                                                             '    
INSTRUME= 'Lick 3.0 mts, Blue ITS                                          '    
OBSERVER= 'S.M. Faber, J.J. Gonzalez                                       '    
TAPENUM =                  720                                                  
LICK    = 'FITS2                                                           '    
APNUM1  = '1 0 1.00 1.00 1.00 1.00'                                             
DC-FLAG =                    0                                                  
WCSDIM  =                    1                                                  
CD1_1   =  1.25                                                  
LTM1_1  =                   1.                                                  
WAT0_001= 'system=equispec'                                                     
WAT1_001= 'wtype=linear label=lambda units=angstroms'                           
END                                                                             
                                                                                
                                                                                
                                                                                
                                                                                
                                                                                
                                                                                
                                                                                
                                                                                
                                                                                
                                                                                
                                                                                
                                                                                
                                                                                
                                                                                
                                                                                
                                                                                
                                                                                
                                                                                
                                                                                
                                                                                
                                                                                
                                                                                
                                                                                
                                                                                
                                                                                
                                                                                
                                                                                
                                                                                
                                                                                
                                                                                
                                                                                
3924.3  -1567.791
3925.6  16.03687
3926.8  15.10435
3928.1  -973.9026
3929.3  54.83459
3930.6  47.25178
3931.8  73.38684
3933.1  82.72028
3934.3  68.9697
3935.6  77.26009
3936.8  78.31121
3938.1  59.43176
3939.3  53.31721
3940.6  47.75894
3941.8  44.67096
3943.1  44.19656
3944.3  51.33767
3945.6  56.15158
3946.8  66.65474
3948.1  78.62208
3949.3  83.93091
3950.6  88.11494
3951.8  93.86549
3953.1  105.2603
3954.3  111.2685
3955.6  121.3421
3956.8  129.2317
3958.1  130.336
3959.3  114.4709
3960.6  103.432
3961.8  83.58324
3963.1  65.36635
3964.3  61.72216
3965.6  69.35819
3966.8  76.54028
3968.1  92.18039
3969.3  115.0395
3970.6  135.0027
3971.8  152.2871
3973.1  164.737
3974.3  176.3322
3975.6  184.9171
3976.8  197.637
3978.1  201.0603
3979.3  208.8354
3980.6  220.7373
3981.8  217.3835
3983.1  225.3917
3984.3  219.6452
3985.6  219.903
3986.8  231.9193
3988.1  231.5267
3989.3  232.4224
3990.6  229.7885
3991.8  237.1382
3993.1  237.5022
3994.3  230.5083
3995.6  249.5595
3996.8  252.9747
3998.1  262.7866
3999.3  265.7845
4000.6  265.4614
4001.8  282.9789
4003.1  277.5351
4004.3  280.12
4005.6  281.8214
4006.8  293.1303
4008.1  300.2142
4009.3  303.8216
4010.6  308.2592
4011.8  319.2163
4013.1  321.4167
4014.3  321.474
4015.6  322.1652
4016.8  324.2266
4018.1  322.4106
4019.3  311.5926
4020.6  301.0199
4021.8  295.3266
4023.1  290.7827
4024.3  275.441
4025.6  266.0463
4026.8  263.1301
4028.1  272.7048
4029.3  258.0504
4030.6  264.5044
4031.8  275.3224
4033.1  287.9933
4034.3  292.0914
4035.6  293.3102
4036.8  286.5291
4038.1  278.6231
4039.3  273.5474
4040.6  260.1321
4041.8  258.9829
4043.1  265.4778
4044.3  273.6823
4045.6  284.2673
4046.8  286.0546
4048.1  288.934
4049.3  287.3511
4050.6  279.0893
4051.8  276.2754
4053.1  267.437
4054.3  259.2692
4055.6  258.5821
4056.8  262.8643
4058.1  269.8255
4059.3  274.6599
4060.6  289.3021
4061.8  297.433
4063.1  296.8767
4064.3  297.0649
4065.6  295.5147
4066.8  293.4289
4068.1  293.8501
4069.3  294.5782
4070.6  290.9258
4071.8  302.3287
4073.1  305.9729
4074.3  325.9525
4075.6  339.7849
4076.8  360.284
4078.1  375.4661
4079.3  377.9815
4080.6  394.8322
4081.8  402.9018
4083.1  402.0143
4084.3  401.7034
4085.6  398.8854
4086.8  377.642
4088.1  365.9282
4089.3  343.0938
4090.6  327.5272
4091.8  326.1734
4093.1  319.3227
4094.3  317.0854
4095.6  322.063
4096.8  329.6172
4098.1  344.2431
4099.3  349.83
4100.6  357.92
4101.8  352.0385
4103.1  348.3739
4104.3  351.5192
4105.6  347.1183
4106.8  344.0508
4108.1  340.9015
4109.3  336.6152
4110.6  336.3084
4111.8  327.106
4113.1  330.0344
4114.3  334.791
4115.6  333.7767
4116.8  334.7665
4118.1  338.5988
4119.3  335.4782
4120.6  334.1489
4121.8  342.7624
4123.1  338.5048
4124.3  319.6989
4125.6  315.568
4126.8  305.8788
4128.1  300.0751
4129.3  303.4085
4130.6  301.3266
4131.8  298.9913
4133.1  303.1631
4134.3  289.5802
4135.6  286.21
4136.8  282.3
4138.1  275.0239
4139.3  274.0872
4140.6  272.9584
4141.8  264.8807
4143.1  265.85
4144.3  267.9727
4145.6  261.0688
4146.8  262.1404
4148.1  261.2078
4149.3  272.0136
4150.6  281.302
4151.8  296.9463
4153.1  303.2449
4154.3  317.0732
4155.6  322.0384
4156.8  327.8994
4158.1  330.3943
4159.3  329.7481
4160.6  328.4474
4161.8  326.8237
4163.1  322.8687
4164.3  317.1304
4165.6  318.8769
4166.8  315.2163
4168.1  309.9034
4169.3  309.4903
4170.6  305.0036
4171.8  311.9811
4173.1  321.1754
4174.3  332.9873
4175.6  333.8176
4176.8  349.9977
4178.1  361.0366
4179.3  369.8301
4180.6  378.4436
4181.8  377.1675
4183.1  379.3311
4184.3  380.006
4185.6  380.0878
4186.8  376.4068
4188.1  371.8383
4189.3  370.4313
4190.6  352.3985
4191.8  341.7808
4193.1  340.3371
4194.3  346.5253
4195.6  351.8259
4196.8  359.9527
4198.1  380.6768
4199.3  389.6134
4200.6  404.2761
4201.8  418.6974
4203.1  422.3457
4204.3  416.3129
4205.6  415.0246
4206.8  425.27
4208.1  440.2558
4209.3  453.9123
4210.6  466.7303
4211.8  481.7733
4213.1  491.3398
4214.3  487.1967
4215.6  465.2538
4216.8  430.3008
4218.1  397.8588
4219.3  371.417
4220.6  356.6889
4221.8  364.6399
4223.1  383.8629
4224.3  410.497
4225.6  443.6628
4226.8  464.3786
4228.1  472.7304
4229.3  496.4278
4230.6  509.1109
4231.8  529.7982
4233.1  548.3831
4234.3  575.2708
4235.6  601.7985
4236.8  626.4366
4238.1  642.7148
4239.3  644.9153
4240.6  633.6432
4241.8  618.3917
4243.1  589.2545
4244.3  553.1929
4245.6  523.6754
4246.8  511.6917
4248.1  513.3195
4249.3  516.2848
4250.6  525.6263
4251.8  546.2195
4253.1  564.2523
4254.3  585.0827
4255.6  599.9048
4256.8  622.6616
4258.1  649.9623
4259.3  638.1873
4260.6  618.4244
4261.8  587.7617
4263.1  552.8126
4264.3  517.16
4265.6  485.2172
4266.8  467.3029
4268.1  469.7733
4269.3  494.3297
4270.6  519.4913
4271.8  536.9311
4273.1  568.1787
4274.3  577.508
4275.6  593.0009
4276.8  594.4651
4278.1  589.823
4279.3  586.4774
4280.6  570.9354
4281.8  552.3995
4283.1  539.1356
4284.3  529.52
4285.6  524.7756
4286.8  524.6079
4288.1  539.4465
4289.3  542.6816
4290.6  532.5834
4291.8  521.794
4293.1  500.207
4294.3  475.8755
4295.6  453.2579
4296.8  445.082
4298.1  436.6361
4299.3  420.4315
4300.6  418.0225
4301.8  432.7015
4303.1  456.08
4304.3  489.2949
4305.6  541.2379
4306.8  605.5613
4308.1  666.9767
4309.3  728.2776
4310.6  790.3843
4311.8  829.7833
4313.1  833.6729
4314.3  821.0021
4315.6  799.2105
4316.8  754.3474
4318.1  719.5496
4319.3  705.3
4320.6  715.0874
4321.8  745.5252
4323.1  796.0694
4324.3  861.9184
4325.6  896.1395
4326.8  913.9514
4328.1  917.9269
4329.3  893.7181
4330.6  864.6137
4331.8  829.8406
4333.1  807.456
4334.3  792.6461
4335.6  795.8772
4336.8  816.1145
4338.1  840.7854
4339.3  879.4604
4340.6  908.6917
4341.8  918.9903
4343.1  917.5956
4344.3  899.4523
4345.6  883.5586
4346.8  876.3561
4348.1  868.2538
4349.3  874.4829
4350.6  870.0452
4351.8  896.029
4353.1  907.8287
4354.3  928.2623
4355.6  945.6367
4356.8  960.0825
4358.1  965.4445
4359.3  971.1746
4360.6  960.4956
4361.8  954.925
4363.1  929.7715
4364.3  919.3625
4365.6  892.9575
4366.8  885.6404
4368.1  880.1025
4369.3  851.9307
4370.6  841.6606
4371.8  825.2843
4373.1  818.3149
4374.3  789.7545
4375.6  745.0549
4376.8  710.658
4378.1  679.0013
4379.3  659.4921
4380.6  682.9359
4381.8  707.8481
4383.1  721.2142
4384.3  746.4741
4385.6  781.3495
4386.8  812.8221
4388.1  834.1473
4389.3  865.4563
4390.6  899.1906
4391.8  918.2623
4393.1  924.5649
4394.3  904.9902
4395.6  874.5524
4396.8  840.8099
4398.1  806.1512
4399.3  765.5335
4400.6  758.1756
4401.8  768.6378
4403.1  800.3189
4404.3  849.5912
4405.6  888.4911
4406.8  927.5261
4408.1  949.5999
4409.3  961.6326
4410.6  971.105
4411.8  972.0376
4413.1  986.189
4414.3  1000.349
4415.6  1003.4
4416.8  995.9846
4418.1  986.8352
4419.3  980.692
4420.6  980.283
4421.8  986.6511
4423.1  989.4406
4424.3  979.101
4425.6  975.4691
4426.8  963.5304
4428.1  958.5938
4429.3  959.2155
4430.6  969.9557
4431.8  980.782
4433.1  1002.639
4434.3  1018.827
4435.6  1038.173
4436.8  1058.582
4438.1  1083.31
4439.3  1099.29
4440.6  1123.167
4441.8  1144.308
4443.1  1154.28
4444.3  1158.713
4445.6  1137.658
4446.8  1109.102
4448.1  1078.86
4449.3  1031.011
4450.6  991.0111
4451.8  961.0477
4453.1  933.3339
4454.3  924.6426
4455.6  930.1601
4456.8  948.7859
4458.1  981.8822
4459.3  1016.508
4460.6  1054.087
4461.8  1085.192
4463.1  1108.459
4464.3  1126.75
4465.6  1163.47
4466.8  1184.885
4468.1  1198.305
4469.3  1223.949
4470.6  1241.667
4471.8  1254.423
4473.1  1259.229
4474.3  1243.172
4475.6  1240.084
4476.8  1243.65
4478.1  1252.939
4479.3  1261.434
4480.6  1267.397
4481.8  1265.888
4483.1  1247.176
4484.3  1212.644
4485.6  1188.574
4486.8  1169.74
4488.1  1158.19
4489.3  1148.079
4490.6  1144.865
4491.8  1172.493
4493.1  1202.546
4494.3  1249.111
4495.6  1298.444
4496.8  1343.41
4498.1  1381.631
4499.3  1410.404
4500.6  1436.833
4501.8  1449.234
4503.1  1445.296
4504.3  1432.302
4505.6  1420.584
4506.8  1379.328
4508.1  1351.365
4509.3  1320.322
4510.6  1302.469
4511.8  1285.606
4513.1  1288.869
4514.3  1298.06
4515.6  1325.315
4516.8  1323.144
4518.1  1306.338
4519.3  1281.52
4520.6  1225.585
4521.8  1174.129
4523.1  1122.5
4524.3  1083.449
4525.6  1062.868
4526.8  1067.506
4528.1  1098.423
4529.3  1136.533
4530.6  1173.327
4531.8  1207.413
4533.1  1235.127
4534.3  1257.843
4535.6  1274.1
4536.8  1277.904
4538.1  1285.233
4539.3  1295.409
4540.6  1295.287
4541.8  1304.771
4543.1  1299.454
4544.3  1294.334
4545.6  1279.941
4546.8  1296.158
4548.1  1308.649
4549.3  1323.741
4550.6  1366.195
4551.8  1391.578
4553.1  1433.32
4554.3  1464.883
4555.6  1480.899
4556.8  1458.801
4558.1  1438.257
4559.3  1418.829
4560.6  1426.69
4561.8  1416.453
4563.1  1429.574
4564.3  1456.723
4565.6  1467.406
4566.8  1462.887
4568.1  1457.095
4569.3  1455.991
4570.6  1435.34
4571.8  1431.938
4573.1  1407.843
4574.3  1388.862
4575.6  1376.22
4576.8  1363.872
4578.1  1369.549
4579.3  1381.823
4580.6  1398.854
4581.8  1427.516
4583.1  1444.936
4584.3  1455.308
4585.6  1457.954
4586.8  1451.799
4588.1  1430.989
4589.3  1404.073
4590.6  1382.326
4591.8  1368.588
4593.1  1363.749
4594.3  1378.645
4595.6  1398.915
4596.8  1420.068
4598.1  1438.396
4599.3  1458.96
4600.6  1493.099
4601.8  1522.122
4603.1  1564.756
4604.3  1604.135
4605.6  1636.851
4606.8  1645.432
4608.1  1662.217
4609.3  1672.974
4610.6  1691.325
4611.8  1678.356
4613.1  1684.323
4614.3  1690.63
4615.6  1687.346
4616.8  1681.571
4618.1  1686.013
4619.3  1678.806
4620.6  1686.749
4621.8  1691.473
4623.1  1688.855
4624.3  1686.88
4625.6  1673.276
4626.8  1633.505
4628.1  1602.384
4629.3  1575.374
4630.6  1544.813
4631.8  1507.055
4633.1  1473.48
4634.3  1428.985
4635.6  1415.034
4636.8  1385.831
4638.1  1368.449
4639.3  1342.162
4640.6  1328.432
4641.8  1316.62
4643.1  1317.966
4644.3  1327.328
4645.6  1353.749
4646.8  1403.12
4648.1  1433.704
4649.3  1466.981
4650.6  1504.895
4651.8  1515.337
4653.1  1536.175
4654.3  1544.02
4655.6  1553.075
4656.8  1553.292
4658.1  1535.648
4659.3  1505.791
4660.6  1456.424
4661.8  1412.612
4663.1  1382.935
4664.3  1385.504
4665.6  1412.089
4666.8  1445.001
4668.1  1480.735
4669.3  1510.22
4670.6  1517.374
4671.8  1520.437
4673.1  1501.971
4674.3  1483.946
4675.6  1470.989
4676.8  1461.852
4678.1  1457.353
4679.3  1453.087
4680.6  1463.263
4681.8  1455.737
4683.1  1450.048
4684.3  1451.214
4685.6  1446.866
4686.8  1436.633
4688.1  1438.011
4689.3  1446.895
4690.6  1451.107
4691.8  1435.279
4693.1  1412.003
4694.3  1391.757
4695.6  1381.443
4696.8  1368.375
4698.1  1375.455
4699.3  1395.933
4700.6  1412.465
4701.8  1430.85
4703.1  1451.169
4704.3  1464.273
4705.6  1473.054
4706.8  1487.619
4708.1  1510.445
4709.3  1534.772
4710.6  1573.411
4711.8  1619.628
4713.1  1661.248
4714.3  1704.274
4715.6  1736.892
4716.8  1757.146
4718.1  1748.373
4719.3  1723.829
4720.6  1677.411
4721.8  1618.057
4723.1  1569.562
4724.3  1519.582
4725.6  1498.907
4726.8  1489.492
4728.1  1506.523
4729.3  1524.085
4730.6  1569.104
4731.8  1601.006
4733.1  1640.659
4734.3  1659.051
4735.6  1660.953
4736.8  1673.023
4738.1  1675.984
4739.3  1690.9
4740.6  1702.463
4741.8  1699.33
4743.1  1706.16
4744.3  1715.191
4745.6  1720.017
4746.8  1724.201
4748.1  1699.894
4749.3  1677.943
4750.6  1661.918
4751.8  1644.315
4753.1  1639.98
4754.3  1651.652
4755.6  1648.139
4756.8  1629.063
4758.1  1619.456
4759.3  1610.258
4760.6  1610.949
4761.8  1613.832
4763.1  1646.008
4764.3  1689.984
4765.6  1727.915
4766.8  1759.87
4768.1  1796.672
4769.3  1804.929
4770.6  1820.692
4771.8  1830.954
4773.1  1824.169
4774.3  1811.702
4775.6  1791.735
4776.8  1775.682
4778.1  1745.792
4779.3  1727.485
4780.6  1703.874
4781.8  1689.46
4783.1  1681.293
4784.3  1711.927
4785.6  1744.43
4786.8  1788.692
4788.1  1820.103
4789.3  1855.007
4790.6  1875.654
4791.8  1874.566
4793.1  1866.917
4794.3  1853.911
4795.6  1852.954
4796.8  1849.76
4798.1  1850.136
4799.3  1861.163
4800.6  1851.715
4801.8  1858.287
4803.1  1847.187
4804.3  1846.729
4805.6  1842.57
4806.8  1864.189
4808.1  1866.373
4809.3  1877.813
4810.6  1894.128
4811.8  1899.825
4813.1  1914.934
4814.3  1926.909
4815.6  1914.263
4816.8  1905.793
4818.1  1898.623
4819.3  1876.917
4820.6  1853.396
4821.8  1838.373
4823.1  1837.297
4824.3  1835.535
4825.6  1826.721
4826.8  1812.398
4828.1  1796.896
4829.3  1799.183
4830.6  1796.398
4831.8  1798.214
4833.1  1804.287
4834.3  1790.978
4835.6  1774.074
4836.8  1760.618
4838.1  1760.872
4839.3  1765.837
4840.6  1809.71
4841.8  1808.398
4843.1  1809.625
4844.3  1816.152
4845.6  1812.308
4846.8  1795.195
4848.1  1778.43
4849.3  1769.923
4850.6  1748.168
4851.8  1706.671
4853.1  1678.818
4854.3  1649.096
4855.6  1630.671
4856.8  1615.17
4858.1  1614.446
4859.3  1620.016
4860.6  1637.399
4861.8  1655.047
4863.1  1663.963
4864.3  1661.661
4865.6  1655.174
4866.8  1654.483
4868.1  1660.577
4869.3  1702.115
4870.6  1739.665
4871.8  1764.941
4873.1  1802.5
4874.3  1822.304
4875.6  1819.036
4876.8  1793.784
4878.1  1766.549
4879.3  1719.223
4880.6  1688.871
4881.8  1665.767
4883.1  1654.413
4884.3  1654.344
4885.6  1677.068
4886.8  1708.671
4888.1  1772.659
4889.3  1838.729
4890.6  1910.983
4891.8  1954.64
4893.1  1975.773
4894.3  1970.079
4895.6  1946.901
4896.8  1926.84
4898.1  1916.415
4899.3  1908.664
4900.6  1894.623
4901.8  1887.969
4903.1  1873.318
4904.3  1855.653
4905.6  1849.06
4906.8  1849.24
4908.1  1848.009
4909.3  1861.339
4910.6  1834.704
4911.8  1798.381
4913.1  1741.6
4914.3  1695.869
4915.6  1658.364
4916.8  1660.327
4918.1  1672.225
4919.3  1720.945
4920.6  1790.111
4921.8  1857.866
4923.1  1905.069
4924.3  1940.795
4925.6  1962.865
4926.8  1960.582
4928.1  1947.515
4929.3  1914.676
4930.6  1866.21
4931.8  1830.623
4933.1  1807.514
4934.3  1806.115
4935.6  1828.872
4936.8  1867.973
4938.1  1917.625
4939.3  1968.002
4940.6  1993.282
4941.8  2025.785
4943.1  2036.174
4944.3  2059.25
4945.6  2057.434
4946.8  2065.45
4948.1  2043.254
4949.3  2003.642
4950.6  1961.249
4951.8  1942.799
4953.1  1936.66
4954.3  1950.108
4955.6  1973.834
4956.8  1993.756
4958.1  1999.061
4959.3  1989.617
4960.6  1961.212
4961.8  1930.149
4963.1  1921.49
4964.3  1940.022
4965.6  1979.867
4966.8  2010.709
4968.1  2019.213
4969.3  2023.687
4970.6  1997.466
4971.8  1946.173
4973.1  1872.14
4974.3  1801.927
4975.6  1759.08
4976.8  1711.955
4978.1  1687.043
4979.3  1696.528
4980.6  1727.097
4981.8  1780.172
4983.1  1832.148
4984.3  1871.502
4985.6  1907.183
4986.8  1924.083
4988.1  1925.662
4989.3  1917.56
4990.6  1883.535
4991.8  1855.518
4993.1  1821.404
4994.3  1777.841
