###################################################################
## OUTPUT of StarlightChains_v04.for    [Cid@UFSC - 01/Apr/2007] ##
###################################################################

## Some input info
Omega_cen.txt                            [arq_obs]
Base.BC03.N                              [arq_base]
Omega_cen.msk                            [arq_masks]
StCv04.C11.config                        [arq_config]
   45                                    [N_base]
    0                                    [N_YAV_components = # of components with extra extinction!]
    0                                    [i_FitPowerLaw (1/0 = Yes/No)]
-9.99                                    [alpha_PowerLaw]
CCM                                      [red_law_option]
 1.030560                                [q_norm = A(l_norm)/A(V)]

## (Re)Sampling Parameters
 4826.00                                 [l_ini (A)]
 6100.00                                 [l_fin (A)]
    1.00                                 [dl    (A)]     (OBS: dl_cushion =    50.00 A)

## Normalization info
 5355.00                                 [l_norm (A) - for base]
 5330.00                                 [llow_norm (A) - window for f_obs]
 5380.00                                 [lupp_norm (A) - window for f_obs]
5.639691E-14                             [fobs_norm (in input units)]

## S/N
 5330.00                                 [llow_SN (A) - window for S/N]
 5380.00                                 [lupp_SN (A) - window for S/N]
  32.722                                 [S/N in S/N window]
  32.757                                 [S/N in norm. window]
  10.000                                 [S/N_err in S/N window]
  10.011                                 [S/N_err in norm. window]
  1.0000                                 [fscale_chi2]

## etc...
 -2147483648                             [idum_orig]
  1275                                   [NOl_eff]
  1275                                   [Nl_eff]
     0    NSIGMA                         [Ntot_cliped & clip_method]
   604800                                [Nglobal_steps]
   7                                     [N_chains]
  14                                     [NEX0s_base = N_base in EX0s-fits]
 0   0   1       26   2.0   1.126E+01    [Clip-Bug, RC-Crash & Burn-In warning-flags, n_censored_weights, wei_nsig_threshold & wei_limit]
     4      4.007      3.983      0.024  [idt_all, wdt_TotTime, wdt_UsrTime & wdt_SysTime (sec)]

## Synthesis Results - Best model ##

 8.13611E-02                             [chi2/Nl_eff]
     2.21812                             [adev (%)]

   102.01450                             [sum-of-x (%)]
 1.16545E-13                             [Flux_tot (units of input spectrum!)]
 1.52822E-09                             [Mini_tot (???)]
 7.79356E-10                             [Mcor_tot (???)]

 142.12                                  [v0_min  (km/s)]
 111.48                                  [vd_min  (km/s)]
 0.7437                                  [AV_min  (mag)]
 0.0000                                  [YAV_min (mag)]

# j     x_j(%)      Mini_j(%)     Mcor_j(%)     age_j(yr)     Z_j      (L/M)_j    YAV?  Mstars   component_j        a/Fe...       SSP_chi2r SSP_adev(%)   SSP_AV   SSP_x(%)
  1      0.0000     0.0000E+00    0.0000E+00    1.000000E+06  0.00400  3.810E-03    0   1.0000   age020_m42            0.0000     1.6366E-01     2.9667   2.7146   100.7729
  2      1.5269     6.5637E-03    1.2869E-02    3.160000E+06  0.00400  1.739E-02    0   0.9999   age045_m42            0.0000     1.6462E-01     2.8110   1.9321   102.1855
  3      0.0000     0.0000E+00    0.0000E+00    5.010000E+06  0.00400  9.804E-03    0   0.9488   age055_m42            0.0000     1.6365E-01     2.8248   2.2350   101.1560
  4      0.0000     0.0000E+00    0.0000E+00    1.000000E+07  0.00400  6.329E-03    0   0.8862   age070_m42            0.0000     1.0410E-01     2.3673   1.2918   101.6722
  5      0.0000     0.0000E+00    0.0000E+00    2.512000E+07  0.00400  2.611E-03    0   0.8174   age090_m42            0.0000     1.0164E-01     2.3563   1.1913   101.7169
  6      0.0083     3.1113E-04    4.7897E-04    4.000000E+07  0.00400  1.985E-03    0   0.7851   age104_m42            0.0000     9.9474E-02     2.3462   0.9787   102.0294
  7      0.0000     0.0000E+00    0.0000E+00    1.015200E+08  0.00400  1.164E-03    0   0.7207   age116_m42            0.0000     1.6816E-01     2.6452   1.4214   101.1512
  8      0.0000     0.0000E+00    0.0000E+00    2.861200E+08  0.00400  6.611E-04    0   0.6613   age125_m42            0.0000     1.8886E-01     2.7249   0.9271   101.8159
  9      0.0000     0.0000E+00    0.0000E+00    6.405400E+08  0.00400  3.429E-04    0   0.6197   age132_m42            0.0000     1.7320E-01     2.7027   0.5891   101.2124
 10      0.0000     0.0000E+00    0.0000E+00    9.047900E+08  0.00400  2.655E-04    0   0.6024   age135_m42            0.0000     1.3974E-01     2.5478   0.3478   101.5206
 11      0.0000     0.0000E+00    0.0000E+00    1.434000E+09  0.00400  1.821E-04    0   0.5716   age139_m42            0.0000     1.0405E-01     2.3944  -0.1229   103.2180
 12     13.6087     9.2317E+00    9.8892E+00    2.500000E+09  0.00400  1.102E-04    0   0.5463   age150_m42            0.0000     9.7826E-02     2.3866  -0.3750   103.6086
 13     16.7099     2.1310E+01    2.1845E+01    5.000000E+09  0.00400  5.862E-05    0   0.5228   age161_m42            0.0000     1.0937E-01     2.5132  -0.5659   103.7282
 14     28.8957     6.9014E+01    6.7393E+01    1.100000E+10  0.00400  3.130E-05    0   0.4980   age185_m42            0.0000     1.4424E-01     2.8125  -0.7737   104.5232
 15      0.0000     0.0000E+00    0.0000E+00    1.300000E+10  0.00400  2.698E-05    0   0.4927   age193_m42            0.0000     1.5355E-01     2.8767  -0.7979   104.6505
 16     35.9220     3.9381E-01    7.7221E-01    1.000000E+06  0.02000  6.819E-03    0   1.0000   age020_m62            0.0000     1.6730E-01     2.9475   2.6740   100.7392
 17      0.0000     0.0000E+00    0.0000E+00    3.160000E+06  0.02000  1.322E-02    0   0.9858   age045_m62            0.0000     1.5775E-01     2.8497   2.5447   100.3829
 18      0.0000     0.0000E+00    0.0000E+00    5.010000E+06  0.02000  1.270E-02    0   0.9342   age055_m62            0.0000     1.5541E-01     2.7700   2.2313   100.5824
 19      0.0000     0.0000E+00    0.0000E+00    1.000000E+07  0.02000  5.228E-03    0   0.8751   age070_m62            0.0000     1.1648E-01     2.6369   0.9578   103.8880
 20      0.0000     0.0000E+00    0.0000E+00    2.512000E+07  0.02000  2.225E-03    0   0.8099   age090_m62            0.0000     1.1825E-01     2.6433   1.1281   103.6005
 21      0.0000     0.0000E+00    0.0000E+00    4.000000E+07  0.02000  1.744E-03    0   0.7799   age104_m62            0.0000     1.3715E-01     2.6646   1.2483   102.9199
 22      0.0000     0.0000E+00    0.0000E+00    1.015200E+08  0.02000  9.584E-04    0   0.7221   age116_m62            0.0000     1.8454E-01     2.7942   1.3452   102.4128
 23      0.0000     0.0000E+00    0.0000E+00    2.861200E+08  0.02000  5.242E-04    0   0.6700   age125_m62            0.0000     2.3546E-01     2.9109   0.9615   103.7095
 24      0.0000     0.0000E+00    0.0000E+00    6.405400E+08  0.02000  2.776E-04    0   0.6322   age132_m62            0.0000     1.8247E-01     2.8255   0.4157   104.7271
 25      0.0000     0.0000E+00    0.0000E+00    9.047900E+08  0.02000  2.069E-04    0   0.6152   age135_m62            0.0000     1.4565E-01     2.7416   0.0721   105.2852
 26      0.0000     0.0000E+00    0.0000E+00    1.434000E+09  0.02000  1.328E-04    0   0.5865   age139_m62            0.0000     1.3016E-01     2.7439  -0.3726   106.8097
 27      0.0000     0.0000E+00    0.0000E+00    2.500000E+09  0.02000  7.590E-05    0   0.5610   age150_m62            0.0000     1.5675E-01     3.0200  -0.6869   108.3290
 28      0.0000     0.0000E+00    0.0000E+00    5.000000E+09  0.02000  4.128E-05    0   0.5353   age161_m62            0.0000     1.9584E-01     3.3192  -0.9180   109.3962
 29      0.0000     0.0000E+00    0.0000E+00    1.100000E+10  0.02000  2.147E-05    0   0.5103   age185_m62            0.0000     2.8527E-01     3.9951  -1.0000   110.5852
 30      0.0000     0.0000E+00    0.0000E+00    1.300000E+10  0.02000  1.811E-05    0   0.5047   age193_m62            0.0000     3.1257E-01     4.1838  -1.0000   110.6985
 31      5.3430     4.4233E-02    8.6718E-02    1.000000E+06  0.05000  9.030E-03    0   0.9998   age020_m72            0.0000     1.7375E-01     2.9765   2.7589   100.9286
 32      0.0000     0.0000E+00    0.0000E+00    3.160000E+06  0.05000  1.725E-02    0   0.9577   age045_m72            0.0000     1.9408E-01     3.0150   2.5757   100.3520
 33      0.0000     0.0000E+00    0.0000E+00    5.010000E+06  0.05000  1.253E-02    0   0.9147   age055_m72            0.0000     1.6260E-01     2.8198   2.1176   102.1884
 34      0.0000     0.0000E+00    0.0000E+00    1.000000E+07  0.05000  3.371E-03    0   0.8524   age070_m72            0.0000     1.9950E-01     3.1937   2.4670   102.5097
 35      0.0000     0.0000E+00    0.0000E+00    2.512000E+07  0.05000  1.756E-03    0   0.7902   age090_m72            0.0000     1.9015E-01     3.0000   2.1048   102.5729
 36      0.0000     0.0000E+00    0.0000E+00    4.000000E+07  0.05000  1.486E-03    0   0.7618   age104_m72            0.0000     2.0489E-01     2.9705   1.7280   102.5437
 37      0.0000     0.0000E+00    0.0000E+00    1.015200E+08  0.05000  8.518E-04    0   0.7092   age116_m72            0.0000     2.2714E-01     2.9865   1.4443   103.1106
 38      0.0000     0.0000E+00    0.0000E+00    2.861200E+08  0.05000  4.544E-04    0   0.6618   age125_m72            0.0000     2.2353E-01     2.9024   0.8217   104.5255
 39      0.0000     0.0000E+00    0.0000E+00    6.405400E+08  0.05000  2.373E-04    0   0.6253   age132_m72            0.0000     1.5848E-01     2.8202   0.0571   106.3558
 40      0.0000     0.0000E+00    0.0000E+00    9.047900E+08  0.05000  1.724E-04    0   0.6088   age135_m72            0.0000     1.4224E-01     2.8305  -0.3917   107.4438
 41      0.0000     0.0000E+00    0.0000E+00    1.434000E+09  0.05000  1.118E-04    0   0.5847   age139_m72            0.0000     1.7016E-01     3.1135  -0.6850   108.7990
 42      0.0000     0.0000E+00    0.0000E+00    2.500000E+09  0.05000  6.239E-05    0   0.5583   age150_m72            0.0000     2.2490E-01     3.5156  -0.9648   110.1856
 43      0.0000     0.0000E+00    0.0000E+00    5.000000E+09  0.05000  3.096E-05    0   0.5320   age161_m72            0.0000     4.5365E-01     5.0959  -1.0000   111.9917
 44      0.0000     0.0000E+00    0.0000E+00    1.100000E+10  0.05000  1.530E-05    0   0.5070   age185_m72            0.0000     7.1825E-01     6.5505  -1.0000   112.3774
 45      0.0000     0.0000E+00    0.0000E+00    1.300000E+10  0.05000  1.306E-05    0   0.5018   age193_m72            0.0000     8.1110E-01     6.9959  -1.0000   112.5122


## Synthesis Results - Average & Chains ##

# j      x_j: min, <> & last-chain-values for 1 ...  7 chains
  1      0.0000      1.7857      0.0000     13.3042      2.7381      0.0000      0.0000      0.6503      1.9949
  2      1.5269      2.4021      0.0000      0.0000      4.4974      0.0000      4.2056     10.4367      9.1404
  3      0.0000      1.4440      0.2692      3.7686      6.2518      0.2724      3.9957      0.0000      0.0000
  4      0.0000      4.0821      5.5394      0.0000      0.0000      0.7014      5.2787      2.2304      0.0000
  5      0.0000      4.8852      2.2944      0.0000      0.0000      0.0000      0.0000      0.0000      0.0000
  6      0.0083      8.6280      0.0000      0.0000     15.9799     14.6862     16.0469      3.9009      5.3674
  7      0.0000      0.7304      0.0000      0.1456      0.0000      0.0000      0.0000      0.0000      0.0000
  8      0.0000      1.5194      0.0000      0.0000      0.0000      0.0000      0.0000      0.0000      0.0000
  9      0.0000      1.4411      0.0000      0.0000      0.0000      0.0000      0.0000      0.0000      0.0000
 10      0.0000      4.6094      0.0000      4.8787      0.3295      0.0000      0.0000      0.0000      3.0805
 11      0.0000      8.1688     28.7314      0.0000     15.2893     21.7427      0.0000     30.9597      0.0000
 12     13.6087      7.2472      0.0000     25.4303     20.9605      7.0769      0.0000     14.0669      8.6130
 13     16.7099      5.4640     14.4014      2.8557      7.0907     11.8418      7.0957      9.1267     14.6932
 14     28.8957      4.2828     12.8966      0.0000      2.6837     15.4375      0.0000      8.0791      8.1084
 15      0.0000      2.9149      6.5430      5.3921      5.1469      0.0000     11.2717      0.0000     16.6891
 16     35.9220      1.8179      7.8712      5.6610      0.0000      7.0158      6.8239      2.8478      0.0000
 17      0.0000      1.4188      0.0000      2.3545      5.0822      0.0000      4.4879      5.2783      0.0000
 18      0.0000      1.5362      5.8424      0.0000      6.9013      3.0693      0.0000      2.2971      5.1036
 19      0.0000      4.9334      0.1952      0.0000      0.0000      0.0000      0.0000      1.0419      9.1120
 20      0.0000      4.8033      0.0000      0.0000      0.0000      3.6425      1.1929      0.0000      0.0000
 21      0.0000      0.9586      0.0000      2.2100      0.0000      0.0000      0.0000      0.0000      1.8500
 22      0.0000      0.6585      0.0000      0.0000      0.0000      0.0000      0.9017      0.0000      0.0000
 23      0.0000      0.4921      0.0000      0.0000      0.0000      0.0000      0.0000      0.0000      0.0000
 24      0.0000      0.7386      0.0000      0.0000      0.0000      1.2478      0.0000      0.0000      0.0000
 25      0.0000      1.6120      0.0000      0.0000      0.0000      0.0000      0.0000      0.0000      0.0000
 26      0.0000      3.5793      0.0000     24.7186      0.0000      0.0000      0.3459      6.1048      0.0000
 27      0.0000      2.9539      0.0000      9.3700      0.0000      0.0000      0.0000      0.0000      0.0000
 28      0.0000      2.1774      0.0000      0.0000      0.0000      0.0000      9.8033      0.6317      0.0000
 29      0.0000      0.8993      0.0000      0.0000      7.6473      3.9245      0.0000      0.0000      0.0000
 30      0.0000      1.3420      7.3036      0.0000      0.0000      0.0000      9.3616      0.0000      5.8640
 31      5.3430      2.3616      2.7416      0.0000      0.0000      0.0000     10.3448      2.5916      3.1559
 32      0.0000      0.4929      2.5267      1.7075      0.0000      0.0000      0.0000      0.0000      0.3572
 33      0.0000      0.3049      4.9661      0.0000      0.3981      0.0000      0.0000      0.0000      7.9140
 34      0.0000      0.6868      0.0000      0.0000      0.3595      6.8669      0.0000      1.7782      0.0000
 35      0.0000      0.4897      0.0000      0.0000      0.2859      0.0000      0.0000      0.0000      1.9936
 36      0.0000      0.7502      0.0000      0.0000      0.0000      4.9355      0.0000      0.1435      0.0000
 37      0.0000      0.2026      0.0000      1.1584      0.0000      0.0000      0.0000      0.0000      0.0000
 38      0.0000      0.3288      0.0000      0.7543      0.0000      0.0000      0.0000      0.0000      0.0000
 39      0.0000      1.1715      0.0000      0.0000      0.0000      0.0000      0.0000      0.4270      0.3350
 40      0.0000      2.8244      0.0000      0.0000      0.0000      0.7772     12.4834      0.0000      0.0000
 41      0.0000      2.0434      0.0000      0.0000      0.0000      0.0000      0.0000      0.0000      0.0000
 42      0.0000      1.2175      1.0835      0.0000      1.5787      0.0000      0.0000      0.0000      0.0000
 43      0.0000      0.3417      0.0000      0.0000      0.0000      0.0000      0.0000      0.1536      0.0000
 44      0.0000      0.4318      0.0000      0.0000      0.0000      0.0000      0.0000      0.0000      0.0000
 45      0.0000      0.3546      0.0000      0.0000      0.0000      0.0000      0.0000      0.0000      0.0000

# j      m_j: min, <> & last-chain-values for 1 ...  7 chains
  1  0.0000E+00  1.0213E-01  0.0000E+00  7.8014E-01  1.2891E-01  0.0000E+00  0.0000E+00  4.0602E-02  6.6569E-02
  2  1.2869E-02  3.0099E-02  0.0000E+00  0.0000E+00  4.6385E-02  0.0000E+00  3.3865E-02  1.4276E-01  6.6818E-02
  3  0.0000E+00  3.0453E-02  3.4259E-03  8.1482E-02  1.0852E-01  4.6554E-03  5.4154E-02  0.0000E+00  0.0000E+00
  4  0.0000E+00  1.2456E-01  1.0199E-01  0.0000E+00  0.0000E+00  1.7346E-02  1.0351E-01  7.4295E-02  0.0000E+00
  5  0.0000E+00  3.3327E-01  9.4449E-02  0.0000E+00  0.0000E+00  0.0000E+00  0.0000E+00  0.0000E+00  0.0000E+00
  6  4.7897E-04  7.4364E-01  0.0000E+00  0.0000E+00  1.1337E+00  1.0259E+00  8.8884E-01  3.6703E-01  2.6990E-01
  7  0.0000E+00  9.8552E-02  0.0000E+00  2.0135E-02  0.0000E+00  0.0000E+00  0.0000E+00  0.0000E+00  0.0000E+00
  8  0.0000E+00  3.3120E-01  0.0000E+00  0.0000E+00  0.0000E+00  0.0000E+00  0.0000E+00  0.0000E+00  0.0000E+00
  9  0.0000E+00  5.6752E-01  0.0000E+00  0.0000E+00  0.0000E+00  0.0000E+00  0.0000E+00  0.0000E+00  0.0000E+00
 10  0.0000E+00  2.2790E+00  0.0000E+00  2.4731E+00  1.3411E-01  0.0000E+00  0.0000E+00  0.0000E+00  8.8861E-01
 11  0.0000E+00  5.5876E+00  1.1859E+01  0.0000E+00  8.6084E+00  1.2054E+01  0.0000E+00  2.3118E+01  0.0000E+00
 12  9.8892E+00  7.8291E+00  0.0000E+00  2.8165E+01  1.8638E+01  6.1961E+00  0.0000E+00  1.6589E+01  5.4284E+00
 13  2.1845E+01  1.0619E+01  1.6889E+01  5.6901E+00  1.1343E+01  1.8652E+01  8.8623E+00  1.9363E+01  1.6660E+01
 14  6.7393E+01  1.4849E+01  2.6982E+01  0.0000E+00  7.6590E+00  4.3380E+01  0.0000E+00  3.0579E+01  1.6402E+01
 15  0.0000E+00  1.1600E+01  1.5712E+01  2.2000E+01  1.6859E+01  0.0000E+00  2.8827E+01  0.0000E+00  3.8747E+01
 16  7.7221E-01  5.8095E-02  1.5179E-01  1.8547E-01  0.0000E+00  1.8171E-01  1.4014E-01  9.9348E-02  0.0000E+00
 17  0.0000E+00  2.3055E-02  0.0000E+00  3.9225E-02  6.7976E-02  0.0000E+00  4.6867E-02  9.3632E-02  0.0000E+00
 18  0.0000E+00  2.4625E-02  5.6512E-02  0.0000E+00  9.1058E-02  3.9875E-02  0.0000E+00  4.0197E-02  4.7729E-02
 19  0.0000E+00  1.7995E-01  4.2975E-03  0.0000E+00  0.0000E+00  0.0000E+00  0.0000E+00  4.1489E-02  1.9391E-01
 20  0.0000E+00  3.8101E-01  0.0000E+00  0.0000E+00  0.0000E+00  2.3417E-01  6.0807E-02  0.0000E+00  0.0000E+00
 21  0.0000E+00  9.3416E-02  0.0000E+00  2.2080E-01  0.0000E+00  0.0000E+00  0.0000E+00  0.0000E+00  1.0518E-01
 22  0.0000E+00  1.0811E-01  0.0000E+00  0.0000E+00  0.0000E+00  0.0000E+00  9.5142E-02  0.0000E+00  0.0000E+00
 23  0.0000E+00  1.3707E-01  0.0000E+00  0.0000E+00  0.0000E+00  0.0000E+00  0.0000E+00  0.0000E+00  0.0000E+00
 24  0.0000E+00  3.6653E-01  0.0000E+00  0.0000E+00  0.0000E+00  5.0189E-01  0.0000E+00  0.0000E+00  0.0000E+00
 25  0.0000E+00  1.0445E+00  0.0000E+00  0.0000E+00  0.0000E+00  0.0000E+00  0.0000E+00  0.0000E+00  0.0000E+00
 26  0.0000E+00  3.4448E+00  0.0000E+00  2.4390E+01  0.0000E+00  0.0000E+00  2.1395E-01  6.4139E+00  0.0000E+00
 27  0.0000E+00  4.7578E+00  0.0000E+00  1.5473E+01  0.0000E+00  0.0000E+00  0.0000E+00  0.0000E+00  0.0000E+00
 28  0.0000E+00  6.1531E+00  0.0000E+00  0.0000E+00  0.0000E+00  0.0000E+00  1.7803E+01  1.9486E+00  0.0000E+00
 29  0.0000E+00  4.6579E+00  0.0000E+00  0.0000E+00  3.2603E+01  1.6474E+01  0.0000E+00  0.0000E+00  0.0000E+00
 30  0.0000E+00  8.1501E+00  2.6765E+01  0.0000E+00  0.0000E+00  0.0000E+00  3.6537E+01  0.0000E+00  2.0777E+01
 31  8.6718E-02  5.6980E-02  3.9915E-02  0.0000E+00  0.0000E+00  0.0000E+00  1.6040E-01  6.8260E-02  4.4424E-02
 32  0.0000E+00  5.9634E-03  1.8446E-02  2.1179E-02  0.0000E+00  0.0000E+00  0.0000E+00  0.0000E+00  2.5213E-03
 33  0.0000E+00  4.8511E-03  4.7671E-02  0.0000E+00  5.2122E-03  0.0000E+00  0.0000E+00  0.0000E+00  7.3450E-02
