###################################################################
## OUTPUT of StarlightChains_v04.for    [Cid@UFSC - 01/Apr/2007] ##
###################################################################

## Some input info
Omega_cen.txt                            [arq_obs]
Base.BC03.N                              [arq_base]
Omega_cen.msk                            [arq_masks]
StCv04.C11.config                        [arq_config]
   45                                    [N_base]
    0                                    [N_YAV_components = # of components with extra extinction!]
    0                                    [i_FitPowerLaw (1/0 = Yes/No)]
-9.99                                    [alpha_PowerLaw]
CCM                                      [red_law_option]
 0.559451                                [q_norm = A(l_norm)/A(V)]

## (Re)Sampling Parameters
 7785.00                                 [l_ini (A)]
 8822.00                                 [l_fin (A)]
    1.00                                 [dl    (A)]     (OBS: dl_cushion =    50.00 A)

## Normalization info
 8275.00                                 [l_norm (A) - for base]
 8250.00                                 [llow_norm (A) - window for f_obs]
 8300.00                                 [lupp_norm (A) - window for f_obs]
3.308969E-14                             [fobs_norm (in input units)]

## S/N
 8250.00                                 [llow_SN (A) - window for S/N]
 8300.00                                 [lupp_SN (A) - window for S/N]
  23.728                                 [S/N in S/N window]
  23.739                                 [S/N in norm. window]
   0.000                                 [S/N_err in S/N window]
   0.000                                 [S/N_err in norm. window]
  1.0000                                 [fscale_chi2]

## etc...
 -2147483648                             [idum_orig]
  1038                                   [NOl_eff]
  1038                                   [Nl_eff]
     0    NSIGMA                         [Ntot_cliped & clip_method]
   374360                                [Nglobal_steps]
   7                                     [N_chains]
  19                                     [NEX0s_base = N_base in EX0s-fits]
 0   0   1        1   2.0   4.355E-18    [Clip-Bug, RC-Crash & Burn-In warning-flags, n_censored_weights, wei_nsig_threshold & wei_limit]
     4      4.130      4.107      0.024  [idt_all, wdt_TotTime, wdt_UsrTime & wdt_SysTime (sec)]

## Synthesis Results - Best model ##

 2.76677E-38                             [chi2/Nl_eff]
     3.07858                             [adev (%)]

    98.40981                             [sum-of-x (%)]
 4.14502E-14                             [Flux_tot (units of input spectrum!)]
 1.65491E-10                             [Mini_tot (???)]
 9.77318E-11                             [Mcor_tot (???)]

  97.55                                  [v0_min  (km/s)]
  68.74                                  [vd_min  (km/s)]
 0.4683                                  [AV_min  (mag)]
 0.0000                                  [YAV_min (mag)]

# j     x_j(%)      Mini_j(%)     Mcor_j(%)     age_j(yr)     Z_j      (L/M)_j    YAV?  Mstars   component_j        a/Fe...       SSP_chi2r SSP_adev(%)   SSP_AV   SSP_x(%)
  1      0.0001     1.7369E-05    2.9411E-05    1.000000E+06  0.00400  7.587E-04    0   1.0000   age020_m42            0.0000     3.3523E-38     3.2695   2.0043    98.6879
  2      0.0000     0.0000E+00    0.0000E+00    3.160000E+06  0.00400  4.713E-03    0   0.9999   age045_m42            0.0000     4.3724E-38     4.0954   0.3259    97.3927
  3      0.0507     5.3551E-03    8.6037E-03    5.010000E+06  0.00400  2.412E-03    0   0.9488   age055_m42            0.0000     3.1630E-38     3.3535   1.0679    97.8353
  4      0.0000     0.0000E+00    0.0000E+00    1.000000E+07  0.00400  2.458E-03    0   0.8862   age070_m42            0.0000     2.9979E-38     3.2854   0.1118    98.2462
  5     17.3486     4.1853E+00    5.7929E+00    2.512000E+07  0.00400  1.055E-03    0   0.8174   age090_m42            0.0000     2.9485E-38     3.2540   0.0544    98.2846
  6     24.3808     7.2238E+00    9.6036E+00    4.000000E+07  0.00400  8.590E-04    0   0.7851   age104_m42            0.0000     2.8306E-38     3.1523   0.0343    98.8502
  7      0.0000     0.0000E+00    0.0000E+00    1.015200E+08  0.00400  4.418E-04    0   0.7207   age116_m42            0.0000     2.9162E-38     3.1702   0.1673    99.5104
  8      0.8907     7.3671E-01    8.2496E-01    2.861200E+08  0.00400  3.077E-04    0   0.6613   age125_m42            0.0000     2.7820E-38     3.0748  -0.3075    98.3615
  9      0.0000     0.0000E+00    0.0000E+00    6.405400E+08  0.00400  1.743E-04    0   0.6197   age132_m42            0.0000     3.1749E-38     3.3388  -0.4984    98.2354
 10      4.2785     7.6687E+00    7.8225E+00    9.047900E+08  0.00400  1.420E-04    0   0.6024   age135_m42            0.0000     3.1790E-38     3.3403  -0.4690    98.4042
 11      0.0000     0.0000E+00    0.0000E+00    1.434000E+09  0.00400  1.135E-04    0   0.5716   age139_m42            0.0000     3.1325E-38     3.2885  -0.5786    98.3576
 12      8.5997     2.9909E+01    2.7668E+01    2.500000E+09  0.00400  7.318E-05    0   0.5463   age150_m42            0.0000     3.0275E-38     3.1696  -0.4477    99.6195
 13      0.0000     0.0000E+00    0.0000E+00    5.000000E+09  0.00400  4.244E-05    0   0.5228   age161_m42            0.0000     3.0992E-38     3.1855  -0.5724   100.0320
 14      0.0000     0.0000E+00    0.0000E+00    1.100000E+10  0.00400  2.518E-05    0   0.4980   age185_m42            0.0000     3.5160E-38     3.3998  -0.7395   100.9683
 15      0.0000     0.0000E+00    0.0000E+00    1.300000E+10  0.00400  2.173E-05    0   0.4927   age193_m42            0.0000     3.4597E-38     3.3704  -0.7407   100.7828
 16     28.9284     5.4377E+00    9.2078E+00    1.000000E+06  0.02000  1.354E-03    0   1.0000   age020_m62            0.0000     3.3523E-38     3.3136   2.0879    97.4189
 17      0.0000     0.0000E+00    0.0000E+00    3.160000E+06  0.02000  2.806E-03    0   0.9858   age045_m62            0.0000     3.2414E-38     3.2796   1.7604    97.8442
 18      0.0000     0.0000E+00    0.0000E+00    5.010000E+06  0.02000  3.300E-03    0   0.9342   age055_m62            0.0000     3.5476E-38     3.5436   0.8796    98.0288
 19     10.9618     9.0759E-01    1.3449E+00    1.000000E+07  0.02000  3.074E-03    0   0.8751   age070_m62            0.0000     3.3326E-38     3.3666  -0.7493    99.1413
 20      0.0000     0.0000E+00    0.0000E+00    2.512000E+07  0.02000  1.155E-03    0   0.8099   age090_m62            0.0000     3.3755E-38     3.3949  -0.5111    98.9051
 21      0.0000     0.0000E+00    0.0000E+00    4.000000E+07  0.02000  8.011E-04    0   0.7799   age104_m62            0.0000     3.3881E-38     3.4158  -0.1792    99.0153
 22      0.0000     0.0000E+00    0.0000E+00    1.015200E+08  0.02000  3.941E-04    0   0.7221   age116_m62            0.0000     3.4718E-38     3.4725  -0.0224    98.8424
 23      0.0000     0.0000E+00    0.0000E+00    2.861200E+08  0.02000  2.305E-04    0   0.6700   age125_m62            0.0000     3.4875E-38     3.5328  -0.2463    97.6227
 24      0.0000     0.0000E+00    0.0000E+00    6.405400E+08  0.02000  1.436E-04    0   0.6322   age132_m62            0.0000     3.6645E-38     3.6478  -0.6559    97.5258
 25      0.0000     0.0000E+00    0.0000E+00    9.047900E+08  0.02000  1.175E-04    0   0.6152   age135_m62            0.0000     3.7120E-38     3.6783  -0.7577    97.3787
 26      0.0000     0.0000E+00    0.0000E+00    1.434000E+09  0.02000  8.661E-05    0   0.5865   age139_m62            0.0000     3.5792E-38     3.5039  -0.7534    98.4815
 27      0.0000     0.0000E+00    0.0000E+00    2.500000E+09  0.02000  5.666E-05    0   0.5610   age150_m62            0.0000     4.0479E-38     3.7359  -1.0000    99.6544
 28      0.0000     0.0000E+00    0.0000E+00    5.000000E+09  0.02000  3.301E-05    0   0.5353   age161_m62            0.0000     4.3460E-38     3.8911  -1.0000   100.1157
 29      1.4522     1.9745E+01    1.7061E+01    1.100000E+10  0.02000  1.872E-05    0   0.5103   age185_m62            0.0000     4.7990E-38     4.1640  -1.0000   100.4655
 30      1.5183     2.4181E+01    2.0666E+01    1.300000E+10  0.02000  1.598E-05    0   0.5047   age193_m62            0.0000     4.8578E-38     4.1994  -1.0000   100.4805
 31      0.0000     0.0000E+00    0.0000E+00    1.000000E+06  0.05000  1.777E-03    0   0.9998   age020_m72            0.0000     3.7160E-38     3.5764   2.0148    97.6914
 32      0.0000     0.0000E+00    0.0000E+00    3.160000E+06  0.05000  3.733E-03    0   0.9577   age045_m72            0.0000     3.7779E-38     3.5511   1.7220    98.1873
 33      0.0000     0.0000E+00    0.0000E+00    5.010000E+06  0.05000  5.379E-03    0   0.9147   age055_m72            0.0000     5.7904E-38     4.6007  -0.9744   102.9947
 34      0.0000     0.0000E+00    0.0000E+00    1.000000E+07  0.05000  2.368E-03    0   0.8524   age070_m72            0.0000     2.9620E-37    10.5725  -1.0000   112.1185
 35      0.0000     0.0000E+00    0.0000E+00    2.512000E+07  0.05000  9.706E-04    0   0.7902   age090_m72            0.0000     1.0511E-37     6.2428  -1.0000   105.9611
 36      0.0000     0.0000E+00    0.0000E+00    4.000000E+07  0.05000  6.855E-04    0   0.7618   age104_m72            0.0000     5.3411E-38     4.3384  -0.6494   102.0835
 37      0.0000     0.0000E+00    0.0000E+00    1.015200E+08  0.05000  3.881E-04    0   0.7092   age116_m72            0.0000     4.3954E-38     3.8641  -0.4683   100.6044
 38      0.0000     0.0000E+00    0.0000E+00    2.861200E+08  0.05000  2.160E-04    0   0.6618   age125_m72            0.0000     3.7206E-38     3.5665  -0.4377    98.4977
 39      0.0000     0.0000E+00    0.0000E+00    6.405400E+08  0.05000  1.352E-04    0   0.6253   age132_m72            0.0000     3.6397E-38     3.5826  -0.6881    98.0167
 40      0.0000     0.0000E+00    0.0000E+00    9.047900E+08  0.05000  1.089E-04    0   0.6088   age135_m72            0.0000     3.5713E-38     3.5207  -0.7589    97.8400
 41      0.0000     0.0000E+00    0.0000E+00    1.434000E+09  0.05000  8.148E-05    0   0.5847   age139_m72            0.0000     3.9986E-38     3.6522  -0.9539    99.4315
 42      0.0000     0.0000E+00    0.0000E+00    2.500000E+09  0.05000  5.181E-05    0   0.5583   age150_m72            0.0000     4.6357E-38     3.9664  -1.0000   101.1895
 43      0.0000     0.0000E+00    0.0000E+00    5.000000E+09  0.05000  3.053E-05    0   0.5320   age161_m72            0.0000     5.9100E-38     4.4933  -1.0000   102.2725
 44      0.0000     0.0000E+00    0.0000E+00    1.100000E+10  0.05000  1.621E-05    0   0.5070   age185_m72            0.0000     6.1962E-38     4.5909  -1.0000   102.1974
 45      0.0000     0.0000E+00    0.0000E+00    1.300000E+10  0.05000  1.411E-05    0   0.5018   age193_m72            0.0000     6.2666E-38     4.6162  -1.0000   102.3073


## Synthesis Results - Average & Chains ##

# j      x_j: min, <> & last-chain-values for 1 ...  7 chains
  1      0.0001      2.5282      0.1017      1.5600      9.0245      0.0000      0.0000      0.0000      1.7459
  2      0.0000      2.1049     20.6887      0.9151      0.0321      0.4601      0.0000      8.7093      0.0000
  3      0.0507      2.0813      0.0000     22.6036      6.4412      0.0000     19.7272      0.0000      4.8792
  4      0.0000      1.7575      0.7838      0.0000      1.7449      0.1070      1.9776      0.4954      4.2803
  5     17.3486      1.9945      0.0000      0.0000      3.8857      5.3044      3.5529      0.0000      0.0000
  6     24.3808      3.1546      1.0130      0.2578     19.6325      1.1855      0.0000      0.0165      2.7598
  7      0.0000      2.4619      0.0000      6.7006      0.0000      3.7963      0.0000      0.0000      5.2838
  8      0.8907      1.9107      0.0000      0.0960      1.7084      0.0000      0.0000      7.3105      0.0000
  9      0.0000      2.1676      3.0721      1.7658      0.0000      0.0056      0.0000      0.0112      1.5695
 10      4.2785      1.7251      0.0000      4.5344      3.7145      0.3876      7.5293      8.7393      0.0000
 11      0.0000      2.5492      3.5870      0.1331      0.0000      0.9218      6.0424      0.1510      0.0000
 12      8.5997      2.0822      0.1017      0.6297      7.3798     10.2310      0.0000     20.8723      2.5052
 13      0.0000      1.8874      1.0268      1.6391      0.0000      1.9390      0.0000     15.8629      0.0000
 14      0.0000      2.2702     10.7494      0.0000      0.0000     12.1011      0.1634      5.1626      1.1621
 15      0.0000      2.7296      5.1449      4.5406      5.9320      7.2752      7.7164      0.0187      3.6415
 16     28.9284      1.9743      0.0000      0.0000     15.9279      0.0000     11.2303      0.0000      0.0000
 17      0.0000      2.1366      0.0000      5.1352      5.6160     20.0270      0.0000      5.9801      7.0123
 18      0.0000      2.4187      0.0000      0.0000      0.0215      0.0000      0.0000      4.8311      0.4985
 19     10.9618      1.9731     15.7292      0.4450      1.8332      0.0000      1.1168      0.0000      2.9821
 20      0.0000      1.7758      0.0000      0.0000      0.0000      0.0000      0.0000      2.8430      0.0000
 21      0.0000      2.4955      0.0000      6.3389      0.0034      0.0002      0.0000      2.0960      4.4394
 22      0.0000      3.1373      1.1432      0.0000      2.2531      1.4110      4.4419      5.6610      8.2359
 23      0.0000      2.6138      0.0000      1.0202      0.0103     15.8590      0.4167      0.0000      4.4155
 24      0.0000      2.2488      1.9865      2.0407      0.2990      0.0000      0.0000      0.1777      0.0000
 25      0.0000      2.3953      0.0000      0.0000      1.0122      0.0000      0.7738      0.0000      0.0000
 26      0.0000      1.8425      0.0000      3.3691      0.4316      0.0000      0.0000      0.0000      3.9724
 27      0.0000      1.8984      0.0000      7.7999      0.0085      0.7739      6.5569      0.0000      0.0000
 28      0.0000      1.9401      0.0000      0.0000      0.3334      3.9660      0.0000      0.0000      1.6592
 29      1.4522      1.6293      6.7804      0.8599      0.4649      0.0000      3.7640      0.0000      0.0000
 30      1.5183      1.7619      0.0000      4.1727      7.8547      0.0000      4.6333      0.6250      0.0000
 31      0.0000      1.9413      8.7050      0.0189      0.0000      5.3774      1.4733      0.0000      5.9718
 32      0.0000      2.1216      0.0000      0.1822      1.1844      0.0000      0.0000      0.9240      7.0170
 33      0.0000      2.2079      0.3678      1.1352      0.1955      1.5225      0.0000      0.0000      3.5641
 34      0.0000      2.0623      2.6165      0.0000      0.0001      0.0000      0.0000      0.0000      0.4115
 35      0.0000      1.6091      0.0000      0.8177      0.9007      1.1312      1.5125      1.8664      0.1283
 36      0.0000      2.2673      0.0000      0.0000      0.0251      0.0000      0.0000      0.0303      0.0000
 37      0.0000      2.3654      2.9889      0.9257      0.3469      0.0000      0.0255      0.0000      2.6996
 38      0.0000      1.9526      0.0000      2.0049      0.0000      0.0000      0.0000      0.0000      0.0000
 39      0.0000      2.4719      7.1922      0.1547      0.4127      0.0428      6.2722      5.7829      1.6881
 40      0.0000      1.4869      5.0089      0.0000      0.0063      0.0983      0.0000      0.0000      0.0684
 41      0.0000      1.9564      0.2325     10.0639      0.0020      0.0000      2.9189      0.0000      5.5549
 42      0.0000      1.9226      0.0000      2.8351      0.0000      3.3061      2.8877      0.3531      0.8611
 43      0.0000      2.2277      0.0000      0.5306      0.0000      0.0000      3.3529      0.6138      1.4589
 44      0.0000      1.8978      0.9797      4.1443      0.0000      1.2672      0.6422      0.0001      6.0119
 45      0.0000      2.1879      0.0000      0.0000      0.0000      0.7377      0.0000      0.0000      3.8416

# j      m_j: min, <> & last-chain-values for 1 ...  7 chains
  1  2.9411E-05  5.1719E-01  1.9635E-02  2.9249E-01  2.1908E+00  0.0000E+00  0.0000E+00  0.0000E+00  3.5154E-01
  2  0.0000E+00  6.9311E-02  6.4315E-01  2.7618E-02  1.2532E-03  1.2902E-02  0.0000E+00  3.1274E-01  0.0000E+00
  3  8.6037E-03  1.2707E-01  0.0000E+00  1.2648E+00  4.6668E-01  1.8726E-07  1.0356E+00  0.0000E+00  2.9320E-01
  4  0.0000E+00  9.8345E-02  4.1408E-02  0.0000E+00  1.1587E-01  5.1002E-03  9.5147E-02  3.0230E-02  2.3574E-01
  5  5.7929E+00  2.3984E-01  0.0000E+00  0.0000E+00  5.5451E-01  5.4325E-01  3.6735E-01  0.0000E+00  0.0000E+00
  6  9.6036E+00  4.4749E-01  1.3566E-01  3.3513E-02  3.3049E+00  1.4322E-01  0.0000E+00  2.5541E-03  3.8532E-01
  7  0.0000E+00  6.2330E-01  0.0000E+00  1.5549E+00  0.0000E+00  8.1860E-01  0.0000E+00  0.0000E+00  1.3167E+00
  8  8.2496E-01  6.3731E-01  0.0000E+00  2.9361E-02  6.7625E-01  0.0000E+00  0.0000E+00  2.6593E+00  0.0000E+00
  9  0.0000E+00  1.1961E+00  1.6004E+00  8.9306E-01  0.0000E+00  2.6390E-03  0.0000E+00  6.7532E-03  8.5246E-01
 10  7.8225E+00  1.1358E+00  0.0000E+00  2.7364E+00  2.9024E+00  2.1734E-01  4.2625E+00  6.2751E+00  0.0000E+00
 11  0.0000E+00  1.9925E+00  2.6470E+00  9.5354E-02  0.0000E+00  6.1367E-01  4.0609E+00  1.2871E-01  0.0000E+00
 12  2.7668E+01  2.4125E+00  1.1121E-01  6.6876E-01  1.0147E+01  1.0096E+01  0.0000E+00  2.6373E+01  2.8569E+00
 13  0.0000E+00  3.6084E+00  1.8535E+00  2.8722E+00  0.0000E+00  3.1572E+00  0.0000E+00  3.3074E+01  0.0000E+00
 14  0.0000E+00  6.9686E+00  3.1151E+01  0.0000E+00  0.0000E+00  3.1636E+01  4.3118E-01  1.7282E+01  3.5111E+00
 15  0.0000E+00  9.6056E+00  1.7093E+01  1.4645E+01  2.4773E+01  2.1804E+01  2.3348E+01  7.1830E-02  1.2613E+01
 16  9.2078E+00  2.2631E-01  0.0000E+00  0.0000E+00  2.1667E+00  0.0000E+00  1.1068E+00  0.0000E+00  0.0000E+00
 17  0.0000E+00  1.1650E-01  0.0000E+00  2.5664E-01  3.6339E-01  9.3003E-01  0.0000E+00  3.5560E-01  3.7634E-01
 18  0.0000E+00  1.0627E-01  0.0000E+00  0.0000E+00  1.1236E-03  0.0000E+00  0.0000E+00  2.3148E-01  2.1560E-02
 19  1.3449E+00  8.7178E-02  6.5611E-01  1.8021E-02  9.6120E-02  0.0000E+00  4.2428E-02  0.0000E+00  1.2969E-01
 20  0.0000E+00  1.9326E-01  0.0000E+00  0.0000E+00  0.0000E+00  0.0000E+00  0.0000E+00  3.3742E-01  0.0000E+00
 21  0.0000E+00  3.7707E-01  0.0000E+00  8.7787E-01  6.1544E-04  2.6581E-05  0.0000E+00  3.4538E-01  6.6023E-01
 22  0.0000E+00  8.9216E-01  3.0693E-01  0.0000E+00  7.6036E-01  3.4175E-01  1.0861E+00  1.7556E+00  2.3053E+00
 23  0.0000E+00  1.1792E+00  0.0000E+00  4.2185E-01  5.5092E-03  6.0934E+00  1.6163E-01  0.0000E+00  1.9606E+00
 24  0.0000E+00  1.5365E+00  1.2814E+00  1.2781E+00  2.4249E-01  0.0000E+00  0.0000E+00  1.3238E-01  0.0000E+00
 25  0.0000E+00  1.9464E+00  0.0000E+00  0.0000E+00  9.7612E-01  0.0000E+00  5.4065E-01  0.0000E+00  0.0000E+00
 26  0.0000E+00  1.9365E+00  0.0000E+00  3.2455E+00  5.3837E-01  0.0000E+00  0.0000E+00  0.0000E+00  4.1094E+00
 27  0.0000E+00  2.9172E+00  0.0000E+00  1.0986E+01  1.5565E-02  1.0129E+00  8.6636E+00  0.0000E+00  0.0000E+00
 28  0.0000E+00  4.8828E+00  0.0000E+00  0.0000E+00  9.9565E-01  8.5014E+00  0.0000E+00  0.0000E+00  4.1102E+00
 29  1.7061E+01  6.8932E+00  2.7083E+01  3.3347E+00  2.3340E+00  0.0000E+00  1.3692E+01  0.0000E+00  0.0000E+00
 30  2.0666E+01  8.6363E+00  0.0000E+00  1.8747E+01  4.5692E+01  0.0000E+00  1.9528E+01  3.3410E+00  0.0000E+00
 31  0.0000E+00  1.6952E-01  7.1764E-01  1.5088E-03  0.0000E+00  3.9992E-01  1.1062E-01  0.0000E+00  5.1328E-01
 32  0.0000E+00  8.4478E-02  0.0000E+00  6.6485E-03  5.5964E-02  0.0000E+00  0.0000E+00  4.0124E-02  2.7501E-01
 33  0.0000E+00  5.8272E-02  9.1644E-03  2.7460E-02  6.1216E-03  3.4223E-02  0.0000E+00  0.0000E+00  9.2586E-02
