###################################################################
## OUTPUT of StarlightChains_v04.for    [Cid@UFSC - 01/Apr/2007] ##
###################################################################

## Some input info
NGC104_a_1.cxt                           [arq_obs]
Base.BC03.S                              [arq_base]
NGC104_a_1.msk                           [arq_masks]
StCv04.C11.config                        [arq_config]
  150                                    [N_base]
    0                                    [N_YAV_components = # of components with extra extinction!]
    0                                    [i_FitPowerLaw (1/0 = Yes/No)]
-9.99                                    [alpha_PowerLaw]
CCM                                      [red_law_option]
 1.458241                                [q_norm = A(l_norm)/A(V)]

## (Re)Sampling Parameters
 3359.00                                 [l_ini (A)]
 6428.00                                 [l_fin (A)]
    1.00                                 [dl    (A)]     (OBS: dl_cushion =    50.00 A)

## Normalization info
 4020.00                                 [l_norm (A) - for base]
 4010.00                                 [llow_norm (A) - window for f_obs]
 4060.00                                 [lupp_norm (A) - window for f_obs]
2.050577E-13                             [fobs_norm (in input units)]

## S/N
 4730.00                                 [llow_SN (A) - window for S/N]
 4780.00                                 [lupp_SN (A) - window for S/N]
  43.784                                 [S/N in S/N window]
  33.933                                 [S/N in norm. window]
1000.000                                 [S/N_err in S/N window]
 775.022                                 [S/N_err in norm. window]
  1.0000                                 [fscale_chi2]

## etc...
 -2147483648                             [idum_orig]
  3067                                   [NOl_eff]
   239                                   [Nl_eff]
  2828    NSIGMA                         [Ntot_cliped & clip_method]
 12334770                                [Nglobal_steps]
   7                                     [N_chains]
  15                                     [NEX0s_base = N_base in EX0s-fits]
 0   0   1      254   2.0   1.654E+03    [Clip-Bug, RC-Crash & Burn-In warning-flags, n_censored_weights, wei_nsig_threshold & wei_limit]
   511    511.141    511.126      0.015  [idt_all, wdt_TotTime, wdt_UsrTime & wdt_SysTime (sec)]

## Synthesis Results - Best model ##

 3.20387E+00                             [chi2/Nl_eff]
     0.39124                             [adev (%)]

   100.48470                             [sum-of-x (%)]
 1.82864E-13                             [Flux_tot (units of input spectrum!)]
 8.40569E-09                             [Mini_tot (???)]
 4.24436E-09                             [Mcor_tot (???)]

 -26.92                                  [v0_min  (km/s)]
  46.14                                  [vd_min  (km/s)]
-0.0889                                  [AV_min  (mag)]
 0.0000                                  [YAV_min (mag)]

# j     x_j(%)      Mini_j(%)     Mcor_j(%)     age_j(yr)     Z_j      (L/M)_j    YAV?  Mstars   component_j        a/Fe...       SSP_chi2r SSP_adev(%)   SSP_AV   SSP_x(%)
  1      0.0000     0.0000E+00    0.0000E+00    1.000000E+06  0.00010  8.160E-03    0   1.0000   age020_m22            0.0000     1.8936E+04    23.8737   4.0000    78.1845
  2      2.9847     1.3578E-03    2.6890E-03    3.160000E+06  0.00010  4.759E-02    0   1.0000   age045_m22            0.0000     6.8332E+03    14.2765   2.0792    98.1568
  3      0.0000     0.0000E+00    0.0000E+00    5.010000E+06  0.00010  1.932E-02    0   0.9582   age055_m22            0.0000     1.8487E+04    22.0117   2.4360    81.4866
  4      0.0000     0.0000E+00    0.0000E+00    6.610000E+06  0.00010  9.973E-03    0   0.9297   age061_m22            0.0000     2.0227E+04    23.9200   4.0000    80.0414
  5      0.0000     0.0000E+00    0.0000E+00    8.710000E+06  0.00010  7.690E-03    0   0.9030   age067_m22            0.0000     1.9375E+04    23.5571   4.0000    80.3806
  6      0.0000     0.0000E+00    0.0000E+00    1.000000E+07  0.00010  6.375E-03    0   0.8902   age070_m22            0.0000     1.8817E+04    23.3461   4.0000    80.9489
  7      0.0000     0.0000E+00    0.0000E+00    1.445000E+07  0.00010  4.874E-03    0   0.8589   age078_m22            0.0000     1.5101E+04    21.1801   3.9269    81.7052
  8      0.0000     0.0000E+00    0.0000E+00    2.512000E+07  0.00010  4.103E-03    0   0.8174   age090_m22            0.0000     1.0681E+04    18.5511   3.4930    89.5735
  9      0.0000     0.0000E+00    0.0000E+00    4.000000E+07  0.00010  3.654E-03    0   0.7830   age104_m22            0.0000     9.1646E+03    16.4241   3.1592    96.1802
 10      0.0000     0.0000E+00    0.0000E+00    5.500000E+07  0.00010  3.093E-03    0   0.7597   age110_m22            0.0000     9.1947E+03    15.7065   3.0510    98.2636
 11      0.0000     0.0000E+00    0.0000E+00    1.015200E+08  0.00010  2.431E-03    0   0.7138   age116_m22            0.0000     1.0220E+04    15.1460   2.6858   102.2059
 12      0.0000     0.0000E+00    0.0000E+00    1.609000E+08  0.00010  1.319E-03    0   0.6775   age120_m22            0.0000     1.0010E+04    14.2075   2.2167   104.2216
 13      0.0000     0.0000E+00    0.0000E+00    2.861200E+08  0.00010  1.075E-03    0   0.6412   age125_m22            0.0000     1.6982E+04    15.1426   2.2720   109.3287
 14      0.0000     0.0000E+00    0.0000E+00    5.088000E+08  0.00010  7.183E-04    0   0.6083   age130_m22            0.0000     1.9365E+04    15.5239   2.0422   111.4539
 15      0.0000     0.0000E+00    0.0000E+00    9.047900E+08  0.00010  4.524E-04    0   0.5785   age135_m22            0.0000     1.9265E+04    15.3206   1.8381   112.8978
 16      0.0000     0.0000E+00    0.0000E+00    1.278050E+09  0.00010  3.018E-04    0   0.5588   age138_m22            0.0000     1.1072E+04    12.1191   1.3068   110.3962
 17      0.0000     0.0000E+00    0.0000E+00    1.434000E+09  0.00010  2.691E-04    0   0.5532   age139_m22            0.0000     9.6869E+03    11.5571   1.1515   109.6325
 18      0.0000     0.0000E+00    0.0000E+00    2.500000E+09  0.00010  1.582E-04    0   0.5296   age150_m22            0.0000     9.1668E+03    11.6312   1.0239   110.6666
 19      0.0000     0.0000E+00    0.0000E+00    4.250000E+09  0.00010  1.007E-04    0   0.5110   age158_m22            0.0000     6.6932E+03    10.6355   0.8824   108.1211
 20      0.0000     0.0000E+00    0.0000E+00    6.250000E+09  0.00010  6.869E-05    0   0.4985   age166_m22            0.0000     4.9972E+03    10.0580   0.8395   104.3024
 21      0.0000     0.0000E+00    0.0000E+00    7.500000E+09  0.00010  5.873E-05    0   0.4931   age171_m22            0.0000     4.9641E+03    10.2824   0.8277   103.6449
 22      0.0000     0.0000E+00    0.0000E+00    1.000000E+10  0.00010  4.481E-05    0   0.4854   age181_m22            0.0000     4.8242E+03    10.1665   0.7919   103.2030
 23      0.0000     0.0000E+00    0.0000E+00    1.300000E+10  0.00010  3.489E-05    0   0.4791   age193_m22            0.0000     4.5344E+03     9.9324   0.7376   102.5549
 24      0.0000     0.0000E+00    0.0000E+00    1.500000E+10  0.00010  3.035E-05    0   0.4766   age201_m22            0.0000     4.3715E+03     9.8526   0.6984   102.3472
 25      0.0000     0.0000E+00    0.0000E+00    1.800000E+10  0.00010  2.510E-05    0   0.4735   age213_m22            0.0000     4.0648E+03     9.7139   0.6310   101.6154
 26      0.0000     0.0000E+00    0.0000E+00    1.000000E+06  0.00040  8.458E-03    0   1.0000   age020_m32            0.0000     1.9398E+04    24.0005   4.0000    79.1415
 27      0.0000     0.0000E+00    0.0000E+00    3.160000E+06  0.00040  3.973E-02    0   1.0000   age045_m32            0.0000     1.1168E+04    18.7748   3.3865    89.6441
 28      0.0000     0.0000E+00    0.0000E+00    5.010000E+06  0.00040  1.935E-02    0   0.9532   age055_m32            0.0000     1.7000E+04    22.1434   3.6364    82.2044
 29      0.0000     0.0000E+00    0.0000E+00    6.610000E+06  0.00040  1.204E-02    0   0.9243   age061_m32            0.0000     1.7609E+04    22.3042   3.9630    79.9274
 30      0.0000     0.0000E+00    0.0000E+00    8.710000E+06  0.00040  9.433E-03    0   0.9001   age067_m32            0.0000     1.6486E+04    21.8331   3.9320    81.0234
 31      0.0000     0.0000E+00    0.0000E+00    1.000000E+07  0.00040  8.053E-03    0   0.8877   age070_m32            0.0000     1.6061E+04    21.6590   3.8936    81.5782
 32      0.0000     0.0000E+00    0.0000E+00    1.445000E+07  0.00040  7.027E-03    0   0.8578   age078_m32            0.0000     1.2781E+04    20.0728   3.3422    87.9907
 33      0.0000     0.0000E+00    0.0000E+00    2.512000E+07  0.00040  4.707E-03    0   0.8166   age090_m32            0.0000     1.0405E+04    18.2893   3.0291    92.8968
 34      0.0000     0.0000E+00    0.0000E+00    4.000000E+07  0.00040  3.714E-03    0   0.7827   age104_m32            0.0000     9.0971E+03    16.4662   2.8050    97.5884
 35      0.0000     0.0000E+00    0.0000E+00    5.500000E+07  0.00040  2.982E-03    0   0.7593   age110_m32            0.0000     9.1648E+03    15.8867   2.7384    99.2076
 36      0.0000     0.0000E+00    0.0000E+00    1.015200E+08  0.00040  2.188E-03    0   0.7143   age116_m32            0.0000     1.1789E+04    14.6930   2.4574   105.0614
 37      0.0000     0.0000E+00    0.0000E+00    1.609000E+08  0.00040  1.690E-03    0   0.6856   age120_m32            0.0000     1.4715E+04    14.9621   2.2313   108.8517
 38      0.0000     0.0000E+00    0.0000E+00    2.861200E+08  0.00040  1.152E-03    0   0.6509   age125_m32            0.0000     1.7344E+04    14.9963   2.0221   110.7644
 39      0.0000     0.0000E+00    0.0000E+00    5.088000E+08  0.00040  7.331E-04    0   0.6182   age130_m32            0.0000     1.7976E+04    14.9011   1.8618   111.6169
 40      0.0000     0.0000E+00    0.0000E+00    9.047900E+08  0.00040  3.960E-04    0   0.5890   age135_m32            0.0000     1.1478E+04    12.1322   1.4064   109.5051
 41      0.0000     0.0000E+00    0.0000E+00    1.278050E+09  0.00040  2.854E-04    0   0.5687   age138_m32            0.0000     1.0172E+04    11.6686   1.0897   111.8898
 42      0.0000     0.0000E+00    0.0000E+00    1.434000E+09  0.00040  2.531E-04    0   0.5632   age139_m32            0.0000     9.8401E+03    11.6149   1.0273   111.8723
 43      0.0000     0.0000E+00    0.0000E+00    2.500000E+09  0.00040  1.488E-04    0   0.5386   age150_m32            0.0000     7.4825E+03    10.6460   0.7870   109.2154
 44      0.0000     0.0000E+00    0.0000E+00    4.250000E+09  0.00040  9.082E-05    0   0.5199   age158_m32            0.0000     4.5211E+03     9.2067   0.7052   104.5576
 45      0.0118     4.0135E-03    4.0347E-03    6.250000E+09  0.00040  6.362E-05    0   0.5076   age166_m32            0.0000     3.6571E+03     9.2631   0.6701   100.2682
 46      3.2524     1.3313E+00    1.3254E+00    7.500000E+09  0.00040  5.289E-05    0   0.5027   age171_m32            0.0000     3.4280E+03     9.1710   0.6399    98.7135
 47     11.9511     6.5141E+00    6.3833E+00    1.000000E+10  0.00040  3.972E-05    0   0.4948   age181_m32            0.0000     3.1137E+03     8.9213   0.5851    97.0986
 48      0.0000     0.0000E+00    0.0000E+00    1.300000E+10  0.00040  3.283E-05    0   0.4870   age193_m32            0.0000     3.2132E+03     8.6459   0.5279   100.5921
 49      0.0000     0.0000E+00    0.0000E+00    1.500000E+10  0.00040  2.925E-05    0   0.4854   age201_m32            0.0000     3.4698E+03     8.6067   0.5016   102.6559
 50      0.0000     0.0000E+00    0.0000E+00    1.800000E+10  0.00040  2.469E-05    0   0.4819   age213_m32            0.0000     3.5539E+03     8.5526   0.4570   103.4080
 51      0.0000     0.0000E+00    0.0000E+00    1.000000E+06  0.00400  1.114E-02    0   1.0000   age020_m42            0.0000     1.7838E+04    23.0772   4.0000    78.1240
 52      0.0000     0.0000E+00    0.0000E+00    3.160000E+06  0.00400  4.073E-02    0   0.9999   age045_m42            0.0000     8.6270E+03    16.4743   3.0817    93.0307
 53      0.0000     0.0000E+00    0.0000E+00    5.010000E+06  0.00400  2.534E-02    0   0.9488   age055_m42            0.0000     1.2558E+04    19.9400   3.5085    85.1122
 54      0.0000     0.0000E+00    0.0000E+00    6.610000E+06  0.00400  2.583E-02    0   0.9220   age061_m42            0.0000     8.1866E+03    16.2701   2.8750    94.6895
 55      0.0000     0.0000E+00    0.0000E+00    8.710000E+06  0.00400  1.706E-02    0   0.8983   age067_m42            0.0000     9.8417E+03    18.3985   2.7000    91.9956
 56      0.0000     0.0000E+00    0.0000E+00    1.000000E+07  0.00400  1.271E-02    0   0.8862   age070_m42            0.0000     1.2185E+04    20.2411   2.6881    89.9047
 57      0.0000     0.0000E+00    0.0000E+00    1.445000E+07  0.00400  7.666E-03    0   0.8571   age078_m42            0.0000     1.3995E+04    21.1530   3.1149    85.6381
 58      0.0000     0.0000E+00    0.0000E+00    2.512000E+07  0.00400  5.070E-03    0   0.8174   age090_m42            0.0000     1.1301E+04    19.5245   2.5565    91.5435
 59      0.0000     0.0000E+00    0.0000E+00    4.000000E+07  0.00400  3.505E-03    0   0.7851   age104_m42            0.0000     8.7839E+03    17.2525   2.2373    95.0303
 60      0.0000     0.0000E+00    0.0000E+00    5.500000E+07  0.00400  3.059E-03    0   0.7629   age110_m42            0.0000     7.6802E+03    14.4106   2.2720   101.6357
 61      0.0000     0.0000E+00    0.0000E+00    1.015200E+08  0.00400  2.268E-03    0   0.7207   age116_m42            0.0000     1.2397E+04    13.7050   2.1545   109.2356
 62      0.0000     0.0000E+00    0.0000E+00    1.609000E+08  0.00400  1.720E-03    0   0.6930   age120_m42            0.0000     1.3051E+04    13.3768   2.0139   111.1766
 63      0.0000     0.0000E+00    0.0000E+00    2.861200E+08  0.00400  1.079E-03    0   0.6613   age125_m42            0.0000     1.2610E+04    12.6243   1.6672   111.4364
 64      0.0000     0.0000E+00    0.0000E+00    5.088000E+08  0.00400  6.261E-04    0   0.6313   age130_m42            0.0000     1.3789E+04    12.8675   1.4510   115.3743
 65      0.0000     0.0000E+00    0.0000E+00    9.047900E+08  0.00400  3.535E-04    0   0.6024   age135_m42            0.0000     8.4621E+03     9.9304   1.0555   114.9763
 66      0.0000     0.0000E+00    0.0000E+00    1.278050E+09  0.00400  2.677E-04    0   0.5837   age138_m42            0.0000     2.4397E+03     5.3497   0.4250   109.8629
 67      0.0000     0.0000E+00    0.0000E+00    1.434000E+09  0.00400  1.910E-04    0   0.5716   age139_m42            0.0000     3.7249E+03     6.2770   0.5787   111.4104
 68      0.0000     0.0000E+00    0.0000E+00    2.500000E+09  0.00400  9.818E-05    0   0.5463   age150_m42            0.0000     9.2413E+02     3.3211   0.3511   104.2931
 69      0.0000     0.0000E+00    0.0000E+00    4.250000E+09  0.00400  5.491E-05    0   0.5269   age158_m42            0.0000     4.3440E+02     2.7769   0.2408   100.6338
 70      0.0000     0.0000E+00    0.0000E+00    6.250000E+09  0.00400  3.857E-05    0   0.5151   age166_m42            0.0000     2.4156E+02     2.0466   0.1256    98.8641
 71      0.0000     0.0000E+00    0.0000E+00    7.500000E+09  0.00400  3.243E-05    0   0.5110   age171_m42            0.0000     2.0280E+02     1.7557   0.0536    98.1073
 72      0.0000     0.0000E+00    0.0000E+00    1.000000E+10  0.00400  2.424E-05    0   0.5028   age181_m42            0.0000     2.3443E+02     1.6395  -0.0166    97.1710
 73      0.0000     0.0000E+00    0.0000E+00    1.300000E+10  0.00400  1.883E-05    0   0.4927   age193_m42            0.0000     3.5364E+02     2.1389  -0.0485    96.5607
 74      0.0000     0.0000E+00    0.0000E+00    1.500000E+10  0.00400  1.685E-05    0   0.4919   age201_m42            0.0000     3.5214E+02     2.0573  -0.0469    96.6548
 75      0.0000     0.0000E+00    0.0000E+00    1.800000E+10  0.00400  1.452E-05    0   0.4874   age213_m42            0.0000     3.6059E+02     1.9708  -0.0368    97.0451
 76      0.0000     0.0000E+00    0.0000E+00    1.000000E+06  0.00800  1.286E-02    0   1.0000   age020_m52            0.0000     1.6797E+04    22.3376   4.0000    79.5466
 77      0.0000     0.0000E+00    0.0000E+00    3.160000E+06  0.00800  3.147E-02    0   0.9966   age045_m52            0.0000     1.6673E+04    21.8498   3.9828    79.4241
 78      0.0000     0.0000E+00    0.0000E+00    5.010000E+06  0.00800  2.664E-02    0   0.9443   age055_m52            0.0000     1.3964E+04    20.6250   3.6411    83.4922
 79      0.0000     0.0000E+00    0.0000E+00    6.610000E+06  0.00800  2.151E-02    0   0.9177   age061_m52            0.0000     9.9827E+03    17.8910   2.3090    90.8813
 80      0.0000     0.0000E+00    0.0000E+00    8.710000E+06  0.00800  1.628E-02    0   0.8948   age067_m52            0.0000     1.1142E+04    19.0966   2.6652    91.6714
 81      0.0000     0.0000E+00    0.0000E+00    1.000000E+07  0.00800  1.215E-02    0   0.8827   age070_m52            0.0000     1.2822E+04    20.3119   3.0108    89.3574
 82      0.0000     0.0000E+00    0.0000E+00    1.445000E+07  0.00800  8.739E-03    0   0.8552   age078_m52            0.0000     1.1661E+04    19.4521   3.0451    91.1632
 83      0.0000     0.0000E+00    0.0000E+00    2.512000E+07  0.00800  5.676E-03    0   0.8162   age090_m52            0.0000     1.0227E+04    17.7278   2.6077    97.6911
 84      0.0000     0.0000E+00    0.0000E+00    4.000000E+07  0.00800  3.939E-03    0   0.7841   age104_m52            0.0000     9.4421E+03    15.9719   2.4465   100.8297
 85      0.0000     0.0000E+00    0.0000E+00    5.500000E+07  0.00800  3.155E-03    0   0.7627   age110_m52            0.0000     9.4735E+03    14.7801   2.4168   103.1090
 86      0.0000     0.0000E+00    0.0000E+00    1.015200E+08  0.00800  2.206E-03    0   0.7226   age116_m52            0.0000     1.0567E+04    13.1714   2.2181   108.3891
 87      0.0000     0.0000E+00    0.0000E+00    1.609000E+08  0.00800  1.596E-03    0   0.6963   age120_m52            0.0000     1.1265E+04    12.7654   1.9993   110.6167
 88      0.0000     0.0000E+00    0.0000E+00    2.861200E+08  0.00800  1.002E-03    0   0.6665   age125_m52            0.0000     1.4137E+04    12.8987   1.7102   114.0818
 89      0.0000     0.0000E+00    0.0000E+00    5.088000E+08  0.00800  5.759E-04    0   0.6377   age130_m52            0.0000     1.3969E+04    12.1254   1.3615   118.5284
 90      0.0000     0.0000E+00    0.0000E+00    9.047900E+08  0.00800  2.972E-04    0   0.6086   age135_m52            0.0000     7.6739E+03     8.3326   0.8692   115.1818
 91      0.0000     0.0000E+00    0.0000E+00    1.278050E+09  0.00800  2.242E-04    0   0.5907   age138_m52            0.0000     2.0090E+03     4.2002   0.2740   112.0376
 92      0.0000     0.0000E+00    0.0000E+00    1.434000E+09  0.00800  1.645E-04    0   0.5787   age139_m52            0.0000     1.9924E+03     4.0855   0.4217   111.2622
 93      0.0000     0.0000E+00    0.0000E+00    2.500000E+09  0.00800  7.723E-05    0   0.5519   age150_m52            0.0000     3.8338E+02     1.7706   0.1108   105.9379
 94     11.7103     6.1076E+00    6.4349E+00    4.250000E+09  0.00800  4.151E-05    0   0.5320   age158_m52            0.0000     1.3810E+02     1.1073   0.0476   102.9454
 95     16.3727     1.1776E+01    1.2121E+01    6.250000E+09  0.00800  3.010E-05    0   0.5197   age166_m52            0.0000     4.9558E+01     1.2540  -0.1304   100.9830
 96     10.5742     9.2797E+00    9.4443E+00    7.500000E+09  0.00800  2.467E-05    0   0.5139   age171_m52            0.0000     7.7644E+01     1.6239  -0.1679   100.4697
 97      9.0981     1.0579E+01    1.0588E+01    1.000000E+10  0.00800  1.862E-05    0   0.5054   age181_m52            0.0000     2.5854E+02     2.8607  -0.2878    99.8261
