###################################################################
## OUTPUT of StarlightChains_v04.for    [Cid@UFSC - 01/Apr/2007] ##
###################################################################

## Some input info
NGC1851_a_1.cxt                          [arq_obs]
Base.BC03.S                              [arq_base]
NGC1851_a_1.msk                          [arq_masks]
StCv04.C11.config                        [arq_config]
  150                                    [N_base]
    0                                    [N_YAV_components = # of components with extra extinction!]
    0                                    [i_FitPowerLaw (1/0 = Yes/No)]
-9.99                                    [alpha_PowerLaw]
CCM                                      [red_law_option]
 1.458241                                [q_norm = A(l_norm)/A(V)]

## (Re)Sampling Parameters
 3359.00                                 [l_ini (A)]
 6428.00                                 [l_fin (A)]
    1.00                                 [dl    (A)]     (OBS: dl_cushion =    50.00 A)

## Normalization info
 4020.00                                 [l_norm (A) - for base]
 4010.00                                 [llow_norm (A) - window for f_obs]
 4060.00                                 [lupp_norm (A) - window for f_obs]
8.317932E-14                             [fobs_norm (in input units)]

## S/N
 4730.00                                 [llow_SN (A) - window for S/N]
 4780.00                                 [lupp_SN (A) - window for S/N]
  72.129                                 [S/N in S/N window]
  63.854                                 [S/N in norm. window]
 355.079                                 [S/N_err in S/N window]
 314.342                                 [S/N_err in norm. window]
  1.0000                                 [fscale_chi2]

## etc...
  2147483647                             [idum_orig]
  3064                                   [NOl_eff]
   686                                   [Nl_eff]
  2378    NSIGMA                         [Ntot_cliped & clip_method]
  1656270                                [Nglobal_steps]
   7                                     [N_chains]
  19                                     [NEX0s_base = N_base in EX0s-fits]
 0   0   1      243   2.0   6.677E+02    [Clip-Bug, RC-Crash & Burn-In warning-flags, n_censored_weights, wei_nsig_threshold & wei_limit]
    74     74.190     74.186      0.004  [idt_all, wdt_TotTime, wdt_UsrTime & wdt_SysTime (sec)]

## Synthesis Results - Best model ##

 2.79954E+00                             [chi2/Nl_eff]
     0.61935                             [adev (%)]

   101.68870                             [sum-of-x (%)]
 9.56271E-14                             [Flux_tot (units of input spectrum!)]
 1.34238E-09                             [Mini_tot (???)]
 6.99957E-10                             [Mcor_tot (???)]

  -3.49                                  [v0_min  (km/s)]
  68.22                                  [vd_min  (km/s)]
 0.0914                                  [AV_min  (mag)]
 0.0000                                  [YAV_min (mag)]

# j     x_j(%)      Mini_j(%)     Mcor_j(%)     age_j(yr)     Z_j      (L/M)_j    YAV?  Mstars   component_j        a/Fe...       SSP_chi2r SSP_adev(%)   SSP_AV   SSP_x(%)
  1      0.0000     0.0000E+00    0.0000E+00    1.000000E+06  0.00010  8.160E-03    0   1.0000   age020_m22            0.0000     2.9244E+03    15.8282   3.7657    77.7825
  2      6.6433     9.7791E-03    1.8754E-02    3.160000E+06  0.00010  4.759E-02    0   1.0000   age045_m22            0.0000     5.2555E+02     7.1036   1.7147    98.1250
  3      0.0000     0.0000E+00    0.0000E+00    5.010000E+06  0.00010  1.932E-02    0   0.9582   age055_m22            0.0000     2.6389E+03    15.3977   2.0481    84.4692
  4      0.0000     0.0000E+00    0.0000E+00    6.610000E+06  0.00010  9.973E-03    0   0.9297   age061_m22            0.0000     2.9222E+03    16.0483   3.7250    80.6659
  5      0.0000     0.0000E+00    0.0000E+00    8.710000E+06  0.00010  7.690E-03    0   0.9030   age067_m22            0.0000     2.7802E+03    15.6841   3.7177    81.0661
  6      0.0000     0.0000E+00    0.0000E+00    1.000000E+07  0.00010  6.375E-03    0   0.8902   age070_m22            0.0000     2.6634E+03    15.3616   3.7332    81.2106
  7      0.0000     0.0000E+00    0.0000E+00    1.445000E+07  0.00010  4.874E-03    0   0.8589   age078_m22            0.0000     2.0527E+03    13.6797   3.5455    84.0347
  8      0.0000     0.0000E+00    0.0000E+00    2.512000E+07  0.00010  4.103E-03    0   0.8174   age090_m22            0.0000     1.1140E+03    10.3065   3.1255    90.3789
  9      0.0000     0.0000E+00    0.0000E+00    4.000000E+07  0.00010  3.654E-03    0   0.7830   age104_m22            0.0000     7.6414E+02     7.8275   2.8137    95.2269
 10      0.0000     0.0000E+00    0.0000E+00    5.500000E+07  0.00010  3.093E-03    0   0.7597   age110_m22            0.0000     7.0411E+02     7.1032   2.7110    96.7126
 11      0.0000     0.0000E+00    0.0000E+00    1.015200E+08  0.00010  2.431E-03    0   0.7138   age116_m22            0.0000     7.7746E+02     6.9936   2.3569    99.6420
 12      0.0000     0.0000E+00    0.0000E+00    1.609000E+08  0.00010  1.319E-03    0   0.6775   age120_m22            0.0000     7.2741E+02     6.5624   1.8906   101.4138
 13      0.0000     0.0000E+00    0.0000E+00    2.861200E+08  0.00010  1.075E-03    0   0.6412   age125_m22            0.0000     1.5210E+03     8.4372   1.9637   104.5201
 14      0.0000     0.0000E+00    0.0000E+00    5.088000E+08  0.00010  7.183E-04    0   0.6083   age130_m22            0.0000     1.8293E+03     9.1343   1.7353   106.0222
 15      0.0000     0.0000E+00    0.0000E+00    9.047900E+08  0.00010  4.524E-04    0   0.5785   age135_m22            0.0000     1.8511E+03     9.1546   1.5315   107.2471
 16      0.0000     0.0000E+00    0.0000E+00    1.278050E+09  0.00010  3.018E-04    0   0.5588   age138_m22            0.0000     8.7492E+02     6.4699   0.9796   106.0091
 17      0.0000     0.0000E+00    0.0000E+00    1.434000E+09  0.00010  2.691E-04    0   0.5532   age139_m22            0.0000     7.0976E+02     5.8642   0.8195   105.5297
 18      0.0000     0.0000E+00    0.0000E+00    2.500000E+09  0.00010  1.582E-04    0   0.5296   age150_m22            0.0000     6.4212E+02     5.7831   0.7026   106.4241
 19      0.0000     0.0000E+00    0.0000E+00    4.250000E+09  0.00010  1.007E-04    0   0.5110   age158_m22            0.0000     3.5707E+02     4.5120   0.5431   105.0448
 20      0.0000     0.0000E+00    0.0000E+00    6.250000E+09  0.00010  6.869E-05    0   0.4985   age166_m22            0.0000     1.9440E+02     3.5767   0.4824   102.4953
 21      0.4942     5.8953E-01    5.5751E-01    7.500000E+09  0.00010  5.873E-05    0   0.4931   age171_m22            0.0000     2.0545E+02     3.7402   0.4712   101.9814
 22      0.0821     1.2835E-01    1.1948E-01    1.000000E+10  0.00010  4.481E-05    0   0.4854   age181_m22            0.0000     1.9525E+02     3.6331   0.4328   101.6025
 23      0.0000     0.0000E+00    0.0000E+00    1.300000E+10  0.00010  3.489E-05    0   0.4791   age193_m22            0.0000     1.6900E+02     3.3969   0.3747   101.0572
 24      0.0000     0.0000E+00    0.0000E+00    1.500000E+10  0.00010  3.035E-05    0   0.4766   age201_m22            0.0000     1.5775E+02     3.3087   0.3342   100.8853
 25      0.0000     0.0000E+00    0.0000E+00    1.800000E+10  0.00010  2.510E-05    0   0.4735   age213_m22            0.0000     1.3847E+02     3.1935   0.2640   100.2947
 26      0.0000     0.0000E+00    0.0000E+00    1.000000E+06  0.00040  8.458E-03    0   1.0000   age020_m32            0.0000     2.8832E+03    15.7798   3.7812    78.4581
 27      0.0000     0.0000E+00    0.0000E+00    3.160000E+06  0.00040  3.973E-02    0   1.0000   age045_m32            0.0000     1.1998E+03    10.7119   3.0207    90.5934
 28      0.0000     0.0000E+00    0.0000E+00    5.010000E+06  0.00040  1.935E-02    0   0.9532   age055_m32            0.0000     2.3321E+03    14.6987   3.2586    84.6323
 29      0.0000     0.0000E+00    0.0000E+00    6.610000E+06  0.00040  1.204E-02    0   0.9243   age061_m32            0.0000     2.4987E+03    14.9878   3.5802    82.6259
 30      0.0000     0.0000E+00    0.0000E+00    8.710000E+06  0.00040  9.433E-03    0   0.9001   age067_m32            0.0000     2.2723E+03    14.3591   3.5506    83.5131
 31      0.0000     0.0000E+00    0.0000E+00    1.000000E+07  0.00040  8.053E-03    0   0.8877   age070_m32            0.0000     2.1854E+03    14.1111   3.5144    83.9456
 32      0.0000     0.0000E+00    0.0000E+00    1.445000E+07  0.00040  7.027E-03    0   0.8578   age078_m32            0.0000     1.4976E+03    12.0226   2.9749    89.2304
 33      0.0000     0.0000E+00    0.0000E+00    2.512000E+07  0.00040  4.707E-03    0   0.8166   age090_m32            0.0000     1.0307E+03     9.9126   2.6712    93.0989
 34      0.0000     0.0000E+00    0.0000E+00    4.000000E+07  0.00040  3.714E-03    0   0.7827   age104_m32            0.0000     7.6093E+02     7.9649   2.4611    96.5237
 35      0.0000     0.0000E+00    0.0000E+00    5.500000E+07  0.00040  2.982E-03    0   0.7593   age110_m32            0.0000     7.1973E+02     7.3650   2.3985    97.6573
 36      0.0000     0.0000E+00    0.0000E+00    1.015200E+08  0.00040  2.188E-03    0   0.7143   age116_m32            0.0000     9.2040E+02     7.0426   2.1331   101.7031
 37      0.0000     0.0000E+00    0.0000E+00    1.609000E+08  0.00040  1.690E-03    0   0.6856   age120_m32            0.0000     1.2678E+03     7.9009   1.9312   104.2093
 38      0.0000     0.0000E+00    0.0000E+00    2.861200E+08  0.00040  1.152E-03    0   0.6509   age125_m32            0.0000     1.5759E+03     8.5498   1.7161   105.6882
 39      0.0000     0.0000E+00    0.0000E+00    5.088000E+08  0.00040  7.331E-04    0   0.6182   age130_m32            0.0000     1.6947E+03     8.7697   1.5507   106.3104
 40      0.0000     0.0000E+00    0.0000E+00    9.047900E+08  0.00040  3.960E-04    0   0.5890   age135_m32            0.0000     8.9058E+02     6.4428   1.0738   105.1584
 41      0.0000     0.0000E+00    0.0000E+00    1.278050E+09  0.00040  2.854E-04    0   0.5687   age138_m32            0.0000     7.1207E+02     5.9877   0.7695   107.3697
 42      0.0000     0.0000E+00    0.0000E+00    1.434000E+09  0.00040  2.531E-04    0   0.5632   age139_m32            0.0000     6.9803E+02     5.9548   0.7071   107.3945
 43      1.1176     5.2616E-01    5.4349E-01    2.500000E+09  0.00040  1.488E-04    0   0.5386   age150_m32            0.0000     4.5650E+02     4.9049   0.4440   105.9274
 44     19.9181     1.5364E+01    1.5319E+01    4.250000E+09  0.00040  9.082E-05    0   0.5199   age158_m32            0.0000     1.3662E+02     2.9870   0.3356   102.8735
 45      3.3583     3.6980E+00    3.5999E+00    6.250000E+09  0.00040  6.362E-05    0   0.5076   age166_m32            0.0000     1.2240E+02     3.1672   0.2922    99.5582
 46      6.3741     8.4426E+00    8.1393E+00    7.500000E+09  0.00040  5.289E-05    0   0.5027   age171_m32            0.0000     1.2579E+02     3.2121   0.2556    98.2729
 47     13.8615     2.4447E+01    2.3199E+01    1.000000E+10  0.00040  3.972E-05    0   0.4948   age181_m32            0.0000     1.2010E+02     3.0760   0.1924    96.8745
 48      0.1590     3.3924E-01    3.1685E-01    1.300000E+10  0.00040  3.283E-05    0   0.4870   age193_m32            0.0000     6.9990E+01     2.3366   0.1487    99.5345
 49      0.4051     9.7032E-01    9.0327E-01    1.500000E+10  0.00040  2.925E-05    0   0.4854   age201_m32            0.0000     7.3972E+01     2.2348   0.1312   101.0782
 50      0.5530     1.5691E+00    1.4502E+00    1.800000E+10  0.00040  2.469E-05    0   0.4819   age213_m32            0.0000     7.7236E+01     2.2277   0.0909   101.5620
 51      0.0000     0.0000E+00    0.0000E+00    1.000000E+06  0.00400  1.114E-02    0   1.0000   age020_m42            0.0000     2.7594E+03    15.4071   3.7091    78.8594
 52      0.0000     0.0000E+00    0.0000E+00    3.160000E+06  0.00400  4.073E-02    0   0.9999   age045_m42            0.0000     7.9855E+02     8.7149   2.7155    93.5308
 53      0.0000     0.0000E+00    0.0000E+00    5.010000E+06  0.00400  2.534E-02    0   0.9488   age055_m42            0.0000     1.5972E+03    12.2266   3.1303    86.9141
 54      0.0000     0.0000E+00    0.0000E+00    6.610000E+06  0.00400  2.583E-02    0   0.9220   age061_m42            0.0000     7.0767E+02     8.0887   2.5182    94.3912
 55      0.0000     0.0000E+00    0.0000E+00    8.710000E+06  0.00400  1.706E-02    0   0.8983   age067_m42            0.0000     1.0793E+03    10.3491   2.3423    92.3672
 56      0.0000     0.0000E+00    0.0000E+00    1.000000E+07  0.00400  1.271E-02    0   0.8862   age070_m42            0.0000     1.4771E+03    12.1470   2.3304    90.7446
 57      0.0000     0.0000E+00    0.0000E+00    1.445000E+07  0.00400  7.666E-03    0   0.8571   age078_m42            0.0000     1.8265E+03    13.1511   2.7434    87.3102
 58      0.0000     0.0000E+00    0.0000E+00    2.512000E+07  0.00400  5.070E-03    0   0.8174   age090_m42            0.0000     1.2859E+03    11.3121   2.2003    92.1946
 59      0.0000     0.0000E+00    0.0000E+00    4.000000E+07  0.00400  3.505E-03    0   0.7851   age104_m42            0.0000     8.3041E+02     8.9802   1.8759    95.0583
 60      0.0000     0.0000E+00    0.0000E+00    5.500000E+07  0.00400  3.059E-03    0   0.7629   age110_m42            0.0000     5.2351E+02     5.9673   1.9276    99.6277
 61      0.0000     0.0000E+00    0.0000E+00    1.015200E+08  0.00400  2.268E-03    0   0.7207   age116_m42            0.0000     1.0523E+03     6.9520   1.8389   104.7208
 62      0.0000     0.0000E+00    0.0000E+00    1.609000E+08  0.00400  1.720E-03    0   0.6930   age120_m42            0.0000     1.1144E+03     7.0515   1.7006   106.4305
 63      0.0000     0.0000E+00    0.0000E+00    2.861200E+08  0.00400  1.079E-03    0   0.6613   age125_m42            0.0000     1.1133E+03     7.1260   1.3533   106.4980
 64      0.0000     0.0000E+00    0.0000E+00    5.088000E+08  0.00400  6.261E-04    0   0.6313   age130_m42            0.0000     1.3369E+03     7.6618   1.1560   109.3564
 65      0.0000     0.0000E+00    0.0000E+00    9.047900E+08  0.00400  3.535E-04    0   0.6024   age135_m42            0.0000     7.4298E+02     5.7023   0.7354   109.9693
 66      0.0008     2.0005E-04    2.2394E-04    1.278050E+09  0.00400  2.677E-04    0   0.5837   age138_m42            0.0000     2.2433E+02     3.9343   0.0298   107.1113
 67      0.0000     0.0000E+00    0.0000E+00    1.434000E+09  0.00400  1.910E-04    0   0.5716   age139_m42            0.0000     2.7801E+02     3.9561   0.2039   108.1118
 68     35.1028     2.5047E+01    2.6241E+01    2.500000E+09  0.00400  9.818E-05    0   0.5463   age150_m42            0.0000     7.4561E+01     2.6123  -0.0732   103.3453
 69      0.0000     0.0000E+00    0.0000E+00    4.250000E+09  0.00400  5.491E-05    0   0.5269   age158_m42            0.0000     1.1084E+02     2.8586  -0.1972   100.5198
 70      0.0000     0.0000E+00    0.0000E+00    6.250000E+09  0.00400  3.857E-05    0   0.5151   age166_m42            0.0000     2.0949E+02     3.7449  -0.3243    99.0576
 71      0.0000     0.0000E+00    0.0000E+00    7.500000E+09  0.00400  3.243E-05    0   0.5110   age171_m42            0.0000     2.8171E+02     4.2788  -0.4031    98.4137
 72      0.0000     0.0000E+00    0.0000E+00    1.000000E+10  0.00400  2.424E-05    0   0.5028   age181_m42            0.0000     3.8968E+02     4.9746  -0.4838    97.7119
 73      0.0000     0.0000E+00    0.0000E+00    1.300000E+10  0.00400  1.883E-05    0   0.4927   age193_m42            0.0000     4.7618E+02     5.4736  -0.5245    97.3657
 74      0.8341     3.4678E+00    3.2714E+00    1.500000E+10  0.00400  1.685E-05    0   0.4919   age201_m42            0.0000     4.5105E+02     5.3070  -0.5187    97.3904
 75      0.0000     0.0000E+00    0.0000E+00    1.800000E+10  0.00400  1.452E-05    0   0.4874   age213_m42            0.0000     4.0404E+02     5.0226  -0.5023    97.6678
 76      0.0000     0.0000E+00    0.0000E+00    1.000000E+06  0.00800  1.286E-02    0   1.0000   age020_m52            0.0000     2.4764E+03    14.6815   3.6908    80.5440
 77      0.0000     0.0000E+00    0.0000E+00    3.160000E+06  0.00800  3.147E-02    0   0.9966   age045_m52            0.0000     2.3924E+03    14.5432   3.5957    82.1462
 78      0.0000     0.0000E+00    0.0000E+00    5.010000E+06  0.00800  2.664E-02    0   0.9443   age055_m52            0.0000     1.8290E+03    12.8417   3.2550    85.6303
 79      0.0000     0.0000E+00    0.0000E+00    6.610000E+06  0.00800  2.151E-02    0   0.9177   age061_m52            0.0000     1.1629E+03    10.3970   1.9276    92.1433
 80      0.0000     0.0000E+00    0.0000E+00    8.710000E+06  0.00800  1.628E-02    0   0.8948   age067_m52            0.0000     1.2175E+03    10.8559   2.3076    92.3410
 81      0.0000     0.0000E+00    0.0000E+00    1.000000E+07  0.00800  1.215E-02    0   0.8827   age070_m52            0.0000     1.4674E+03    11.8585   2.6570    90.3429
 82      0.0000     0.0000E+00    0.0000E+00    1.445000E+07  0.00800  8.739E-03    0   0.8552   age078_m52            0.0000     1.2549E+03    10.8746   2.6954    91.7081
 83      0.0000     0.0000E+00    0.0000E+00    2.512000E+07  0.00800  5.676E-03    0   0.8162   age090_m52            0.0000     9.3623E+02     9.0144   2.2852    96.6046
 84      0.0000     0.0000E+00    0.0000E+00    4.000000E+07  0.00800  3.939E-03    0   0.7841   age104_m52            0.0000     7.6827E+02     7.4581   2.1235    99.0090
 85      0.0000     0.0000E+00    0.0000E+00    5.500000E+07  0.00800  3.155E-03    0   0.7627   age110_m52            0.0000     7.3010E+02     6.6880   2.0888   100.6920
 86      0.0000     0.0000E+00    0.0000E+00    1.015200E+08  0.00800  2.206E-03    0   0.7226   age116_m52            0.0000     8.3075E+02     6.3430   1.8928   104.6096
 87      0.0000     0.0000E+00    0.0000E+00    1.609000E+08  0.00800  1.596E-03    0   0.6963   age120_m52            0.0000     9.5142E+02     6.5905   1.6814   106.1375
 88      0.0000     0.0000E+00    0.0000E+00    2.861200E+08  0.00800  1.002E-03    0   0.6665   age125_m52            0.0000     1.3807E+03     7.7493   1.3945   108.4302
 89      0.0000     0.0000E+00    0.0000E+00    5.088000E+08  0.00800  5.759E-04    0   0.6377   age130_m52            0.0000     1.4407E+03     8.2471   1.0383   112.3260
 90      0.0000     0.0000E+00    0.0000E+00    9.047900E+08  0.00800  2.972E-04    0   0.6086   age135_m52            0.0000     6.9399E+02     6.5058   0.4839   111.3328
 91      0.0000     0.0000E+00    0.0000E+00    1.278050E+09  0.00800  2.242E-04    0   0.5907   age138_m52            0.0000     2.9466E+02     4.8202  -0.1486   109.8883
 92      0.0000     0.0000E+00    0.0000E+00    1.434000E+09  0.00800  1.645E-04    0   0.5787   age139_m52            0.0000     2.2373E+02     4.1284   0.0004   109.4542
 93      0.0000     0.0000E+00    0.0000E+00    2.500000E+09  0.00800  7.723E-05    0   0.5519   age150_m52            0.0000     2.3769E+02     4.4820  -0.3403   105.5540
 94      0.2948     4.9746E-01    5.0754E-01    4.250000E+09  0.00800  4.151E-05    0   0.5320   age158_m52            0.0000     2.8079E+02     4.5610  -0.4080   102.9920
 95      0.0000     0.0000E+00    0.0000E+00    6.250000E+09  0.00800  3.010E-05    0   0.5197   age166_m52            0.0000     4.6867E+02     5.7298  -0.6010   101.3718
 96      0.0000     0.0000E+00    0.0000E+00    7.500000E+09  0.00800  2.467E-05    0   0.5139   age171_m52            0.0000     5.2508E+02     6.0601  -0.6432   100.9257
 97      0.0308     1.1599E-01    1.1242E-01    1.000000E+10  0.00800  1.862E-05    0   0.5054   age181_m52            0.0000     7.0398E+02     7.0773  -0.7756   100.4002
