###################################################################
## OUTPUT of StarlightChains_v04.for    [Cid@UFSC - 01/Apr/2007] ##
###################################################################

## Some input info
NGC1904_b_1.cxt                          [arq_obs]
Base.BC03.S                              [arq_base]
NGC1904_b_1.msk                          [arq_masks]
StCv04.C11.config                        [arq_config]
  150                                    [N_base]
    0                                    [N_YAV_components = # of components with extra extinction!]
    0                                    [i_FitPowerLaw (1/0 = Yes/No)]
-9.99                                    [alpha_PowerLaw]
CCM                                      [red_law_option]
 1.458241                                [q_norm = A(l_norm)/A(V)]

## (Re)Sampling Parameters
 3359.00                                 [l_ini (A)]
 6428.00                                 [l_fin (A)]
    1.00                                 [dl    (A)]     (OBS: dl_cushion =    50.00 A)

## Normalization info
 4020.00                                 [l_norm (A) - for base]
 4010.00                                 [llow_norm (A) - window for f_obs]
 4060.00                                 [lupp_norm (A) - window for f_obs]
3.423556E-14                             [fobs_norm (in input units)]

## S/N
 4730.00                                 [llow_SN (A) - window for S/N]
 4780.00                                 [lupp_SN (A) - window for S/N]
 126.287                                 [S/N in S/N window]
 125.997                                 [S/N in norm. window]
 129.607                                 [S/N_err in S/N window]
 129.310                                 [S/N_err in norm. window]
  1.0000                                 [fscale_chi2]

## etc...
  2147483645                             [idum_orig]
  3066                                   [NOl_eff]
  2184                                   [Nl_eff]
   882    NSIGMA                         [Ntot_cliped & clip_method]
  1303470                                [Nglobal_steps]
   7                                     [N_chains]
  15                                     [NEX0s_base = N_base in EX0s-fits]
 0   0   1      245   2.0   2.750E+02    [Clip-Bug, RC-Crash & Burn-In warning-flags, n_censored_weights, wei_nsig_threshold & wei_limit]
    61     61.413     61.409      0.004  [idt_all, wdt_TotTime, wdt_UsrTime & wdt_SysTime (sec)]

## Synthesis Results - Best model ##

 2.10096E+00                             [chi2/Nl_eff]
     1.13658                             [adev (%)]

   101.39396                             [sum-of-x (%)]
 4.04706E-14                             [Flux_tot (units of input spectrum!)]
 3.67578E-10                             [Mini_tot (???)]
 1.93207E-10                             [Mcor_tot (???)]

 -22.68                                  [v0_min  (km/s)]
  68.28                                  [vd_min  (km/s)]
 0.1143                                  [AV_min  (mag)]
 0.0000                                  [YAV_min (mag)]

# j     x_j(%)      Mini_j(%)     Mcor_j(%)     age_j(yr)     Z_j      (L/M)_j    YAV?  Mstars   component_j        a/Fe...       SSP_chi2r SSP_adev(%)   SSP_AV   SSP_x(%)
  1      0.0000     0.0000E+00    0.0000E+00    1.000000E+06  0.00010  8.160E-03    0   1.0000   age020_m22            0.0000     3.3428E+02    11.2385   3.4176    74.6259
  2     17.2295     3.9313E-02    7.4793E-02    3.160000E+06  0.00010  4.759E-02    0   1.0000   age045_m22            0.0000     3.8368E+01     4.2056   1.3666    95.6694
  3      0.0000     0.0000E+00    0.0000E+00    5.010000E+06  0.00010  1.932E-02    0   0.9582   age055_m22            0.0000     2.9470E+02    11.3399   1.7170    80.7369
  4      0.0000     0.0000E+00    0.0000E+00    6.610000E+06  0.00010  9.973E-03    0   0.9297   age061_m22            0.0000     3.2315E+02    11.4697   3.3769    77.3306
  5      0.0000     0.0000E+00    0.0000E+00    8.710000E+06  0.00010  7.690E-03    0   0.9030   age067_m22            0.0000     3.0609E+02    11.1593   3.3673    77.8150
  6      0.0000     0.0000E+00    0.0000E+00    1.000000E+07  0.00010  6.375E-03    0   0.8902   age070_m22            0.0000     2.9238E+02    10.8922   3.3792    78.0341
  7      0.0000     0.0000E+00    0.0000E+00    1.445000E+07  0.00010  4.874E-03    0   0.8589   age078_m22            0.0000     2.1549E+02     9.3856   3.1917    81.1567
  8      0.0000     0.0000E+00    0.0000E+00    2.512000E+07  0.00010  4.103E-03    0   0.8174   age090_m22            0.0000     8.6134E+01     6.1624   2.7671    88.3151
  9      0.0000     0.0000E+00    0.0000E+00    4.000000E+07  0.00010  3.654E-03    0   0.7830   age104_m22            0.0000     3.8757E+01     3.9017   2.4501    93.9289
 10      0.0000     0.0000E+00    0.0000E+00    5.500000E+07  0.00010  3.093E-03    0   0.7597   age110_m22            0.0000     3.3561E+01     3.2975   2.3414    95.8545
 11      0.0000     0.0000E+00    0.0000E+00    1.015200E+08  0.00010  2.431E-03    0   0.7138   age116_m22            0.0000     4.5890E+01     3.1418   1.9851    99.2809
 12      0.0000     0.0000E+00    0.0000E+00    1.609000E+08  0.00010  1.319E-03    0   0.6775   age120_m22            0.0000     4.4646E+01     3.0358   1.5086   101.6244
 13      0.0000     0.0000E+00    0.0000E+00    2.861200E+08  0.00010  1.075E-03    0   0.6412   age125_m22            0.0000     1.7110E+02     5.7630   1.5439   106.6893
 14      0.0000     0.0000E+00    0.0000E+00    5.088000E+08  0.00010  7.183E-04    0   0.6083   age130_m22            0.0000     2.2718E+02     7.0032   1.3045   108.9009
 15      0.0000     0.0000E+00    0.0000E+00    9.047900E+08  0.00010  4.524E-04    0   0.5785   age135_m22            0.0000     2.3423E+02     7.2541   1.1049   110.1966
 16      0.0000     0.0000E+00    0.0000E+00    1.278050E+09  0.00010  3.018E-04    0   0.5588   age138_m22            0.0000     9.0350E+01     4.4760   0.5888   107.4639
 17      0.0000     0.0000E+00    0.0000E+00    1.434000E+09  0.00010  2.691E-04    0   0.5532   age139_m22            0.0000     6.8431E+01     3.9466   0.4370   106.6708
 18      0.0000     0.0000E+00    0.0000E+00    2.500000E+09  0.00010  1.582E-04    0   0.5296   age150_m22            0.0000     5.3790E+01     3.4102   0.3308   107.0544
 19      0.0000     0.0000E+00    0.0000E+00    4.250000E+09  0.00010  1.007E-04    0   0.5110   age158_m22            0.0000     1.9421E+01     2.2389   0.1869   104.8181
 20      0.0000     0.0000E+00    0.0000E+00    6.250000E+09  0.00010  6.869E-05    0   0.4985   age166_m22            0.0000     4.3578E+00     1.3799   0.1381   101.4879
 21      0.0969     1.7921E-01    1.6812E-01    7.500000E+09  0.00010  5.873E-05    0   0.4931   age171_m22            0.0000     4.4581E+00     1.4441   0.1288   100.7915
 22      0.0000     0.0000E+00    0.0000E+00    1.000000E+10  0.00010  4.481E-05    0   0.4854   age181_m22            0.0000     4.1886E+00     1.4205   0.0906   100.4281
 23      0.0000     0.0000E+00    0.0000E+00    1.300000E+10  0.00010  3.489E-05    0   0.4791   age193_m22            0.0000     3.7833E+00     1.3809   0.0342    99.8554
 24      0.1064     3.8078E-01    3.4527E-01    1.500000E+10  0.00010  3.035E-05    0   0.4766   age201_m22            0.0000     3.7679E+00     1.3858  -0.0044    99.6272
 25      0.0000     0.0000E+00    0.0000E+00    1.800000E+10  0.00010  2.510E-05    0   0.4735   age213_m22            0.0000     4.4140E+00     1.4642  -0.0714    98.9168
 26      0.0000     0.0000E+00    0.0000E+00    1.000000E+06  0.00040  8.458E-03    0   1.0000   age020_m32            0.0000     3.2830E+02    11.2349   3.4309    75.2797
 27      0.0000     0.0000E+00    0.0000E+00    3.160000E+06  0.00040  3.973E-02    0   1.0000   age045_m32            0.0000     9.9903E+01     6.6471   2.6644    88.1962
 28      0.0000     0.0000E+00    0.0000E+00    5.010000E+06  0.00040  1.935E-02    0   0.9532   age055_m32            0.0000     2.4078E+02    10.2068   2.9165    81.4035
 29      0.0000     0.0000E+00    0.0000E+00    6.610000E+06  0.00040  1.204E-02    0   0.9243   age061_m32            0.0000     2.6858E+02    10.5107   3.2321    79.4664
 30      0.0000     0.0000E+00    0.0000E+00    8.710000E+06  0.00040  9.433E-03    0   0.9001   age067_m32            0.0000     2.4010E+02     9.9489   3.2012    80.4694
 31      0.0000     0.0000E+00    0.0000E+00    1.000000E+07  0.00040  8.053E-03    0   0.8877   age070_m32            0.0000     2.2897E+02     9.7165   3.1639    80.9803
 32      0.0000     0.0000E+00    0.0000E+00    1.445000E+07  0.00040  7.027E-03    0   0.8578   age078_m32            0.0000     1.3143E+02     7.6709   2.6305    86.6064
 33      0.0000     0.0000E+00    0.0000E+00    2.512000E+07  0.00040  4.707E-03    0   0.8166   age090_m32            0.0000     7.0933E+01     5.7711   2.3222    91.0792
 34      0.0000     0.0000E+00    0.0000E+00    4.000000E+07  0.00040  3.714E-03    0   0.7827   age104_m32            0.0000     3.7400E+01     3.9979   2.1057    95.0931
 35      0.0000     0.0000E+00    0.0000E+00    5.500000E+07  0.00040  2.982E-03    0   0.7593   age110_m32            0.0000     3.3084E+01     3.4572   2.0385    96.5949
 36      0.0000     0.0000E+00    0.0000E+00    1.015200E+08  0.00040  2.188E-03    0   0.7143   age116_m32            0.0000     7.2254E+01     3.5176   1.7494   102.1415
 37      0.0000     0.0000E+00    0.0000E+00    1.609000E+08  0.00040  1.690E-03    0   0.6856   age120_m32            0.0000     1.2862E+02     4.5964   1.5292   105.4656
 38      0.0000     0.0000E+00    0.0000E+00    2.861200E+08  0.00040  1.152E-03    0   0.6509   age125_m32            0.0000     1.8627E+02     6.1200   1.2926   108.0023
 39      0.0000     0.0000E+00    0.0000E+00    5.088000E+08  0.00040  7.331E-04    0   0.6182   age130_m32            0.0000     2.1098E+02     6.8122   1.1250   109.0129
 40      0.0000     0.0000E+00    0.0000E+00    9.047900E+08  0.00040  3.960E-04    0   0.5890   age135_m32            0.0000     9.6767E+01     4.9595   0.6783   106.9076
 41      0.0000     0.0000E+00    0.0000E+00    1.278050E+09  0.00040  2.854E-04    0   0.5687   age138_m32            0.0000     6.7606E+01     3.8565   0.3937   108.2430
 42      0.0000     0.0000E+00    0.0000E+00    1.434000E+09  0.00040  2.531E-04    0   0.5632   age139_m32            0.0000     6.4963E+01     3.7456   0.3325   108.1802
 43     20.6027     1.5035E+01    1.5406E+01    2.500000E+09  0.00040  1.488E-04    0   0.5386   age150_m32            0.0000     3.6481E+01     2.8784   0.0763   106.1985
 44     45.4419     5.4332E+01    5.3740E+01    4.250000E+09  0.00040  9.082E-05    0   0.5199   age158_m32            0.0000     3.7805E+00     1.2600  -0.0079   101.9681
 45      2.2562     3.8509E+00    3.7189E+00    6.250000E+09  0.00040  6.362E-05    0   0.5076   age166_m32            0.0000     1.1887E+01     2.0164  -0.0346    97.7345
 46      5.7143     1.1732E+01    1.1220E+01    7.500000E+09  0.00040  5.289E-05    0   0.5027   age171_m32            0.0000     1.6929E+01     2.2427  -0.0692    96.3951
 47      1.1040     3.0181E+00    2.8411E+00    1.000000E+10  0.00040  3.972E-05    0   0.4948   age181_m32            0.0000     2.1074E+01     2.3357  -0.1306    95.0553
 48      0.0064     2.1222E-02    1.9663E-02    1.300000E+10  0.00040  3.283E-05    0   0.4870   age193_m32            0.0000     7.3572E+00     1.6451  -0.1822    98.1441
 49      0.0000     0.0000E+00    0.0000E+00    1.500000E+10  0.00040  2.925E-05    0   0.4854   age201_m32            0.0000     3.9460E+00     1.4014  -0.2046    99.9459
 50      0.0000     0.0000E+00    0.0000E+00    1.800000E+10  0.00040  2.469E-05    0   0.4819   age213_m32            0.0000     3.8418E+00     1.4007  -0.2471   100.5578
 51      0.0000     0.0000E+00    0.0000E+00    1.000000E+06  0.00400  1.114E-02    0   1.0000   age020_m42            0.0000     3.1593E+02    10.9474   3.3600    75.7757
 52      0.0000     0.0000E+00    0.0000E+00    3.160000E+06  0.00400  4.073E-02    0   0.9999   age045_m42            0.0000     6.2198E+01     5.2872   2.3510    91.2966
 53      0.0000     0.0000E+00    0.0000E+00    5.010000E+06  0.00400  2.534E-02    0   0.9488   age055_m42            0.0000     1.5995E+02     8.1539   2.7813    84.1524
 54      0.0000     0.0000E+00    0.0000E+00    6.610000E+06  0.00400  2.583E-02    0   0.9220   age061_m42            0.0000     4.5188E+01     4.4918   2.1641    92.4290
 55      0.0000     0.0000E+00    0.0000E+00    8.710000E+06  0.00400  1.706E-02    0   0.8983   age067_m42            0.0000     9.0053E+01     6.5805   2.0052    89.8044
 56      0.0000     0.0000E+00    0.0000E+00    1.000000E+07  0.00400  1.271E-02    0   0.8862   age070_m42            0.0000     1.3774E+02     8.1968   2.0007    87.8564
 57      0.0000     0.0000E+00    0.0000E+00    1.445000E+07  0.00400  7.666E-03    0   0.8571   age078_m42            0.0000     1.8684E+02     8.9930   2.4109    84.4242
 58      0.0000     0.0000E+00    0.0000E+00    2.512000E+07  0.00400  5.070E-03    0   0.8174   age090_m42            0.0000     1.1849E+02     7.6312   1.8640    89.6511
 59      0.0000     0.0000E+00    0.0000E+00    4.000000E+07  0.00400  3.505E-03    0   0.7851   age104_m42            0.0000     7.0355E+01     5.9227   1.5343    93.1182
 60      0.0000     0.0000E+00    0.0000E+00    5.500000E+07  0.00400  3.059E-03    0   0.7629   age110_m42            0.0000     2.4178E+01     2.8753   1.5645    99.0969
 61      0.0000     0.0000E+00    0.0000E+00    1.015200E+08  0.00400  2.268E-03    0   0.7207   age116_m42            0.0000     1.0580E+02     4.3213   1.4443   106.0110
 62      0.0000     0.0000E+00    0.0000E+00    1.609000E+08  0.00400  1.720E-03    0   0.6930   age120_m42            0.0000     1.2310E+02     4.9684   1.2940   108.0365
 63      0.0000     0.0000E+00    0.0000E+00    2.861200E+08  0.00400  1.079E-03    0   0.6613   age125_m42            0.0000     1.2869E+02     5.1615   0.9409   108.4272
 64      0.0000     0.0000E+00    0.0000E+00    5.088000E+08  0.00400  6.261E-04    0   0.6313   age130_m42            0.0000     1.6034E+02     5.7592   0.7455   111.4998
 65      0.0000     0.0000E+00    0.0000E+00    9.047900E+08  0.00400  3.535E-04    0   0.6024   age135_m42            0.0000     8.1491E+01     4.3866   0.3555   111.0892
 66      0.0000     0.0000E+00    0.0000E+00    1.278050E+09  0.00400  2.677E-04    0   0.5837   age138_m42            0.0000     4.5167E+01     4.1948  -0.3169   107.5061
 67      0.0000     0.0000E+00    0.0000E+00    1.434000E+09  0.00400  1.910E-04    0   0.5716   age139_m42            0.0000     4.3251E+01     4.0717  -0.1552   108.7742
 68      2.6760     2.9597E+00    3.0761E+00    2.500000E+09  0.00400  9.818E-05    0   0.5463   age150_m42            0.0000     4.2672E+01     3.8498  -0.4062   102.8689
 69      0.0000     0.0000E+00    0.0000E+00    4.250000E+09  0.00400  5.491E-05    0   0.5269   age158_m42            0.0000     6.2043E+01     4.1006  -0.5200    99.5040
 70      0.0000     0.0000E+00    0.0000E+00    6.250000E+09  0.00400  3.857E-05    0   0.5151   age166_m42            0.0000     8.6751E+01     4.7062  -0.6417    97.9690
 71      0.0000     0.0000E+00    0.0000E+00    7.500000E+09  0.00400  3.243E-05    0   0.5110   age171_m42            0.0000     1.0343E+02     5.0783  -0.7175    97.3179
 72      0.0000     0.0000E+00    0.0000E+00    1.000000E+10  0.00400  2.424E-05    0   0.5028   age181_m42            0.0000     1.2832E+02     5.5555  -0.7938    96.5541
 73      0.0000     0.0000E+00    0.0000E+00    1.300000E+10  0.00400  1.883E-05    0   0.4927   age193_m42            0.0000     1.4925E+02     5.8989  -0.8304    96.0910
 74      0.0000     0.0000E+00    0.0000E+00    1.500000E+10  0.00400  1.685E-05    0   0.4919   age201_m42            0.0000     1.4367E+02     5.8139  -0.8273    96.1400
 75      0.0000     0.0000E+00    0.0000E+00    1.800000E+10  0.00400  1.452E-05    0   0.4874   age213_m42            0.0000     1.3343E+02     5.6501  -0.8139    96.4361
 76      0.0000     0.0000E+00    0.0000E+00    1.000000E+06  0.00800  1.286E-02    0   1.0000   age020_m52            0.0000     2.7802E+02    10.3735   3.3326    77.6174
 77      0.0000     0.0000E+00    0.0000E+00    3.160000E+06  0.00800  3.147E-02    0   0.9966   age045_m52            0.0000     2.6348E+02    10.2226   3.2454    79.1503
 78      0.0000     0.0000E+00    0.0000E+00    5.010000E+06  0.00800  2.664E-02    0   0.9443   age055_m52            0.0000     1.8935E+02     8.6610   2.9092    82.9342
 79      0.0000     0.0000E+00    0.0000E+00    6.610000E+06  0.00800  2.151E-02    0   0.9177   age061_m52            0.0000     1.2305E+02     7.3312   1.5922    89.5635
 80      0.0000     0.0000E+00    0.0000E+00    8.710000E+06  0.00800  1.628E-02    0   0.8948   age067_m52            0.0000     1.0813E+02     7.1512   1.9637    90.0357
 81      0.0000     0.0000E+00    0.0000E+00    1.000000E+07  0.00800  1.215E-02    0   0.8827   age070_m52            0.0000     1.3435E+02     7.8408   2.3104    87.9831
 82      0.0000     0.0000E+00    0.0000E+00    1.445000E+07  0.00800  8.739E-03    0   0.8552   age078_m52            0.0000     1.0387E+02     6.9010   2.3451    89.5889
 83      0.0000     0.0000E+00    0.0000E+00    2.512000E+07  0.00800  5.676E-03    0   0.8162   age090_m52            0.0000     5.9877E+01     5.4159   1.9276    95.0314
 84      0.0000     0.0000E+00    0.0000E+00    4.000000E+07  0.00800  3.939E-03    0   0.7841   age104_m52            0.0000     4.1159E+01     4.0051   1.7545    98.1546
 85      0.0000     0.0000E+00    0.0000E+00    5.500000E+07  0.00800  3.155E-03    0   0.7627   age110_m52            0.0000     4.0274E+01     3.1574   1.7147   100.4569
 86      0.0000     0.0000E+00    0.0000E+00    1.015200E+08  0.00800  2.206E-03    0   0.7226   age116_m52            0.0000     7.0912E+01     3.5029   1.5114   105.3666
 87      0.0000     0.0000E+00    0.0000E+00    1.609000E+08  0.00800  1.596E-03    0   0.6963   age120_m52            0.0000     9.4267E+01     4.2515   1.2898   107.4148
 88      0.0000     0.0000E+00    0.0000E+00    2.861200E+08  0.00800  1.002E-03    0   0.6665   age125_m52            0.0000     1.7445E+02     6.4842   0.9793   111.1073
 89      0.0000     0.0000E+00    0.0000E+00    5.088000E+08  0.00800  5.759E-04    0   0.6377   age130_m52            0.0000     1.9871E+02     7.4705   0.6225   115.5560
 90      0.0000     0.0000E+00    0.0000E+00    9.047900E+08  0.00800  2.972E-04    0   0.6086   age135_m52            0.0000     1.1024E+02     6.3060   0.0980   113.5849
 91      0.0000     0.0000E+00    0.0000E+00    1.278050E+09  0.00800  2.242E-04    0   0.5907   age138_m52            0.0000     7.5738E+01     5.4061  -0.4942   110.7020
 92      0.0000     0.0000E+00    0.0000E+00    1.434000E+09  0.00800  1.645E-04    0   0.5787   age139_m52            0.0000     5.9669E+01     4.8600  -0.3449   109.9856
 93      0.0000     0.0000E+00    0.0000E+00    2.500000E+09  0.00800  7.723E-05    0   0.5519   age150_m52            0.0000     8.7858E+01     5.2812  -0.6661   105.2335
 94      0.0000     6.9445E-05    7.0288E-05    4.250000E+09  0.00800  4.151E-05    0   0.5320   age158_m52            0.0000     1.0186E+02     5.3550  -0.7280   102.2971
 95      0.0000     0.0000E+00    0.0000E+00    6.250000E+09  0.00800  3.010E-05    0   0.5197   age166_m52            0.0000     1.4617E+02     6.1844  -0.9156   100.6322
 96      0.0000     0.0000E+00    0.0000E+00    7.500000E+09  0.00800  2.467E-05    0   0.5139   age171_m52            0.0000     1.5847E+02     6.4025  -0.9555   100.1862
 97      0.0000     0.0000E+00    0.0000E+00    1.000000E+10  0.00800  1.862E-05    0   0.5054   age181_m52            0.0000     2.0158E+02     6.6617  -1.0000    97.7796
