###################################################################
## OUTPUT of StarlightChains_v04.for    [Cid@UFSC - 01/Apr/2007] ##
###################################################################

## Some input info
NGC1904_a_1.cxt                          [arq_obs]
Base.BC03.S                              [arq_base]
NGC1904_a_1.msk                          [arq_masks]
StCv04.C11.config                        [arq_config]
  150                                    [N_base]
    0                                    [N_YAV_components = # of components with extra extinction!]
    0                                    [i_FitPowerLaw (1/0 = Yes/No)]
-9.99                                    [alpha_PowerLaw]
CCM                                      [red_law_option]
 1.458241                                [q_norm = A(l_norm)/A(V)]

## (Re)Sampling Parameters
 3359.00                                 [l_ini (A)]
 6428.00                                 [l_fin (A)]
    1.00                                 [dl    (A)]     (OBS: dl_cushion =    50.00 A)

## Normalization info
 4020.00                                 [l_norm (A) - for base]
 4010.00                                 [llow_norm (A) - window for f_obs]
 4060.00                                 [lupp_norm (A) - window for f_obs]
1.460937E-14                             [fobs_norm (in input units)]

## S/N
 4730.00                                 [llow_SN (A) - window for S/N]
 4780.00                                 [lupp_SN (A) - window for S/N]
 130.069                                 [S/N in S/N window]
 127.140                                 [S/N in norm. window]
 564.433                                 [S/N_err in S/N window]
 551.723                                 [S/N_err in norm. window]
  1.0000                                 [fscale_chi2]

## etc...
  2147483646                             [idum_orig]
  3067                                   [NOl_eff]
   375                                   [Nl_eff]
  2692    NSIGMA                         [Ntot_cliped & clip_method]
  4353930                                [Nglobal_steps]
   7                                     [N_chains]
  15                                     [NEX0s_base = N_base in EX0s-fits]
 0   0   1      254   2.0   1.168E+03    [Clip-Bug, RC-Crash & Burn-In warning-flags, n_censored_weights, wei_nsig_threshold & wei_limit]
   189    189.159    189.151      0.008  [idt_all, wdt_TotTime, wdt_UsrTime & wdt_SysTime (sec)]

## Synthesis Results - Best model ##

 2.70639E+00                             [chi2/Nl_eff]
     0.38377                             [adev (%)]

   102.65570                             [sum-of-x (%)]
 1.65072E-14                             [Flux_tot (units of input spectrum!)]
 1.47467E-10                             [Mini_tot (???)]
 7.76387E-11                             [Mcor_tot (???)]

 -19.70                                  [v0_min  (km/s)]
  70.58                                  [vd_min  (km/s)]
 0.0714                                  [AV_min  (mag)]
 0.0000                                  [YAV_min (mag)]

# j     x_j(%)      Mini_j(%)     Mcor_j(%)     age_j(yr)     Z_j      (L/M)_j    YAV?  Mstars   component_j        a/Fe...       SSP_chi2r SSP_adev(%)   SSP_AV   SSP_x(%)
  1      0.0000     0.0000E+00    0.0000E+00    1.000000E+06  0.00010  8.160E-03    0   1.0000   age020_m22            0.0000     7.7812E+03    15.7010   3.5506    77.7447
  2     21.4872     4.9233E-02    9.3514E-02    3.160000E+06  0.00010  4.759E-02    0   1.0000   age045_m22            0.0000     8.9280E+02     5.4837   1.4205    97.6137
  3      0.0000     0.0000E+00    0.0000E+00    5.010000E+06  0.00010  1.932E-02    0   0.9582   age055_m22            0.0000     6.7222E+03    14.6267   1.8389    83.7109
  4      0.0000     0.0000E+00    0.0000E+00    6.610000E+06  0.00010  9.973E-03    0   0.9297   age061_m22            0.0000     7.5506E+03    15.5331   3.5071    80.4481
  5      0.0000     0.0000E+00    0.0000E+00    8.710000E+06  0.00010  7.690E-03    0   0.9030   age067_m22            0.0000     7.1078E+03    15.1093   3.4952    80.8855
  6      0.0000     0.0000E+00    0.0000E+00    1.000000E+07  0.00010  6.375E-03    0   0.8902   age070_m22            0.0000     6.7080E+03    14.6896   3.5085    81.0258
  7      0.0000     0.0000E+00    0.0000E+00    1.445000E+07  0.00010  4.874E-03    0   0.8589   age078_m22            0.0000     4.8778E+03    12.7670   3.3052    83.9541
  8      0.0000     0.0000E+00    0.0000E+00    2.512000E+07  0.00010  4.103E-03    0   0.8174   age090_m22            0.0000     2.0067E+03     8.8108   2.8499    90.5351
  9      0.0000     0.0000E+00    0.0000E+00    4.000000E+07  0.00010  3.654E-03    0   0.7830   age104_m22            0.0000     1.2039E+03     6.3215   2.5063    95.5567
 10      0.0000     0.0000E+00    0.0000E+00    5.500000E+07  0.00010  3.093E-03    0   0.7597   age110_m22            0.0000     1.1852E+03     5.5724   2.3807    97.2775
 11      0.0000     0.0000E+00    0.0000E+00    1.015200E+08  0.00010  2.431E-03    0   0.7138   age116_m22            0.0000     1.7318E+03     5.6929   2.0075   100.3722
 12      0.0000     0.0000E+00    0.0000E+00    1.609000E+08  0.00010  1.319E-03    0   0.6775   age120_m22            0.0000     1.7994E+03     5.2333   1.5123   102.6404
 13      0.0000     0.0000E+00    0.0000E+00    2.861200E+08  0.00010  1.075E-03    0   0.6412   age125_m22            0.0000     5.4994E+03     9.2429   1.4987   107.0252
 14      0.0000     0.0000E+00    0.0000E+00    5.088000E+08  0.00010  7.183E-04    0   0.6083   age130_m22            0.0000     6.9591E+03    10.7353   1.2314   109.1707
 15      0.0000     0.0000E+00    0.0000E+00    9.047900E+08  0.00010  4.524E-04    0   0.5785   age135_m22            0.0000     7.0498E+03    10.8112   1.0222   110.5353
 16      0.0000     0.0000E+00    0.0000E+00    1.278050E+09  0.00010  3.018E-04    0   0.5588   age138_m22            0.0000     2.9415E+03     7.0202   0.5239   108.2243
 17      0.0000     0.0000E+00    0.0000E+00    1.434000E+09  0.00010  2.691E-04    0   0.5532   age139_m22            0.0000     2.2599E+03     6.1907   0.3724   107.5782
 18      0.0000     0.0000E+00    0.0000E+00    2.500000E+09  0.00010  1.582E-04    0   0.5296   age150_m22            0.0000     1.8553E+03     5.4852   0.2848   108.0065
 19      0.0050     5.4435E-03    5.2835E-03    4.250000E+09  0.00010  1.007E-04    0   0.5110   age158_m22            0.0000     7.5849E+02     3.5164   0.1547   106.1152
 20      0.0452     7.1692E-02    6.7882E-02    6.250000E+09  0.00010  6.869E-05    0   0.4985   age166_m22            0.0000     1.7375E+02     1.7841   0.1195   103.1299
 21      0.0000     0.0000E+00    0.0000E+00    7.500000E+09  0.00010  5.873E-05    0   0.4931   age171_m22            0.0000     1.5855E+02     1.8529   0.1190   102.4509
 22      0.0000     0.0000E+00    0.0000E+00    1.000000E+10  0.00010  4.481E-05    0   0.4854   age181_m22            0.0000     1.4024E+02     1.7399   0.0796   102.0838
 23      0.0000     0.0000E+00    0.0000E+00    1.300000E+10  0.00010  3.489E-05    0   0.4791   age193_m22            0.0000     9.9975E+01     1.4870   0.0206   101.5409
 24      0.0179     6.4289E-02    5.8198E-02    1.500000E+10  0.00010  3.035E-05    0   0.4766   age201_m22            0.0000     8.3669E+01     1.3857  -0.0184   101.3315
 25      0.0000     0.0000E+00    0.0000E+00    1.800000E+10  0.00010  2.510E-05    0   0.4735   age213_m22            0.0000     6.2776E+01     1.2498  -0.0854   100.6744
 26      0.0000     0.0000E+00    0.0000E+00    1.000000E+06  0.00040  8.458E-03    0   1.0000   age020_m32            0.0000     7.6022E+03    15.5215   3.5647    78.3682
 27      0.0000     0.0000E+00    0.0000E+00    3.160000E+06  0.00040  3.973E-02    0   1.0000   age045_m32            0.0000     2.3102E+03     9.2320   2.7516    90.5616
 28      0.0000     0.0000E+00    0.0000E+00    5.010000E+06  0.00040  1.935E-02    0   0.9532   age055_m32            0.0000     5.5821E+03    13.7667   3.0348    84.2848
 29      0.0000     0.0000E+00    0.0000E+00    6.610000E+06  0.00040  1.204E-02    0   0.9243   age061_m32            0.0000     6.2317E+03    14.2901   3.3541    82.4619
 30      0.0000     0.0000E+00    0.0000E+00    8.710000E+06  0.00040  9.433E-03    0   0.9001   age067_m32            0.0000     5.5172E+03    13.5223   3.3185    83.3854
 31      0.0000     0.0000E+00    0.0000E+00    1.000000E+07  0.00040  8.053E-03    0   0.8877   age070_m32            0.0000     5.2529E+03    13.2286   3.2787    83.8552
 32      0.0000     0.0000E+00    0.0000E+00    1.445000E+07  0.00040  7.027E-03    0   0.8578   age078_m32            0.0000     3.0205E+03    10.5718   2.7251    89.0114
 33      0.0000     0.0000E+00    0.0000E+00    2.512000E+07  0.00040  4.707E-03    0   0.8166   age090_m32            0.0000     1.7332E+03     8.3437   2.3953    93.0472
 34      0.0000     0.0000E+00    0.0000E+00    4.000000E+07  0.00040  3.714E-03    0   0.7827   age104_m32            0.0000     1.1626E+03     6.3571   2.1596    96.6522
 35      0.0000     0.0000E+00    0.0000E+00    5.500000E+07  0.00040  2.982E-03    0   0.7593   age110_m32            0.0000     1.1786E+03     5.7796   2.0806    98.0033
 36      0.0000     0.0000E+00    0.0000E+00    1.015200E+08  0.00040  2.188E-03    0   0.7143   age116_m32            0.0000     2.6041E+03     6.3462   1.7466   103.0187
 37      0.0000     0.0000E+00    0.0000E+00    1.609000E+08  0.00040  1.690E-03    0   0.6856   age120_m32            0.0000     4.2673E+03     8.0138   1.5046   105.9820
 38      0.0000     0.0000E+00    0.0000E+00    2.861200E+08  0.00040  1.152E-03    0   0.6509   age125_m32            0.0000     5.8595E+03     9.6669   1.2379   108.3389
 39      0.0000     0.0000E+00    0.0000E+00    5.088000E+08  0.00040  7.331E-04    0   0.6182   age130_m32            0.0000     6.4410E+03    10.3772   1.0501   109.3577
 40      0.4830     1.3299E-01    1.4878E-01    9.047900E+08  0.00040  3.960E-04    0   0.5890   age135_m32            0.0000     3.0464E+03     7.3524   0.5965   107.8068
 41      0.2028     7.7491E-02    8.3705E-02    1.278050E+09  0.00040  2.854E-04    0   0.5687   age138_m32            0.0000     2.2231E+03     6.0219   0.3396   109.1975
 42      0.0000     0.0000E+00    0.0000E+00    1.434000E+09  0.00040  2.531E-04    0   0.5632   age139_m32            0.0000     2.1500E+03     5.9355   0.2802   109.1288
 43     16.1724     1.1851E+01    1.2124E+01    2.500000E+09  0.00040  1.488E-04    0   0.5386   age150_m32            0.0000     1.2457E+03     4.6007   0.0256   107.4229
 44     28.8475     3.4635E+01    3.4203E+01    4.250000E+09  0.00040  9.082E-05    0   0.5199   age158_m32            0.0000     1.2188E+02     1.4678  -0.0405   103.6355
 45      0.0574     9.8459E-02    9.4928E-02    6.250000E+09  0.00040  6.362E-05    0   0.5076   age166_m32            0.0000     1.6184E+02     1.8585  -0.0424    99.6938
 46      3.7101     7.6490E+00    7.3035E+00    7.500000E+09  0.00040  5.289E-05    0   0.5027   age171_m32            0.0000     2.5356E+02     2.2118  -0.0784    98.4165
 47      6.0634     1.6646E+01    1.5644E+01    1.000000E+10  0.00040  3.972E-05    0   0.4948   age181_m32            0.0000     3.3254E+02     2.3494  -0.1467    97.1092
 48      0.0000     0.0000E+00    0.0000E+00    1.300000E+10  0.00040  3.283E-05    0   0.4870   age193_m32            0.0000     6.4325E+01     1.0294  -0.2106   100.0055
 49      0.0000     0.0000E+00    0.0000E+00    1.500000E+10  0.00040  2.925E-05    0   0.4854   age201_m32            0.0000     2.9969E+01     0.8447  -0.2399   101.6986
 50      0.0000     0.0000E+00    0.0000E+00    1.800000E+10  0.00040  2.469E-05    0   0.4819   age213_m32            0.0000     4.2983E+01     1.0474  -0.2869   102.2512
 51      0.0000     0.0000E+00    0.0000E+00    1.000000E+06  0.00400  1.114E-02    0   1.0000   age020_m42            0.0000     7.3247E+03    15.1971   3.4870    78.8752
 52      0.0000     0.0000E+00    0.0000E+00    3.160000E+06  0.00400  4.073E-02    0   0.9999   age045_m42            0.0000     1.4136E+03     7.2081   2.4227    93.4005
 53      0.0000     0.0000E+00    0.0000E+00    5.010000E+06  0.00400  2.534E-02    0   0.9488   age055_m42            0.0000     3.6643E+03    11.2215   2.8781    86.8504
 54      0.0000     0.0000E+00    0.0000E+00    6.610000E+06  0.00400  2.583E-02    0   0.9220   age061_m42            0.0000     1.1442E+03     6.6178   2.2217    94.2906
 55      0.0000     0.0000E+00    0.0000E+00    8.710000E+06  0.00400  1.706E-02    0   0.8983   age067_m42            0.0000     2.0601E+03     8.9393   2.0783    91.8729
 56      0.0000     0.0000E+00    0.0000E+00    1.000000E+07  0.00400  1.271E-02    0   0.8862   age070_m42            0.0000     3.0718E+03    10.7627   2.0851    90.0564
 57      0.0000     0.0000E+00    0.0000E+00    1.445000E+07  0.00400  7.666E-03    0   0.8571   age078_m42            0.0000     4.2276E+03    12.1164   2.5012    86.9656
 58      0.0000     0.0000E+00    0.0000E+00    2.512000E+07  0.00400  5.070E-03    0   0.8174   age090_m42            0.0000     2.6018E+03     9.8411   1.9372    91.7724
 59      0.0000     0.0000E+00    0.0000E+00    4.000000E+07  0.00400  3.505E-03    0   0.7851   age104_m42            0.0000     1.5065E+03     7.3724   1.5786    95.0419
 60      0.0000     0.0000E+00    0.0000E+00    5.500000E+07  0.00400  3.059E-03    0   0.7629   age110_m42            0.0000     9.1837E+02     4.3572   1.5707   100.3471
 61      0.0000     0.0000E+00    0.0000E+00    1.015200E+08  0.00400  2.268E-03    0   0.7207   age116_m42            0.0000     3.5727E+03     7.2201   1.4022   106.5906
 62      0.0000     0.0000E+00    0.0000E+00    1.609000E+08  0.00400  1.720E-03    0   0.6930   age120_m42            0.0000     3.9639E+03     7.8005   1.2387   108.6171
 63      0.0000     0.0000E+00    0.0000E+00    2.861200E+08  0.00400  1.079E-03    0   0.6613   age125_m42            0.0000     4.1041E+03     8.3478   0.8768   108.8573
 64      0.0000     0.0000E+00    0.0000E+00    5.088000E+08  0.00400  6.261E-04    0   0.6313   age130_m42            0.0000     4.8786E+03     8.8973   0.6786   111.8727
 65      0.0000     0.0000E+00    0.0000E+00    9.047900E+08  0.00400  3.535E-04    0   0.6024   age135_m42            0.0000     2.4179E+03     6.6960   0.2815   111.9672
 66      0.0000     0.0000E+00    0.0000E+00    1.278050E+09  0.00400  2.677E-04    0   0.5837   age138_m42            0.0000     9.5219E+02     6.0090  -0.4432   108.9361
 67      0.0000     0.0000E+00    0.0000E+00    1.434000E+09  0.00400  1.910E-04    0   0.5716   age139_m42            0.0000     1.0222E+03     5.7097  -0.2750   110.2100
 68     21.2936     2.3649E+01    2.4540E+01    2.500000E+09  0.00400  9.818E-05    0   0.5463   age150_m42            0.0000     8.6950E+02     5.3585  -0.5298   104.8614
 69      0.0000     0.0000E+00    0.0000E+00    4.250000E+09  0.00400  5.491E-05    0   0.5269   age158_m42            0.0000     1.3764E+03     5.8108  -0.6324   101.5316
 70      0.0000     0.0000E+00    0.0000E+00    6.250000E+09  0.00400  3.857E-05    0   0.5151   age166_m42            0.0000     2.0561E+03     6.7702  -0.7687   100.0756
 71      0.0000     0.0000E+00    0.0000E+00    7.500000E+09  0.00400  3.243E-05    0   0.5110   age171_m42            0.0000     2.5165E+03     7.3910  -0.8565    99.4801
 72      0.0000     0.0000E+00    0.0000E+00    1.000000E+10  0.00400  2.424E-05    0   0.5028   age181_m42            0.0000     3.2105E+03     8.2316  -0.9435    98.7499
 73      0.0000     0.0000E+00    0.0000E+00    1.300000E+10  0.00400  1.883E-05    0   0.4927   age193_m42            0.0000     3.7855E+03     8.8751  -0.9826    98.2654
 74      0.0000     0.0000E+00    0.0000E+00    1.500000E+10  0.00400  1.685E-05    0   0.4919   age201_m42            0.0000     3.6235E+03     8.6547  -0.9761    98.2811
 75      0.0000     0.0000E+00    0.0000E+00    1.800000E+10  0.00400  1.452E-05    0   0.4874   age213_m42            0.0000     3.3204E+03     8.2903  -0.9571    98.5330
 76      0.0000     0.0000E+00    0.0000E+00    1.000000E+06  0.00800  1.286E-02    0   1.0000   age020_m52            0.0000     6.4167E+03    14.2146   3.4596    80.6679
 77      0.0000     0.0000E+00    0.0000E+00    3.160000E+06  0.00800  3.147E-02    0   0.9966   age045_m52            0.0000     6.1643E+03    14.0290   3.3637    82.2530
 78      0.0000     0.0000E+00    0.0000E+00    5.010000E+06  0.00800  2.664E-02    0   0.9443   age055_m52            0.0000     4.4150E+03    11.9650   3.0074    85.8297
 79      0.0000     0.0000E+00    0.0000E+00    6.610000E+06  0.00800  2.151E-02    0   0.9177   age061_m52            0.0000     2.6594E+03     9.0945   1.6571    91.9934
 80      0.0000     0.0000E+00    0.0000E+00    8.710000E+06  0.00800  1.628E-02    0   0.8948   age067_m52            0.0000     2.4967E+03     9.4450   2.0326    92.2487
 81      0.0000     0.0000E+00    0.0000E+00    1.000000E+07  0.00800  1.215E-02    0   0.8827   age070_m52            0.0000     3.1892E+03    10.6517   2.3857    90.3458
 82      0.0000     0.0000E+00    0.0000E+00    1.445000E+07  0.00800  8.739E-03    0   0.8552   age078_m52            0.0000     2.5603E+03     9.6809   2.4131    91.8668
 83      0.0000     0.0000E+00    0.0000E+00    2.512000E+07  0.00800  5.676E-03    0   0.8162   age090_m52            0.0000     1.7079E+03     7.7347   1.9755    96.6995
 84      0.0000     0.0000E+00    0.0000E+00    4.000000E+07  0.00800  3.939E-03    0   0.7841   age104_m52            0.0000     1.4422E+03     6.1002   1.7869    99.4650
 85      0.0000     0.0000E+00    0.0000E+00    5.500000E+07  0.00800  3.155E-03    0   0.7627   age110_m52            0.0000     1.5739E+03     5.3213   1.7311   101.5170
 86      0.0000     0.0000E+00    0.0000E+00    1.015200E+08  0.00800  2.206E-03    0   0.7226   age116_m52            0.0000     2.5200E+03     5.8520   1.4858   106.1060
 87      0.0000     0.0000E+00    0.0000E+00    1.609000E+08  0.00800  1.596E-03    0   0.6963   age120_m52            0.0000     3.1594E+03     6.7426   1.2438   108.0020
 88      0.0000     0.0000E+00    0.0000E+00    2.861200E+08  0.00800  1.002E-03    0   0.6665   age125_m52            0.0000     5.2529E+03     9.6210   0.8796   111.4918
 89      0.0000     0.0000E+00    0.0000E+00    5.088000E+08  0.00800  5.759E-04    0   0.6377   age130_m52            0.0000     5.5436E+03    10.6476   0.4728   116.3049
 90      0.0000     0.0000E+00    0.0000E+00    9.047900E+08  0.00800  2.972E-04    0   0.6086   age135_m52            0.0000     2.6176E+03     8.4498  -0.0937   115.4451
 91      0.0000     0.0000E+00    0.0000E+00    1.278050E+09  0.00800  2.242E-04    0   0.5907   age138_m52            0.0000     1.5309E+03     7.3899  -0.6761   112.6849
 92      0.0598     3.9665E-02    4.3599E-02    1.434000E+09  0.00800  1.645E-04    0   0.5787   age139_m52            0.0000     1.1930E+03     6.5219  -0.5057   111.9024
 93      0.6397     9.0320E-01    9.4680E-01    2.500000E+09  0.00800  7.723E-05    0   0.5519   age150_m52            0.0000     1.9103E+03     7.5098  -0.8266   107.4448
 94      0.0000     0.0000E+00    0.0000E+00    4.250000E+09  0.00800  4.151E-05    0   0.5320   age158_m52            0.0000     2.3645E+03     7.6927  -0.8897   104.7607
 95      0.0000     0.0000E+00    0.0000E+00    6.250000E+09  0.00800  3.010E-05    0   0.5197   age166_m52            0.0000     3.6381E+03     9.1443  -1.0000   101.9382
 96      0.0000     0.0000E+00    0.0000E+00    7.500000E+09  0.00800  2.467E-05    0   0.5139   age171_m52            0.0000     4.0699E+03     9.6004  -1.0000   100.8962
 97      0.0000     0.0000E+00    0.0000E+00    1.000000E+10  0.00800  1.862E-05    0   0.5054   age181_m52            0.0000     5.6518E+03    11.1442  -1.0000    98.4372
