###################################################################
## OUTPUT of StarlightChains_v04.for    [Cid@UFSC - 01/Apr/2007] ##
###################################################################

## Some input info
NGC2808_b_1.cxt                          [arq_obs]
Base.BC03.S                              [arq_base]
NGC2808_b_1.msk                          [arq_masks]
StCv04.C11.config                        [arq_config]
  150                                    [N_base]
    0                                    [N_YAV_components = # of components with extra extinction!]
    0                                    [i_FitPowerLaw (1/0 = Yes/No)]
-9.99                                    [alpha_PowerLaw]
CCM                                      [red_law_option]
 1.458241                                [q_norm = A(l_norm)/A(V)]

## (Re)Sampling Parameters
 3359.00                                 [l_ini (A)]
 6428.00                                 [l_fin (A)]
    1.00                                 [dl    (A)]     (OBS: dl_cushion =    50.00 A)

## Normalization info
 4020.00                                 [l_norm (A) - for base]
 4010.00                                 [llow_norm (A) - window for f_obs]
 4060.00                                 [lupp_norm (A) - window for f_obs]
3.144042E-14                             [fobs_norm (in input units)]

## S/N
 4730.00                                 [llow_SN (A) - window for S/N]
 4780.00                                 [lupp_SN (A) - window for S/N]
  65.329                                 [S/N in S/N window]
  51.114                                 [S/N in norm. window]
 151.759                                 [S/N_err in S/N window]
 118.738                                 [S/N_err in norm. window]
  1.0000                                 [fscale_chi2]

## etc...
  2147483641                             [idum_orig]
  3069                                   [NOl_eff]
  1275                                   [Nl_eff]
  1794    NSIGMA                         [Ntot_cliped & clip_method]
  1934520                                [Nglobal_steps]
   7                                     [N_chains]
  30                                     [NEX0s_base = N_base in EX0s-fits]
 0   0   1      256   2.0   2.496E+02    [Clip-Bug, RC-Crash & Burn-In warning-flags, n_censored_weights, wei_nsig_threshold & wei_limit]
    73     73.248     73.240      0.008  [idt_all, wdt_TotTime, wdt_UsrTime & wdt_SysTime (sec)]

## Synthesis Results - Best model ##

 2.56961E+00                             [chi2/Nl_eff]
     1.32107                             [adev (%)]

   101.88001                             [sum-of-x (%)]
 7.07005E-14                             [Flux_tot (units of input spectrum!)]
 1.62960E-09                             [Mini_tot (???)]
 8.28926E-10                             [Mcor_tot (???)]

  -5.19                                  [v0_min  (km/s)]
  63.40                                  [vd_min  (km/s)]
 0.5895                                  [AV_min  (mag)]
 0.0000                                  [YAV_min (mag)]

# j     x_j(%)      Mini_j(%)     Mcor_j(%)     age_j(yr)     Z_j      (L/M)_j    YAV?  Mstars   component_j        a/Fe...       SSP_chi2r SSP_adev(%)   SSP_AV   SSP_x(%)
  1      0.0000     0.0000E+00    0.0000E+00    1.000000E+06  0.00010  8.160E-03    0   1.0000   age020_m22            0.0000     3.6923E+02    14.4172   4.0000    84.1501
  2     14.7462     1.3195E-02    2.5941E-02    3.160000E+06  0.00010  4.759E-02    0   1.0000   age045_m22            0.0000     7.0713E+01     5.6482   2.2203    99.4645
  3      2.3171     5.1072E-03    9.6206E-03    5.010000E+06  0.00010  1.932E-02    0   0.9582   age055_m22            0.0000     2.8600E+02    12.7094   2.5232    87.4126
  4      0.0000     0.0000E+00    0.0000E+00    6.610000E+06  0.00010  9.973E-03    0   0.9297   age061_m22            0.0000     3.5657E+02    14.3385   4.0000    86.6756
  5      0.0000     0.0000E+00    0.0000E+00    8.710000E+06  0.00010  7.690E-03    0   0.9030   age067_m22            0.0000     3.3561E+02    13.9574   4.0000    86.9663
  6      0.0000     0.0000E+00    0.0000E+00    1.000000E+07  0.00010  6.375E-03    0   0.8902   age070_m22            0.0000     3.2620E+02    13.7039   4.0000    87.3230
  7      0.0000     0.0000E+00    0.0000E+00    1.445000E+07  0.00010  4.874E-03    0   0.8589   age078_m22            0.0000     2.1661E+02    11.4655   4.0000    87.1591
  8      0.0000     0.0000E+00    0.0000E+00    2.512000E+07  0.00010  4.103E-03    0   0.8174   age090_m22            0.0000     1.2464E+02     8.4906   3.6017    92.8338
  9      0.0000     0.0000E+00    0.0000E+00    4.000000E+07  0.00010  3.654E-03    0   0.7830   age104_m22            0.0000     1.2674E+02     7.2311   3.3126    96.8798
 10      0.0000     0.0000E+00    0.0000E+00    5.500000E+07  0.00010  3.093E-03    0   0.7597   age110_m22            0.0000     1.3586E+02     7.0103   3.2107    98.3233
 11      0.0000     0.0000E+00    0.0000E+00    1.015200E+08  0.00010  2.431E-03    0   0.7138   age116_m22            0.0000     1.7930E+02     7.5305   2.8676   100.9904
 12      0.0000     0.0000E+00    0.0000E+00    1.609000E+08  0.00010  1.319E-03    0   0.6775   age120_m22            0.0000     1.8135E+02     7.3181   2.3843   103.4280
 13      0.0000     0.0000E+00    0.0000E+00    2.861200E+08  0.00010  1.075E-03    0   0.6412   age125_m22            0.0000     3.9703E+02    10.6821   2.4515   106.6242
 14      0.0000     0.0000E+00    0.0000E+00    5.088000E+08  0.00010  7.183E-04    0   0.6083   age130_m22            0.0000     4.7413E+02    11.7446   2.2144   108.4909
 15      0.0000     0.0000E+00    0.0000E+00    9.047900E+08  0.00010  4.524E-04    0   0.5785   age135_m22            0.0000     4.7895E+02    11.8621   2.0111   109.7551
 16      0.0000     0.0000E+00    0.0000E+00    1.278050E+09  0.00010  3.018E-04    0   0.5588   age138_m22            0.0000     2.5091E+02     8.5716   1.4744   108.2126
 17      0.0000     0.0000E+00    0.0000E+00    1.434000E+09  0.00010  2.691E-04    0   0.5532   age139_m22            0.0000     2.0944E+02     7.8499   1.3155   107.7314
 18      0.0000     0.0000E+00    0.0000E+00    2.500000E+09  0.00010  1.582E-04    0   0.5296   age150_m22            0.0000     1.8701E+02     7.5318   1.2063   108.4043
 19      0.0000     0.0000E+00    0.0000E+00    4.250000E+09  0.00010  1.007E-04    0   0.5110   age158_m22            0.0000     1.1304E+02     5.8890   1.0487   106.8986
 20      0.5243     3.2507E-01    3.1857E-01    6.250000E+09  0.00010  6.869E-05    0   0.4985   age166_m22            0.0000     5.9023E+01     4.2571   0.9838   104.3815
 21      0.0000     0.0000E+00    0.0000E+00    7.500000E+09  0.00010  5.873E-05    0   0.4931   age171_m22            0.0000     5.4648E+01     4.1662   0.9737   103.8489
 22      0.0000     0.0000E+00    0.0000E+00    1.000000E+10  0.00010  4.481E-05    0   0.4854   age181_m22            0.0000     5.2037E+01     4.0651   0.9344   103.5056
 23      0.0000     0.0000E+00    0.0000E+00    1.300000E+10  0.00010  3.489E-05    0   0.4791   age193_m22            0.0000     4.5861E+01     3.7978   0.8756   102.9903
 24      0.0000     0.0000E+00    0.0000E+00    1.500000E+10  0.00010  3.035E-05    0   0.4766   age201_m22            0.0000     4.2501E+01     3.6554   0.8353   102.8239
 25      2.4221     4.1093E+00    3.8252E+00    1.800000E+10  0.00010  2.510E-05    0   0.4735   age213_m22            0.0000     3.5157E+01     3.3298   0.7645   102.2612
 26      0.0000     0.0000E+00    0.0000E+00    1.000000E+06  0.00040  8.458E-03    0   1.0000   age020_m32            0.0000     3.7145E+02    14.4218   4.0000    85.1009
 27      0.0000     0.0000E+00    0.0000E+00    3.160000E+06  0.00040  3.973E-02    0   1.0000   age045_m32            0.0000     1.3379E+02     8.8657   3.4989    92.9036
 28      0.0000     0.0000E+00    0.0000E+00    5.010000E+06  0.00040  1.935E-02    0   0.9532   age055_m32            0.0000     2.5143E+02    12.3078   3.7287    87.5066
 29      0.0000     0.0000E+00    0.0000E+00    6.610000E+06  0.00040  1.204E-02    0   0.9243   age061_m32            0.0000     2.7234E+02    12.8005   4.0000    86.3732
 30      0.0000     0.0000E+00    0.0000E+00    8.710000E+06  0.00040  9.433E-03    0   0.9001   age067_m32            0.0000     2.4401E+02    12.1358   4.0000    86.7410
 31      0.0000     0.0000E+00    0.0000E+00    1.000000E+07  0.00040  8.053E-03    0   0.8877   age070_m32            0.0000     2.3362E+02    11.8764   3.9749    86.9861
 32      0.0000     0.0000E+00    0.0000E+00    1.445000E+07  0.00040  7.027E-03    0   0.8578   age078_m32            0.0000     1.6209E+02     9.8717   3.4582    91.6718
 33      0.0000     0.0000E+00    0.0000E+00    2.512000E+07  0.00040  4.707E-03    0   0.8166   age090_m32            0.0000     1.2193E+02     8.0888   3.1628    95.2987
 34      0.0000     0.0000E+00    0.0000E+00    4.000000E+07  0.00040  3.714E-03    0   0.7827   age104_m32            0.0000     1.2027E+02     7.1086   2.9645    98.2493
 35      0.0000     0.0000E+00    0.0000E+00    5.500000E+07  0.00040  2.982E-03    0   0.7593   age110_m32            0.0000     1.3151E+02     7.0214   2.9032    99.3014
 36      0.0000     0.0000E+00    0.0000E+00    1.015200E+08  0.00040  2.188E-03    0   0.7143   age116_m32            0.0000     2.3432E+02     8.3234   2.6393   103.2084
 37      0.0000     0.0000E+00    0.0000E+00    1.609000E+08  0.00040  1.690E-03    0   0.6856   age120_m32            0.0000     3.2795E+02     9.6810   2.4355   105.7325
 38      0.0000     0.0000E+00    0.0000E+00    2.861200E+08  0.00040  1.152E-03    0   0.6509   age125_m32            0.0000     4.1477E+02    10.9358   2.2025   107.8238
 39      0.0000     0.0000E+00    0.0000E+00    5.088000E+08  0.00040  7.331E-04    0   0.6182   age130_m32            0.0000     4.4523E+02    11.3801   2.0340   108.6359
 40      0.0000     0.0000E+00    0.0000E+00    9.047900E+08  0.00040  3.960E-04    0   0.5890   age135_m32            0.0000     2.5626E+02     8.7439   1.5552   107.6841
 41      0.0000     0.0000E+00    0.0000E+00    1.278050E+09  0.00040  2.854E-04    0   0.5687   age138_m32            0.0000     2.1173E+02     7.9936   1.2720   109.3342
 42      0.0000     0.0000E+00    0.0000E+00    1.434000E+09  0.00040  2.531E-04    0   0.5632   age139_m32            0.0000     2.0633E+02     7.8976   1.2113   109.3166
 43      0.0003     8.8563E-05    9.3774E-05    2.500000E+09  0.00040  1.488E-04    0   0.5386   age150_m32            0.0000     1.4555E+02     6.6417   0.9491   107.7341
 44      0.0000     0.0000E+00    0.0000E+00    4.250000E+09  0.00040  9.082E-05    0   0.5199   age158_m32            0.0000     5.3677E+01     3.9821   0.8399   104.7276
 45      7.7959     5.2182E+00    5.2073E+00    6.250000E+09  0.00040  6.362E-05    0   0.5076   age166_m32            0.0000     1.9864E+01     2.5364   0.7921   101.5679
 46     20.3749     1.6405E+01    1.6212E+01    7.500000E+09  0.00040  5.289E-05    0   0.5027   age171_m32            0.0000     1.5363E+01     2.3093   0.7509   100.4122
 47     17.0785     1.8310E+01    1.7811E+01    1.000000E+10  0.00040  3.972E-05    0   0.4948   age181_m32            0.0000     1.2078E+01     2.1197   0.6832    99.1453
 48      0.0029     3.8256E-03    3.6627E-03    1.300000E+10  0.00040  3.283E-05    0   0.4870   age193_m32            0.0000     1.9968E+01     2.4862   0.6431   101.7261
 49      0.0000     0.0000E+00    0.0000E+00    1.500000E+10  0.00040  2.925E-05    0   0.4854   age201_m32            0.0000     3.0691E+01     3.0421   0.6279   103.2145
 50      0.0000     0.0000E+00    0.0000E+00    1.800000E+10  0.00040  2.469E-05    0   0.4819   age213_m32            0.0000     3.5489E+01     3.2679   0.5881   103.7039
 51      0.0000     0.0000E+00    0.0000E+00    1.000000E+06  0.00400  1.114E-02    0   1.0000   age020_m42            0.0000     3.2712E+02    13.7022   4.0000    84.5188
 52      0.0000     0.0000E+00    0.0000E+00    3.160000E+06  0.00400  4.073E-02    0   0.9999   age045_m42            0.0000     9.3906E+01     7.1168   3.1994    95.4537
 53      0.0000     0.0000E+00    0.0000E+00    5.010000E+06  0.00400  2.534E-02    0   0.9488   age055_m42            0.0000     1.6748E+02    10.2075   3.5980    89.5788
 54      0.0000     0.0000E+00    0.0000E+00    6.610000E+06  0.00400  2.583E-02    0   0.9220   age061_m42            0.0000     9.7372E+01     6.8513   3.0170    96.0151
 55      0.0000     0.0000E+00    0.0000E+00    8.710000E+06  0.00400  1.706E-02    0   0.8983   age067_m42            0.0000     1.1951E+02     8.3130   2.8411    94.3966
 56      0.0000     0.0000E+00    0.0000E+00    1.000000E+07  0.00400  1.271E-02    0   0.8862   age070_m42            0.0000     1.6020E+02     9.8754   2.8307    93.0299
 57      0.0000     0.0000E+00    0.0000E+00    1.445000E+07  0.00400  7.666E-03    0   0.8571   age078_m42            0.0000     1.9336E+02    10.9037   3.2231    90.1322
 58      0.0000     0.0000E+00    0.0000E+00    2.512000E+07  0.00400  5.070E-03    0   0.8174   age090_m42            0.0000     1.3552E+02     9.1728   2.6918    94.7950
 59      0.0000     0.0000E+00    0.0000E+00    4.000000E+07  0.00400  3.505E-03    0   0.7851   age104_m42            0.0000     8.8438E+01     7.2883   2.3651    97.7718
 60      0.0000     0.0000E+00    0.0000E+00    5.500000E+07  0.00400  3.059E-03    0   0.7629   age110_m42            0.0000     1.0871E+02     6.0300   2.4264   101.8389
 61      0.0000     0.0000E+00    0.0000E+00    1.015200E+08  0.00400  2.268E-03    0   0.7207   age116_m42            0.0000     2.8407E+02     8.8058   2.3428   106.5005
 62      0.0000     0.0000E+00    0.0000E+00    1.609000E+08  0.00400  1.720E-03    0   0.6930   age120_m42            0.0000     3.0983E+02     9.2181   2.1980   108.1935
 63      0.0000     0.0000E+00    0.0000E+00    2.861200E+08  0.00400  1.079E-03    0   0.6613   age125_m42            0.0000     3.1700E+02     9.4730   1.8426   108.8274
 64      0.0000     0.0000E+00    0.0000E+00    5.088000E+08  0.00400  6.261E-04    0   0.6313   age130_m42            0.0000     3.6177E+02    10.1572   1.6512   111.6262
 65      0.0000     0.0000E+00    0.0000E+00    9.047900E+08  0.00400  3.535E-04    0   0.6024   age135_m42            0.0000     2.2095E+02     7.9669   1.2387   112.1174
 66      0.0000     0.0000E+00    0.0000E+00    1.278050E+09  0.00400  2.677E-04    0   0.5837   age138_m42            0.0000     8.8506E+01     5.9004   0.5206   110.1177
 67      0.0000     0.0000E+00    0.0000E+00    1.434000E+09  0.00400  1.910E-04    0   0.5716   age139_m42            0.0000     1.0895E+02     6.1367   0.6947   110.8906
 68      5.5703     2.4161E+00    2.5948E+00    2.500000E+09  0.00400  9.818E-05    0   0.5463   age150_m42            0.0000     3.7057E+01     4.0811   0.4023   106.4914
 69      0.0071     5.5393E-03    5.7378E-03    4.250000E+09  0.00400  5.491E-05    0   0.5269   age158_m42            0.0000     3.0179E+01     3.8509   0.2737   103.8074
 70      0.0000     0.0000E+00    0.0000E+00    6.250000E+09  0.00400  3.857E-05    0   0.5151   age166_m42            0.0000     4.5575E+01     4.5633   0.1389   102.5375
 71      2.0429     2.6826E+00    2.6949E+00    7.500000E+09  0.00400  3.243E-05    0   0.5110   age171_m42            0.0000     5.9337E+01     5.0927   0.0559   102.0236
 72      1.4285     2.5095E+00    2.4806E+00    1.000000E+10  0.00400  2.424E-05    0   0.5028   age181_m42            0.0000     8.0562E+01     5.8151  -0.0289   101.4552
 73      0.0000     0.0000E+00    0.0000E+00    1.300000E+10  0.00400  1.883E-05    0   0.4927   age193_m42            0.0000     9.8136E+01     6.3705  -0.0705   101.1844
 74      0.0000     0.0000E+00    0.0000E+00    1.500000E+10  0.00400  1.685E-05    0   0.4919   age201_m42            0.0000     9.2570E+01     6.2040  -0.0644   101.1923
 75      0.0000     0.0000E+00    0.0000E+00    1.800000E+10  0.00400  1.452E-05    0   0.4874   age213_m42            0.0000     8.2804E+01     5.9074  -0.0467   101.4385
 76      0.0000     0.0000E+00    0.0000E+00    1.000000E+06  0.00800  1.286E-02    0   1.0000   age020_m52            0.0000     2.8341E+02    12.9408   4.0000    86.0070
 77      0.0000     0.0000E+00    0.0000E+00    3.160000E+06  0.00800  3.147E-02    0   0.9966   age045_m52            0.0000     2.6007E+02    12.5316   4.0000    86.1591
 78      0.0000     0.0000E+00    0.0000E+00    5.010000E+06  0.00800  2.664E-02    0   0.9443   age055_m52            0.0000     1.9259E+02    10.8971   3.7118    88.7305
 79      0.0000     0.0000E+00    0.0000E+00    6.610000E+06  0.00800  2.151E-02    0   0.9177   age061_m52            0.0000     1.0927E+02     8.3675   2.4049    95.1551
 80      0.0000     0.0000E+00    0.0000E+00    8.710000E+06  0.00800  1.628E-02    0   0.8948   age067_m52            0.0000     1.3035E+02     8.9172   2.7872    95.1049
 81      0.0000     0.0000E+00    0.0000E+00    1.000000E+07  0.00800  1.215E-02    0   0.8827   age070_m52            0.0000     1.5992E+02     9.9167   3.1273    93.2547
 82      0.0000     0.0000E+00    0.0000E+00    1.445000E+07  0.00800  8.739E-03    0   0.8552   age078_m52            0.0000     1.4403E+02     9.1481   3.1705    94.3512
 83      0.0000     0.0000E+00    0.0000E+00    2.512000E+07  0.00800  5.676E-03    0   0.8162   age090_m52            0.0000     1.3970E+02     8.0001   2.7804    98.6411
 84      0.0000     0.0000E+00    0.0000E+00    4.000000E+07  0.00800  3.939E-03    0   0.7841   age104_m52            0.0000     1.4126E+02     7.2939   2.6201   101.0147
 85      0.0000     0.0000E+00    0.0000E+00    5.500000E+07  0.00800  3.155E-03    0   0.7627   age110_m52            0.0000     1.6119E+02     7.1020   2.5876   102.6716
 86      0.0000     0.0000E+00    0.0000E+00    1.015200E+08  0.00800  2.206E-03    0   0.7226   age116_m52            0.0000     2.2962E+02     7.9038   2.3985   106.3755
 87      0.0000     0.0000E+00    0.0000E+00    1.609000E+08  0.00800  1.596E-03    0   0.6963   age120_m52            0.0000     2.6790E+02     8.5982   2.1811   108.1098
 88      0.0000     0.0000E+00    0.0000E+00    2.861200E+08  0.00800  1.002E-03    0   0.6665   age125_m52            0.0000     3.8028E+02    10.5313   1.8782   111.0907
 89      0.0000     0.0000E+00    0.0000E+00    5.088000E+08  0.00800  5.759E-04    0   0.6377   age130_m52            0.0000     3.9723E+02    11.1076   1.5160   115.3766
 90      0.0000     0.0000E+00    0.0000E+00    9.047900E+08  0.00800  2.972E-04    0   0.6086   age135_m52            0.0000     2.2104E+02     8.7128   0.9505   114.8693
 91      0.0000     0.0000E+00    0.0000E+00    1.278050E+09  0.00800  2.242E-04    0   0.5907   age138_m52            0.0000     9.9964E+01     6.3053   0.3243   113.5622
 92      0.0000     0.0000E+00    0.0000E+00    1.434000E+09  0.00800  1.645E-04    0   0.5787   age139_m52            0.0000     8.2886E+01     5.6531   0.4757   112.9085
 93      0.0022     1.2347E-03    1.3397E-03    2.500000E+09  0.00800  7.723E-05    0   0.5519   age150_m52            0.0000     6.4382E+01     5.3533   0.1228   109.2715
 94      9.1466     9.3834E+00    9.8137E+00    4.250000E+09  0.00800  4.151E-05    0   0.5320   age158_m52            0.0000     6.3551E+01     5.3520   0.0485   106.7539
 95      3.0502     4.3153E+00    4.4089E+00    6.250000E+09  0.00800  3.010E-05    0   0.5197   age166_m52            0.0000     9.9201E+01     6.4402  -0.1558   105.4793
 96      2.5020     4.3188E+00    4.3633E+00    7.500000E+09  0.00800  2.467E-05    0   0.5139   age171_m52            0.0000     1.1090E+02     6.7497  -0.2002   105.1037
 97      2.8652     6.5528E+00    6.5107E+00    1.000000E+10  0.00800  1.862E-05    0   0.5054   age181_m52            0.0000     1.4990E+02     7.7028  -0.3403   104.8388
