###################################################################
## OUTPUT of StarlightChains_v04.for    [Cid@UFSC - 01/Apr/2007] ##
###################################################################

## Some input info
NGC2298_b_1.cxt                          [arq_obs]
Base.BC03.S                              [arq_base]
NGC2298_b_1.msk                          [arq_masks]
StCv04.C11.config                        [arq_config]
  150                                    [N_base]
    0                                    [N_YAV_components = # of components with extra extinction!]
    0                                    [i_FitPowerLaw (1/0 = Yes/No)]
-9.99                                    [alpha_PowerLaw]
CCM                                      [red_law_option]
 1.458241                                [q_norm = A(l_norm)/A(V)]

## (Re)Sampling Parameters
 3359.00                                 [l_ini (A)]
 6428.00                                 [l_fin (A)]
    1.00                                 [dl    (A)]     (OBS: dl_cushion =    50.00 A)

## Normalization info
 4020.00                                 [l_norm (A) - for base]
 4010.00                                 [llow_norm (A) - window for f_obs]
 4060.00                                 [lupp_norm (A) - window for f_obs]
6.358602E-15                             [fobs_norm (in input units)]

## S/N
 4730.00                                 [llow_SN (A) - window for S/N]
 4780.00                                 [lupp_SN (A) - window for S/N]
 100.550                                 [S/N in S/N window]
  93.926                                 [S/N in norm. window]
 257.092                                 [S/N_err in S/N window]
 240.154                                 [S/N_err in norm. window]
  1.0000                                 [fscale_chi2]

## etc...
  2147483643                             [idum_orig]
  3065                                   [NOl_eff]
  1079                                   [Nl_eff]
  1986    NSIGMA                         [Ntot_cliped & clip_method]
  1502620                                [Nglobal_steps]
   7                                     [N_chains]
  16                                     [NEX0s_base = N_base in EX0s-fits]
 0   0   1      257   2.0   5.053E+02    [Clip-Bug, RC-Crash & Burn-In warning-flags, n_censored_weights, wei_nsig_threshold & wei_limit]
    90     89.856     89.848      0.008  [idt_all, wdt_TotTime, wdt_UsrTime & wdt_SysTime (sec)]

## Synthesis Results - Best model ##

 2.59718E+00                             [chi2/Nl_eff]
     0.64663                             [adev (%)]

   100.33623                             [sum-of-x (%)]
 1.72441E-14                             [Flux_tot (units of input spectrum!)]
 2.24851E-10                             [Mini_tot (???)]
 1.11101E-10                             [Mcor_tot (???)]

 -17.98                                  [v0_min  (km/s)]
  67.87                                  [vd_min  (km/s)]
 0.7403                                  [AV_min  (mag)]
 0.0000                                  [YAV_min (mag)]

# j     x_j(%)      Mini_j(%)     Mcor_j(%)     age_j(yr)     Z_j      (L/M)_j    YAV?  Mstars   component_j        a/Fe...       SSP_chi2r SSP_adev(%)   SSP_AV   SSP_x(%)
  1      0.0000     0.0000E+00    0.0000E+00    1.000000E+06  0.00010  8.160E-03    0   1.0000   age020_m22            0.0000     1.1619E+03    10.9119   3.7501    77.0062
  2     21.6854     3.4829E-02    7.0488E-02    3.160000E+06  0.00010  4.759E-02    0   1.0000   age045_m22            0.0000     1.0146E+02     3.2388   1.7398    96.3306
  3      0.0000     0.0000E+00    0.0000E+00    5.010000E+06  0.00010  1.932E-02    0   0.9582   age055_m22            0.0000     1.0275E+03    10.8068   2.0518    83.4541
  4      0.0000     0.0000E+00    0.0000E+00    6.610000E+06  0.00010  9.973E-03    0   0.9297   age061_m22            0.0000     1.1215E+03    11.1636   3.7118    79.9231
  5      0.0000     0.0000E+00    0.0000E+00    8.710000E+06  0.00010  7.690E-03    0   0.9030   age067_m22            0.0000     1.0576E+03    10.8347   3.7044    80.3174
  6      0.0000     0.0000E+00    0.0000E+00    1.000000E+07  0.00010  6.375E-03    0   0.8902   age070_m22            0.0000     1.0085E+03    10.5553   3.7177    80.4781
  7      0.0000     0.0000E+00    0.0000E+00    1.445000E+07  0.00010  4.874E-03    0   0.8589   age078_m22            0.0000     7.2078E+02     8.9473   3.5359    83.2076
  8      0.0000     0.0000E+00    0.0000E+00    2.512000E+07  0.00010  4.103E-03    0   0.8174   age090_m22            0.0000     2.6197E+02     5.6267   3.1255    89.4539
  9      0.8669     1.8133E-02    2.8735E-02    4.000000E+07  0.00010  3.654E-03    0   0.7830   age104_m22            0.0000     1.0583E+02     3.4062   2.8256    94.1285
 10      1.3454     3.3248E-02    5.1119E-02    5.500000E+07  0.00010  3.093E-03    0   0.7597   age110_m22            0.0000     9.3380E+01     3.0175   2.7237    95.6577
 11      4.0917     1.2865E-01    1.8585E-01    1.015200E+08  0.00010  2.431E-03    0   0.7138   age116_m22            0.0000     1.3417E+02     3.1512   2.3739    98.6124
 12      0.0000     0.0000E+00    0.0000E+00    1.609000E+08  0.00010  1.319E-03    0   0.6775   age120_m22            0.0000     1.3109E+02     2.8803   1.8988   100.7498
 13      0.0000     0.0000E+00    0.0000E+00    2.861200E+08  0.00010  1.075E-03    0   0.6412   age125_m22            0.0000     5.8647E+02     6.8274   1.9623   104.3599
 14      0.0000     0.0000E+00    0.0000E+00    5.088000E+08  0.00010  7.183E-04    0   0.6083   age130_m22            0.0000     7.8861E+02     8.0749   1.7311   106.0645
 15      0.0000     0.0000E+00    0.0000E+00    9.047900E+08  0.00010  4.524E-04    0   0.5785   age135_m22            0.0000     8.1067E+02     8.2629   1.5284   107.2753
 16      0.0000     0.0000E+00    0.0000E+00    1.278050E+09  0.00010  3.018E-04    0   0.5588   age138_m22            0.0000     3.1190E+02     5.2823   0.9943   105.4721
 17      0.0000     0.0000E+00    0.0000E+00    1.434000E+09  0.00010  2.691E-04    0   0.5532   age139_m22            0.0000     2.3883E+02     4.6922   0.8385   104.8659
 18      0.0000     0.0000E+00    0.0000E+00    2.500000E+09  0.00010  1.582E-04    0   0.5296   age150_m22            0.0000     1.7616E+02     3.8862   0.7266   105.5614
 19      0.0000     0.0000E+00    0.0000E+00    4.250000E+09  0.00010  1.007E-04    0   0.5110   age158_m22            0.0000     6.2892E+01     2.4708   0.5753   103.7579
 20      0.0000     0.0000E+00    0.0000E+00    6.250000E+09  0.00010  6.869E-05    0   0.4985   age166_m22            0.0000     1.5752E+01     1.3793   0.5183   100.9046
 21      0.2591     3.3726E-01    3.3657E-01    7.500000E+09  0.00010  5.873E-05    0   0.4931   age171_m22            0.0000     1.1348E+01     1.1340   0.5070   100.3693
 22      0.3478     5.9327E-01    5.8281E-01    1.000000E+10  0.00010  4.481E-05    0   0.4854   age181_m22            0.0000     1.1832E+01     1.1518   0.4691    99.9870
 23      0.3500     7.6683E-01    7.4353E-01    1.300000E+10  0.00010  3.489E-05    0   0.4791   age193_m22            0.0000     1.4299E+01     1.2573   0.4125    99.4055
 24      3.5572     8.9586E+00    8.6411E+00    1.500000E+10  0.00010  3.035E-05    0   0.4766   age201_m22            0.0000     1.5551E+01     1.2963   0.3737    99.1922
 25     10.0783     3.0690E+01    2.9410E+01    1.800000E+10  0.00010  2.510E-05    0   0.4735   age213_m22            0.0000     2.0636E+01     1.4149   0.3056    98.5392
 26      0.0000     0.0000E+00    0.0000E+00    1.000000E+06  0.00040  8.458E-03    0   1.0000   age020_m32            0.0000     1.1392E+03    10.9164   3.7643    77.7081
 27      0.0000     0.0000E+00    0.0000E+00    3.160000E+06  0.00040  3.973E-02    0   1.0000   age045_m32            0.0000     3.0303E+02     6.0268   3.0207    89.5542
 28      0.0000     0.0000E+00    0.0000E+00    5.010000E+06  0.00040  1.935E-02    0   0.9532   age055_m32            0.0000     8.1641E+02     9.7529   3.2536    83.7767
 29      0.0000     0.0000E+00    0.0000E+00    6.610000E+06  0.00040  1.204E-02    0   0.9243   age061_m32            0.0000     9.1457E+02    10.1274   3.5706    81.8204
 30      0.0000     0.0000E+00    0.0000E+00    8.710000E+06  0.00040  9.433E-03    0   0.9001   age067_m32            0.0000     8.0881E+02     9.5336   3.5410    82.7018
 31      0.0000     0.0000E+00    0.0000E+00    1.000000E+07  0.00040  8.053E-03    0   0.8877   age070_m32            0.0000     7.6788E+02     9.2928   3.5048    83.1420
 32      0.0000     0.0000E+00    0.0000E+00    1.445000E+07  0.00040  7.027E-03    0   0.8578   age078_m32            0.0000     4.1732E+02     7.1036   2.9763    88.2838
 33      0.0000     0.0000E+00    0.0000E+00    2.512000E+07  0.00040  4.707E-03    0   0.8166   age090_m32            0.0000     2.0555E+02     5.1049   2.6799    92.1012
 34      0.0000     0.0000E+00    0.0000E+00    4.000000E+07  0.00040  3.714E-03    0   0.7827   age104_m32            0.0000     9.3437E+01     3.2679   2.4752    95.4393
 35      0.1142     2.9275E-03    4.4987E-03    5.500000E+07  0.00040  2.982E-03    0   0.7593   age110_m32            0.0000     8.1751E+01     2.7917   2.4131    96.6190
 36      1.6019     5.5961E-02    8.0898E-02    1.015200E+08  0.00040  2.188E-03    0   0.7143   age116_m32            0.0000     2.3291E+02     4.0689   2.1464   100.9033
 37      0.0000     0.0000E+00    0.0000E+00    1.609000E+08  0.00040  1.690E-03    0   0.6856   age120_m32            0.0000     4.2356E+02     5.4860   1.9408   103.6183
 38      0.0000     0.0000E+00    0.0000E+00    2.861200E+08  0.00040  1.152E-03    0   0.6509   age125_m32            0.0000     6.3956E+02     7.1888   1.7147   105.5299
 39      0.0000     0.0000E+00    0.0000E+00    5.088000E+08  0.00040  7.331E-04    0   0.6182   age130_m32            0.0000     7.3266E+02     7.8535   1.5493   106.2302
 40      0.0000     0.0000E+00    0.0000E+00    9.047900E+08  0.00040  3.960E-04    0   0.5890   age135_m32            0.0000     3.5340E+02     5.9016   1.0848   104.6961
 41      0.0000     0.0000E+00    0.0000E+00    1.278050E+09  0.00040  2.854E-04    0   0.5687   age138_m32            0.0000     2.2958E+02     4.5761   0.7929   106.4841
 42      0.0000     0.0000E+00    0.0000E+00    1.434000E+09  0.00040  2.531E-04    0   0.5632   age139_m32            0.0000     2.1900E+02     4.4102   0.7322   106.4706
 43     26.6592     1.3694E+01    1.4927E+01    2.500000E+09  0.00040  1.488E-04    0   0.5386   age150_m32            0.0000     1.3163E+02     3.5377   0.4759   104.7096
 44     17.2678     1.4533E+01    1.5291E+01    4.250000E+09  0.00040  9.082E-05    0   0.5199   age158_m32            0.0000     2.9481E+01     1.9301   0.3791   101.1529
 45      2.5961     3.1190E+00    3.2041E+00    6.250000E+09  0.00040  6.362E-05    0   0.5076   age166_m32            0.0000     5.7903E+01     1.9718   0.3413    97.5409
 46      0.0000     0.0000E+00    0.0000E+00    7.500000E+09  0.00040  5.289E-05    0   0.5027   age171_m32            0.0000     8.0625E+01     2.2788   0.3054    96.2421
 47      0.0000     0.0000E+00    0.0000E+00    1.000000E+10  0.00040  3.972E-05    0   0.4948   age181_m32            0.0000     1.0338E+02     2.6133   0.2429    94.8673
 48      3.1557     7.3470E+00    7.2413E+00    1.300000E+10  0.00040  3.283E-05    0   0.4870   age193_m32            0.0000     5.3570E+01     2.2033   0.1985    97.6184
 49      0.0000     0.0000E+00    0.0000E+00    1.500000E+10  0.00040  2.925E-05    0   0.4854   age201_m32            0.0000     4.0096E+01     2.1213   0.1801    99.2235
 50      6.3594     1.9687E+01    1.9201E+01    1.800000E+10  0.00040  2.469E-05    0   0.4819   age213_m32            0.0000     4.0958E+01     2.2217   0.1403    99.7329
 51      0.0000     0.0000E+00    0.0000E+00    1.000000E+06  0.00400  1.114E-02    0   1.0000   age020_m42            0.0000     1.0910E+03    10.6097   3.6938    78.1001
 52      0.0000     0.0000E+00    0.0000E+00    3.160000E+06  0.00400  4.073E-02    0   0.9999   age045_m42            0.0000     1.7884E+02     4.4884   2.7214    92.2083
 53      0.0000     0.0000E+00    0.0000E+00    5.010000E+06  0.00400  2.534E-02    0   0.9488   age055_m42            0.0000     5.1666E+02     7.5631   3.1285    85.9016
 54      0.0000     0.0000E+00    0.0000E+00    6.610000E+06  0.00400  2.583E-02    0   0.9220   age061_m42            0.0000     1.2087E+02     3.7511   2.5337    93.0429
 55      0.0000     0.0000E+00    0.0000E+00    8.710000E+06  0.00400  1.706E-02    0   0.8983   age067_m42            0.0000     2.6849E+02     5.6954   2.3606    91.1097
 56      0.0000     0.0000E+00    0.0000E+00    1.000000E+07  0.00400  1.271E-02    0   0.8862   age070_m42            0.0000     4.4019E+02     7.4712   2.3482    89.6376
 57      0.0000     0.0000E+00    0.0000E+00    1.445000E+07  0.00400  7.666E-03    0   0.8571   age078_m42            0.0000     6.1615E+02     8.3653   2.7516    86.3695
 58      0.0000     0.0000E+00    0.0000E+00    2.512000E+07  0.00400  5.070E-03    0   0.8174   age090_m42            0.0000     3.6933E+02     6.7635   2.2172    91.1940
 59      0.0000     0.0000E+00    0.0000E+00    4.000000E+07  0.00400  3.505E-03    0   0.7851   age104_m42            0.0000     2.0009E+02     4.7443   1.8979    94.0632
 60      0.0000     0.0000E+00    0.0000E+00    5.500000E+07  0.00400  3.059E-03    0   0.7629   age110_m42            0.0000     5.9869E+01     2.1843   1.9513    98.7099
 61      0.0000     0.0000E+00    0.0000E+00    1.015200E+08  0.00400  2.268E-03    0   0.7207   age116_m42            0.0000     3.6128E+02     5.3555   1.8581   103.9898
 62      0.0000     0.0000E+00    0.0000E+00    1.609000E+08  0.00400  1.720E-03    0   0.6930   age120_m42            0.0000     4.3249E+02     6.1161   1.7161   105.6464
 63      0.0000     0.0000E+00    0.0000E+00    2.861200E+08  0.00400  1.079E-03    0   0.6613   age125_m42            0.0000     4.5314E+02     6.2802   1.3657   105.9406
 64      0.0000     0.0000E+00    0.0000E+00    5.088000E+08  0.00400  6.261E-04    0   0.6313   age130_m42            0.0000     5.4588E+02     6.7984   1.1729   108.7177
 65      0.0000     0.0000E+00    0.0000E+00    9.047900E+08  0.00400  3.535E-04    0   0.6024   age135_m42            0.0000     2.9350E+02     5.3904   0.7741   108.6397
 66      0.0000     0.0000E+00    0.0000E+00    1.278050E+09  0.00400  2.677E-04    0   0.5837   age138_m42            0.0000     2.7174E+02     5.9903   0.1020   105.0118
 67      0.0000     0.0000E+00    0.0000E+00    1.434000E+09  0.00400  1.910E-04    0   0.5716   age139_m42            0.0000     2.4365E+02     5.7025   0.2630   106.2878
 68      0.0000     0.0000E+00    0.0000E+00    2.500000E+09  0.00400  9.818E-05    0   0.5463   age150_m42            0.0000     3.0889E+02     5.8138   0.0039   100.8778
 69      0.0000     0.0000E+00    0.0000E+00    4.250000E+09  0.00400  5.491E-05    0   0.5269   age158_m42            0.0000     3.8962E+02     6.1318  -0.1114    97.7942
 70      0.0000     0.0000E+00    0.0000E+00    6.250000E+09  0.00400  3.857E-05    0   0.5151   age166_m42            0.0000     5.1139E+02     6.9025  -0.2299    96.1150
 71      0.0000     0.0000E+00    0.0000E+00    7.500000E+09  0.00400  3.243E-05    0   0.5110   age171_m42            0.0000     5.9244E+02     7.3940  -0.3031    95.3616
 72      0.0000     0.0000E+00    0.0000E+00    1.000000E+10  0.00400  2.424E-05    0   0.5028   age181_m42            0.0000     7.0477E+02     8.0002  -0.3753    94.4664
 73      0.0000     0.0000E+00    0.0000E+00    1.300000E+10  0.00400  1.883E-05    0   0.4927   age193_m42            0.0000     7.9030E+02     8.4224  -0.4095    93.9612
 74      0.0000     0.0000E+00    0.0000E+00    1.500000E+10  0.00400  1.685E-05    0   0.4919   age201_m42            0.0000     7.6575E+02     8.2919  -0.4052    94.0320
 75      0.0000     0.0000E+00    0.0000E+00    1.800000E+10  0.00400  1.452E-05    0   0.4874   age213_m42            0.0000     7.2024E+02     8.0720  -0.3925    94.4139
 76      0.0000     0.0000E+00    0.0000E+00    1.000000E+06  0.00800  1.286E-02    0   1.0000   age020_m52            0.0000     9.4544E+02     9.9853   3.6718    79.8549
 77      0.0000     0.0000E+00    0.0000E+00    3.160000E+06  0.00800  3.147E-02    0   0.9966   age045_m52            0.0000     8.8877E+02     9.7913   3.5825    81.4052
 78      0.0000     0.0000E+00    0.0000E+00    5.010000E+06  0.00800  2.664E-02    0   0.9443   age055_m52            0.0000     6.1767E+02     8.1241   3.2491    84.8024
 79      0.0000     0.0000E+00    0.0000E+00    6.610000E+06  0.00800  2.151E-02    0   0.9177   age061_m52            0.0000     3.8869E+02     6.2884   1.9431    91.0294
 80      0.0000     0.0000E+00    0.0000E+00    8.710000E+06  0.00800  1.628E-02    0   0.8948   age067_m52            0.0000     3.2793E+02     6.1988   2.3186    91.4538
 81      0.0000     0.0000E+00    0.0000E+00    1.000000E+07  0.00800  1.215E-02    0   0.8827   age070_m52            0.0000     4.1630E+02     6.9929   2.6621    89.6069
 82      0.0000     0.0000E+00    0.0000E+00    1.445000E+07  0.00800  8.739E-03    0   0.8552   age078_m52            0.0000     3.0790E+02     5.9823   2.7014    90.9200
 83      0.0000     0.0000E+00    0.0000E+00    2.512000E+07  0.00800  5.676E-03    0   0.8162   age090_m52            0.0000     1.5649E+02     4.3260   2.3016    95.7264
 84      0.0000     0.0000E+00    0.0000E+00    4.000000E+07  0.00800  3.939E-03    0   0.7841   age104_m52            0.0000     1.0039E+02     2.9645   2.1390    98.2313
 85      0.0000     0.0000E+00    0.0000E+00    5.500000E+07  0.00800  3.155E-03    0   0.7627   age110_m52            0.0000     1.1023E+02     2.5267   2.1057    99.9290
 86      0.0000     0.0000E+00    0.0000E+00    1.015200E+08  0.00800  2.206E-03    0   0.7226   age116_m52            0.0000     2.3890E+02     4.2963   1.9143   103.7713
 87      0.0000     0.0000E+00    0.0000E+00    1.609000E+08  0.00800  1.596E-03    0   0.6963   age120_m52            0.0000     3.2731E+02     5.3047   1.6992   105.4175
 88      0.0000     0.0000E+00    0.0000E+00    2.861200E+08  0.00800  1.002E-03    0   0.6665   age125_m52            0.0000     6.2938E+02     7.6749   1.4078   108.0463
 89      0.0000     0.0000E+00    0.0000E+00    5.088000E+08  0.00800  5.759E-04    0   0.6377   age130_m52            0.0000     7.5141E+02     8.7010   1.0597   111.7918
 90      0.0000     0.0000E+00    0.0000E+00    9.047900E+08  0.00800  2.972E-04    0   0.6086   age135_m52            0.0000     5.2614E+02     7.9251   0.5242   110.1236
 91      0.0000     0.0000E+00    0.0000E+00    1.278050E+09  0.00800  2.242E-04    0   0.5907   age138_m52            0.0000     4.6247E+02     7.4520  -0.0738   107.7264
 92      0.0000     0.0000E+00    0.0000E+00    1.434000E+09  0.00800  1.645E-04    0   0.5787   age139_m52            0.0000     3.8549E+02     6.8204   0.0739   107.2371
 93      0.0000     0.0000E+00    0.0000E+00    2.500000E+09  0.00800  7.723E-05    0   0.5519   age150_m52            0.0000     5.4390E+02     7.5242  -0.2482   102.6832
 94      0.0000     0.0000E+00    0.0000E+00    4.250000E+09  0.00800  4.151E-05    0   0.5320   age158_m52            0.0000     6.0180E+02     7.6107  -0.3114    99.9355
 95      0.0000     0.0000E+00    0.0000E+00    6.250000E+09  0.00800  3.010E-05    0   0.5197   age166_m52            0.0000     8.0858E+02     8.6559  -0.4934    98.0587
 96      0.0000     0.0000E+00    0.0000E+00    7.500000E+09  0.00800  2.467E-05    0   0.5139   age171_m52            0.0000     8.6501E+02     8.9405  -0.5322    97.5438
 97      0.0000     0.0000E+00    0.0000E+00    1.000000E+10  0.00800  1.862E-05    0   0.5054   age181_m52            0.0000     1.0433E+03     9.8309  -0.6551    96.8375
