###################################################################
## OUTPUT of StarlightChains_v04.for    [Cid@UFSC - 01/Apr/2007] ##
###################################################################

## Some input info
NGC2808_a_1.cxt                          [arq_obs]
Base.BC03.S                              [arq_base]
NGC2808_a_1.msk                          [arq_masks]
StCv04.C11.config                        [arq_config]
  150                                    [N_base]
    0                                    [N_YAV_components = # of components with extra extinction!]
    0                                    [i_FitPowerLaw (1/0 = Yes/No)]
-9.99                                    [alpha_PowerLaw]
CCM                                      [red_law_option]
 1.458241                                [q_norm = A(l_norm)/A(V)]

## (Re)Sampling Parameters
 3359.00                                 [l_ini (A)]
 6428.00                                 [l_fin (A)]
    1.00                                 [dl    (A)]     (OBS: dl_cushion =    50.00 A)

## Normalization info
 4020.00                                 [l_norm (A) - for base]
 4010.00                                 [llow_norm (A) - window for f_obs]
 4060.00                                 [lupp_norm (A) - window for f_obs]
8.660000E-14                             [fobs_norm (in input units)]

## S/N
 4730.00                                 [llow_SN (A) - window for S/N]
 4780.00                                 [lupp_SN (A) - window for S/N]
  64.505                                 [S/N in S/N window]
  51.490                                 [S/N in norm. window]
 409.712                                 [S/N_err in S/N window]
 327.043                                 [S/N_err in norm. window]
  1.0000                                 [fscale_chi2]

## etc...
  2147483642                             [idum_orig]
  3069                                   [NOl_eff]
   654                                   [Nl_eff]
  2415    NSIGMA                         [Ntot_cliped & clip_method]
  1892240                                [Nglobal_steps]
   7                                     [N_chains]
  20                                     [NEX0s_base = N_base in EX0s-fits]
 0   0   1      258   2.0   6.880E+02    [Clip-Bug, RC-Crash & Burn-In warning-flags, n_censored_weights, wei_nsig_threshold & wei_limit]
    96     96.029     96.001      0.028  [idt_all, wdt_TotTime, wdt_UsrTime & wdt_SysTime (sec)]

## Synthesis Results - Best model ##

 2.91443E+00                             [chi2/Nl_eff]
     0.58986                             [adev (%)]

   100.89117                             [sum-of-x (%)]
 1.99110E-13                             [Flux_tot (units of input spectrum!)]
 4.74499E-09                             [Mini_tot (???)]
 2.38762E-09                             [Mcor_tot (???)]

 -10.41                                  [v0_min  (km/s)]
  50.71                                  [vd_min  (km/s)]
 0.6133                                  [AV_min  (mag)]
 0.0000                                  [YAV_min (mag)]

# j     x_j(%)      Mini_j(%)     Mcor_j(%)     age_j(yr)     Z_j      (L/M)_j    YAV?  Mstars   component_j        a/Fe...       SSP_chi2r SSP_adev(%)   SSP_AV   SSP_x(%)
  1      0.0000     0.0000E+00    0.0000E+00    1.000000E+06  0.00010  8.160E-03    0   1.0000   age020_m22            0.0000     2.2891E+03    13.9997   4.0000    81.4980
  2     17.0911     1.4937E-02    2.9684E-02    3.160000E+06  0.00010  4.759E-02    0   1.0000   age045_m22            0.0000     4.3305E+02     5.6429   2.1582    98.4224
  3      0.0000     0.0000E+00    0.0000E+00    5.010000E+06  0.00010  1.932E-02    0   0.9582   age055_m22            0.0000     2.1079E+03    13.0694   2.4383    85.4237
  4      0.0000     0.0000E+00    0.0000E+00    6.610000E+06  0.00010  9.973E-03    0   0.9297   age061_m22            0.0000     2.3445E+03    14.1385   4.0000    83.7717
  5      0.0000     0.0000E+00    0.0000E+00    8.710000E+06  0.00010  7.690E-03    0   0.9030   age067_m22            0.0000     2.2006E+03    13.7914   4.0000    84.0755
  6      0.0000     0.0000E+00    0.0000E+00    1.000000E+07  0.00010  6.375E-03    0   0.8902   age070_m22            0.0000     2.1206E+03    13.5412   4.0000    84.5432
  7      0.0000     0.0000E+00    0.0000E+00    1.445000E+07  0.00010  4.874E-03    0   0.8589   age078_m22            0.0000     1.4834E+03    11.7393   3.9342    85.1264
  8      0.0000     0.0000E+00    0.0000E+00    2.512000E+07  0.00010  4.103E-03    0   0.8174   age090_m22            0.0000     8.0914E+02     8.9016   3.5359    91.4428
  9      0.0000     0.0000E+00    0.0000E+00    4.000000E+07  0.00010  3.654E-03    0   0.7830   age104_m22            0.0000     7.7859E+02     7.5847   3.2477    96.0771
 10      0.0000     0.0000E+00    0.0000E+00    5.500000E+07  0.00010  3.093E-03    0   0.7597   age110_m22            0.0000     8.4028E+02     7.3670   3.1504    97.6071
 11      0.0000     0.0000E+00    0.0000E+00    1.015200E+08  0.00010  2.431E-03    0   0.7138   age116_m22            0.0000     1.1166E+03     7.8230   2.8019   100.6486
 12      0.0000     0.0000E+00    0.0000E+00    1.609000E+08  0.00010  1.319E-03    0   0.6775   age120_m22            0.0000     1.1012E+03     7.3743   2.3222   103.1215
 13      0.0000     0.0000E+00    0.0000E+00    2.861200E+08  0.00010  1.075E-03    0   0.6412   age125_m22            0.0000     2.5408E+03    10.7831   2.4095   106.3208
 14      0.0000     0.0000E+00    0.0000E+00    5.088000E+08  0.00010  7.183E-04    0   0.6083   age130_m22            0.0000     3.0421E+03    11.7495   2.1797   108.1161
 15      0.0000     0.0000E+00    0.0000E+00    9.047900E+08  0.00010  4.524E-04    0   0.5785   age135_m22            0.0000     3.0622E+03    11.7440   1.9733   109.4932
 16      0.0000     0.0000E+00    0.0000E+00    1.278050E+09  0.00010  3.018E-04    0   0.5588   age138_m22            0.0000     1.5621E+03     8.2197   1.4214   108.1926
 17      0.0000     0.0000E+00    0.0000E+00    1.434000E+09  0.00010  2.691E-04    0   0.5532   age139_m22            0.0000     1.2948E+03     7.4514   1.2602   107.7552
 18      0.0000     0.0000E+00    0.0000E+00    2.500000E+09  0.00010  1.582E-04    0   0.5296   age150_m22            0.0000     1.1399E+03     7.0210   1.1410   108.5939
 19      0.0000     0.0000E+00    0.0000E+00    4.250000E+09  0.00010  1.007E-04    0   0.5110   age158_m22            0.0000     6.6573E+02     5.3892   0.9829   106.9471
 20      0.0000     0.0000E+00    0.0000E+00    6.250000E+09  0.00010  6.869E-05    0   0.4985   age166_m22            0.0000     3.3264E+02     3.8562   0.9212   104.1766
 21      0.0000     0.0000E+00    0.0000E+00    7.500000E+09  0.00010  5.873E-05    0   0.4931   age171_m22            0.0000     3.0728E+02     3.7910   0.9076   103.6432
 22      0.0000     0.0000E+00    0.0000E+00    1.000000E+10  0.00010  4.481E-05    0   0.4854   age181_m22            0.0000     2.9152E+02     3.7120   0.8692   103.2683
 23      0.0000     0.0000E+00    0.0000E+00    1.300000E+10  0.00010  3.489E-05    0   0.4791   age193_m22            0.0000     2.5221E+02     3.4519   0.8116   102.7223
 24      0.2668     3.6563E-01    3.4631E-01    1.500000E+10  0.00010  3.035E-05    0   0.4766   age201_m22            0.0000     2.2987E+02     3.3009   0.7715   102.5537
 25      2.4671     4.0881E+00    3.8469E+00    1.800000E+10  0.00010  2.510E-05    0   0.4735   age213_m22            0.0000     1.8252E+02     2.9515   0.7015   101.9592
 26      0.0000     0.0000E+00    0.0000E+00    1.000000E+06  0.00040  8.458E-03    0   1.0000   age020_m32            0.0000     2.3289E+03    14.0074   4.0000    82.5042
 27      0.0000     0.0000E+00    0.0000E+00    3.160000E+06  0.00040  3.973E-02    0   1.0000   age045_m32            0.0000     8.7385E+02     9.1534   3.4331    91.4493
 28      0.0000     0.0000E+00    0.0000E+00    5.010000E+06  0.00040  1.935E-02    0   0.9532   age055_m32            0.0000     1.7747E+03    12.6749   3.6488    85.6126
 29      0.0000     0.0000E+00    0.0000E+00    6.610000E+06  0.00040  1.204E-02    0   0.9243   age061_m32            0.0000     1.8811E+03    12.9053   3.9653    83.6531
 30      0.0000     0.0000E+00    0.0000E+00    8.710000E+06  0.00040  9.433E-03    0   0.9001   age067_m32            0.0000     1.6884E+03    12.3738   3.9379    84.5710
 31      0.0000     0.0000E+00    0.0000E+00    1.000000E+07  0.00040  8.053E-03    0   0.8877   age070_m32            0.0000     1.6154E+03    12.1696   3.9018    85.0385
 32      0.0000     0.0000E+00    0.0000E+00    1.445000E+07  0.00040  7.027E-03    0   0.8578   age078_m32            0.0000     1.1119E+03    10.4109   3.3792    90.2499
 33      0.0000     0.0000E+00    0.0000E+00    2.512000E+07  0.00040  4.707E-03    0   0.8166   age090_m32            0.0000     8.0394E+02     8.6429   3.0864    94.2120
 34      0.0000     0.0000E+00    0.0000E+00    4.000000E+07  0.00040  3.714E-03    0   0.7827   age104_m32            0.0000     7.5367E+02     7.4861   2.8905    97.5504
 35      0.0000     0.0000E+00    0.0000E+00    5.500000E+07  0.00040  2.982E-03    0   0.7593   age110_m32            0.0000     8.1582E+02     7.3280   2.8315    98.7199
 36      0.0000     0.0000E+00    0.0000E+00    1.015200E+08  0.00040  2.188E-03    0   0.7143   age116_m32            0.0000     1.4623E+03     8.5379   2.5794   102.9592
 37      0.0000     0.0000E+00    0.0000E+00    1.609000E+08  0.00040  1.690E-03    0   0.6856   age120_m32            0.0000     2.0969E+03     9.8101   2.3835   105.6108
 38      0.0000     0.0000E+00    0.0000E+00    2.861200E+08  0.00040  1.152E-03    0   0.6509   age125_m32            0.0000     2.6627E+03    10.9501   2.1633   107.5156
 39      0.0000     0.0000E+00    0.0000E+00    5.088000E+08  0.00040  7.331E-04    0   0.6182   age130_m32            0.0000     2.8568E+03    11.3414   1.9970   108.3215
 40      0.0000     0.0000E+00    0.0000E+00    9.047900E+08  0.00040  3.960E-04    0   0.5890   age135_m32            0.0000     1.6044E+03     8.5295   1.5137   107.4493
 41      0.0000     0.0000E+00    0.0000E+00    1.278050E+09  0.00040  2.854E-04    0   0.5687   age138_m32            0.0000     1.2895E+03     7.4965   1.2099   109.5321
 42      0.0000     0.0000E+00    0.0000E+00    1.434000E+09  0.00040  2.531E-04    0   0.5632   age139_m32            0.0000     1.2593E+03     7.3857   1.1478   109.5532
 43      0.0000     0.0000E+00    0.0000E+00    2.500000E+09  0.00040  1.488E-04    0   0.5386   age150_m32            0.0000     8.9381E+02     6.1760   0.8875   107.9005
 44      0.0000     0.0000E+00    0.0000E+00    4.250000E+09  0.00040  9.082E-05    0   0.5199   age158_m32            0.0000     3.0271E+02     3.5556   0.7805   104.5716
 45     11.2580     7.3599E+00    7.4244E+00    6.250000E+09  0.00040  6.362E-05    0   0.5076   age166_m32            0.0000     8.7984E+01     2.0501   0.7336   101.0766
 46     23.4113     1.8410E+01    1.8392E+01    7.500000E+09  0.00040  5.289E-05    0   0.5027   age171_m32            0.0000     6.1746E+01     1.8029   0.6961    99.7976
 47     17.5511     1.8378E+01    1.8072E+01    1.000000E+10  0.00040  3.972E-05    0   0.4948   age181_m32            0.0000     4.3519E+01     1.6049   0.6326    98.4369
 48      0.1126     1.4262E-01    1.3803E-01    1.300000E+10  0.00040  3.283E-05    0   0.4870   age193_m32            0.0000     8.6427E+01     1.9471   0.5919   101.2362
 49      0.0445     6.3296E-02    6.1058E-02    1.500000E+10  0.00040  2.925E-05    0   0.4854   age201_m32            0.0000     1.4956E+02     2.5636   0.5761   102.8532
 50      0.1648     2.7767E-01    2.6592E-01    1.800000E+10  0.00040  2.469E-05    0   0.4819   age213_m32            0.0000     1.7833E+02     2.8033   0.5370   103.3964
 51      0.0000     0.0000E+00    0.0000E+00    1.000000E+06  0.00400  1.114E-02    0   1.0000   age020_m42            0.0000     2.0666E+03    13.4234   4.0000    81.6120
 52      0.0000     0.0000E+00    0.0000E+00    3.160000E+06  0.00400  4.073E-02    0   0.9999   age045_m42            0.0000     5.9209E+02     7.2650   3.1456    93.9882
 53      0.0000     0.0000E+00    0.0000E+00    5.010000E+06  0.00400  2.534E-02    0   0.9488   age055_m42            0.0000     1.1120E+03    10.4479   3.5336    87.8338
 54      0.0000     0.0000E+00    0.0000E+00    6.610000E+06  0.00400  2.583E-02    0   0.9220   age061_m42            0.0000     5.9449E+02     7.1024   2.9549    95.0000
 55      0.0000     0.0000E+00    0.0000E+00    8.710000E+06  0.00400  1.706E-02    0   0.8983   age067_m42            0.0000     7.8607E+02     8.8314   2.7671    93.2792
 56      0.0000     0.0000E+00    0.0000E+00    1.000000E+07  0.00400  1.271E-02    0   0.8862   age070_m42            0.0000     1.1122E+03    10.6646   2.7488    91.8258
 57      0.0000     0.0000E+00    0.0000E+00    1.445000E+07  0.00400  7.666E-03    0   0.8571   age078_m42            0.0000     1.3381E+03    11.5328   3.1474    88.5639
 58      0.0000     0.0000E+00    0.0000E+00    2.512000E+07  0.00400  5.070E-03    0   0.8174   age090_m42            0.0000     9.3916E+02     9.9345   2.6178    93.5496
 59      0.0000     0.0000E+00    0.0000E+00    4.000000E+07  0.00400  3.505E-03    0   0.7851   age104_m42            0.0000     5.7724E+02     7.7251   2.3044    96.5469
 60      0.0000     0.0000E+00    0.0000E+00    5.500000E+07  0.00400  3.059E-03    0   0.7629   age110_m42            0.0000     6.2413E+02     5.9500   2.3711   101.1830
 61      0.0000     0.0000E+00    0.0000E+00    1.015200E+08  0.00400  2.268E-03    0   0.7207   age116_m42            0.0000     1.7838E+03     8.8778   2.2957   106.3481
 62      0.0000     0.0000E+00    0.0000E+00    1.609000E+08  0.00400  1.720E-03    0   0.6930   age120_m42            0.0000     1.9747E+03     9.4239   2.1619   107.9180
 63      0.0000     0.0000E+00    0.0000E+00    2.861200E+08  0.00400  1.079E-03    0   0.6613   age125_m42            0.0000     1.9599E+03     9.4225   1.8005   108.7277
 64      0.0000     0.0000E+00    0.0000E+00    5.088000E+08  0.00400  6.261E-04    0   0.6313   age130_m42            0.0000     2.2192E+03     9.8582   1.5955   112.0739
 65      0.0000     0.0000E+00    0.0000E+00    9.047900E+08  0.00400  3.535E-04    0   0.6024   age135_m42            0.0000     1.2950E+03     7.5708   1.1794   112.7126
 66      0.0000     0.0000E+00    0.0000E+00    1.278050E+09  0.00400  2.677E-04    0   0.5837   age138_m42            0.0000     5.3826E+02     6.1597   0.4855   110.3070
 67      0.0000     0.0000E+00    0.0000E+00    1.434000E+09  0.00400  1.910E-04    0   0.5716   age139_m42            0.0000     6.6240E+02     6.2164   0.6628   110.9444
 68      0.0000     0.0000E+00    0.0000E+00    2.500000E+09  0.00400  9.818E-05    0   0.5463   age150_m42            0.0000     2.8339E+02     4.6842   0.3943   105.7416
 69      0.0000     0.0000E+00    0.0000E+00    4.250000E+09  0.00400  5.491E-05    0   0.5269   age158_m42            0.0000     2.6882E+02     4.4521   0.2702   102.8522
 70      3.6438     3.9292E+00    4.0222E+00    6.250000E+09  0.00400  3.857E-05    0   0.5151   age166_m42            0.0000     4.1387E+02     5.2116   0.1473   101.3763
 71      0.9181     1.1775E+00    1.1958E+00    7.500000E+09  0.00400  3.243E-05    0   0.5110   age171_m42            0.0000     5.3155E+02     5.7733   0.0714   100.7647
 72      0.0000     0.0000E+00    0.0000E+00    1.000000E+10  0.00400  2.424E-05    0   0.5028   age181_m42            0.0000     7.0590E+02     6.5332  -0.0061   100.1029
 73      0.0000     0.0000E+00    0.0000E+00    1.300000E+10  0.00400  1.883E-05    0   0.4927   age193_m42            0.0000     8.4765E+02     7.1051  -0.0455    99.8095
 74      0.0000     0.0000E+00    0.0000E+00    1.500000E+10  0.00400  1.685E-05    0   0.4919   age201_m42            0.0000     8.0656E+02     6.9180  -0.0396    99.8143
 75      0.0000     0.0000E+00    0.0000E+00    1.800000E+10  0.00400  1.452E-05    0   0.4874   age213_m42            0.0000     7.3263E+02     6.5998  -0.0231   100.0730
 76      0.0000     0.0000E+00    0.0000E+00    1.000000E+06  0.00800  1.286E-02    0   1.0000   age020_m52            0.0000     1.8326E+03    12.7286   4.0000    83.0525
 77      0.0000     0.0000E+00    0.0000E+00    3.160000E+06  0.00800  3.147E-02    0   0.9966   age045_m52            0.0000     1.7623E+03    12.5359   3.9785    83.2608
 78      0.0000     0.0000E+00    0.0000E+00    5.010000E+06  0.00800  2.664E-02    0   0.9443   age055_m52            0.0000     1.2955E+03    11.1229   3.6499    86.7906
 79      0.0000     0.0000E+00    0.0000E+00    6.610000E+06  0.00800  2.151E-02    0   0.9177   age061_m52            0.0000     7.7556E+02     8.7180   2.3451    93.5474
 80      0.0000     0.0000E+00    0.0000E+00    8.710000E+06  0.00800  1.628E-02    0   0.8948   age067_m52            0.0000     8.6164E+02     9.3684   2.7251    93.7169
 81      0.0000     0.0000E+00    0.0000E+00    1.000000E+07  0.00800  1.215E-02    0   0.8827   age070_m52            0.0000     1.0473E+03    10.3293   3.0693    91.6989
 82      0.0000     0.0000E+00    0.0000E+00    1.445000E+07  0.00800  8.739E-03    0   0.8552   age078_m52            0.0000     8.8852E+02     9.4240   3.1113    93.0093
 83      0.0000     0.0000E+00    0.0000E+00    2.512000E+07  0.00800  5.676E-03    0   0.8162   age090_m52            0.0000     7.9757E+02     8.0508   2.7169    97.8910
 84      0.0000     0.0000E+00    0.0000E+00    4.000000E+07  0.00800  3.939E-03    0   0.7841   age104_m52            0.0000     7.9189E+02     7.1299   2.5588   100.4293
 85      0.0000     0.0000E+00    0.0000E+00    5.500000E+07  0.00800  3.155E-03    0   0.7627   age110_m52            0.0000     9.1917E+02     6.9730   2.5278   102.2223
 86      0.0000     0.0000E+00    0.0000E+00    1.015200E+08  0.00800  2.206E-03    0   0.7226   age116_m52            0.0000     1.3866E+03     7.8009   2.3488   106.1275
 87      0.0000     0.0000E+00    0.0000E+00    1.609000E+08  0.00800  1.596E-03    0   0.6963   age120_m52            0.0000     1.6450E+03     8.4815   2.1359   107.9367
 88      0.0000     0.0000E+00    0.0000E+00    2.861200E+08  0.00800  1.002E-03    0   0.6665   age125_m52            0.0000     2.3951E+03    10.6370   1.8485   110.8958
 89      0.0000     0.0000E+00    0.0000E+00    5.088000E+08  0.00800  5.759E-04    0   0.6377   age130_m52            0.0000     2.5415E+03    11.2027   1.4968   115.2503
 90      0.0000     0.0000E+00    0.0000E+00    9.047900E+08  0.00800  2.972E-04    0   0.6086   age135_m52            0.0000     1.4456E+03     9.0011   0.9432   114.5432
 91      0.0000     0.0000E+00    0.0000E+00    1.278050E+09  0.00800  2.242E-04    0   0.5907   age138_m52            0.0000     7.1235E+02     6.9619   0.3175   113.2383
 92      0.0000     0.0000E+00    0.0000E+00    1.434000E+09  0.00800  1.645E-04    0   0.5787   age139_m52            0.0000     5.8577E+02     6.2571   0.4691   112.4301
 93      0.0000     0.0000E+00    0.0000E+00    2.500000E+09  0.00800  7.723E-05    0   0.5519   age150_m52            0.0000     5.5600E+02     6.3872   0.1326   108.3683
 94      9.4581     9.4767E+00    1.0019E+01    4.250000E+09  0.00800  4.151E-05    0   0.5320   age158_m52            0.0000     5.7284E+02     6.3262   0.0665   105.5776
 95      2.4719     3.4156E+00    3.5277E+00    6.250000E+09  0.00800  3.010E-05    0   0.5197   age166_m52            0.0000     8.7329E+02     7.5095  -0.1243   104.1161
 96      2.0791     3.5051E+00    3.5797E+00    7.500000E+09  0.00800  2.467E-05    0   0.5139   age171_m52            0.0000     9.6618E+02     7.8557  -0.1668   103.7439
 97      2.6454     5.9091E+00    5.9351E+00    1.000000E+10  0.00800  1.862E-05    0   0.5054   age181_m52            0.0000     1.2815E+03     8.9632  -0.2963   103.3707
