###################################################################
## OUTPUT of StarlightChains_v04.for    [Cid@UFSC - 01/Apr/2007] ##
###################################################################

## Some input info
NGC2298_a_1.cxt                          [arq_obs]
Base.BC03.S                              [arq_base]
NGC2298_a_1.msk                          [arq_masks]
StCv04.C11.config                        [arq_config]
  150                                    [N_base]
    0                                    [N_YAV_components = # of components with extra extinction!]
    0                                    [i_FitPowerLaw (1/0 = Yes/No)]
-9.99                                    [alpha_PowerLaw]
CCM                                      [red_law_option]
 1.458241                                [q_norm = A(l_norm)/A(V)]

## (Re)Sampling Parameters
 3359.00                                 [l_ini (A)]
 6428.00                                 [l_fin (A)]
    1.00                                 [dl    (A)]     (OBS: dl_cushion =    50.00 A)

## Normalization info
 4020.00                                 [l_norm (A) - for base]
 4010.00                                 [llow_norm (A) - window for f_obs]
 4060.00                                 [lupp_norm (A) - window for f_obs]
3.712074E-15                             [fobs_norm (in input units)]

## S/N
 4730.00                                 [llow_SN (A) - window for S/N]
 4780.00                                 [lupp_SN (A) - window for S/N]
  81.814                                 [S/N in S/N window]
  72.947                                 [S/N in norm. window]
 157.218                                 [S/N_err in S/N window]
 140.180                                 [S/N_err in norm. window]
  1.0000                                 [fscale_chi2]

## etc...
  2147483644                             [idum_orig]
  3065                                   [NOl_eff]
  1259                                   [Nl_eff]
  1806    NSIGMA                         [Ntot_cliped & clip_method]
  1174950                                [Nglobal_steps]
   7                                     [N_chains]
  15                                     [NEX0s_base = N_base in EX0s-fits]
 0   0   1      150   2.0   3.200E+02    [Clip-Bug, RC-Crash & Burn-In warning-flags, n_censored_weights, wei_nsig_threshold & wei_limit]
    62     61.903     61.903      0.000  [idt_all, wdt_TotTime, wdt_UsrTime & wdt_SysTime (sec)]

## Synthesis Results - Best model ##

 2.47895E+00                             [chi2/Nl_eff]
     1.20510                             [adev (%)]

   102.13190                             [sum-of-x (%)]
 9.17142E-15                             [Flux_tot (units of input spectrum!)]
 9.09980E-11                             [Mini_tot (???)]
 4.68431E-11                             [Mcor_tot (???)]

 -11.78                                  [v0_min  (km/s)]
  65.67                                  [vd_min  (km/s)]
 0.6577                                  [AV_min  (mag)]
 0.0000                                  [YAV_min (mag)]

# j     x_j(%)      Mini_j(%)     Mcor_j(%)     age_j(yr)     Z_j      (L/M)_j    YAV?  Mstars   component_j        a/Fe...       SSP_chi2r SSP_adev(%)   SSP_AV   SSP_x(%)
  1      0.0000     0.0000E+00    0.0000E+00    1.000000E+06  0.00010  8.160E-03    0   1.0000   age020_m22            0.0000     3.8832E+02    12.5915   3.7835    80.6116
  2     16.6302     3.4485E-02    6.6990E-02    3.160000E+06  0.00010  4.759E-02    0   1.0000   age045_m22            0.0000     4.4100E+01     4.4212   1.8147    98.5791
  3      0.0000     0.0000E+00    0.0000E+00    5.010000E+06  0.00010  1.932E-02    0   0.9582   age055_m22            0.0000     3.4197E+02    12.2147   2.0856    87.2424
  4      0.0000     0.0000E+00    0.0000E+00    6.610000E+06  0.00010  9.973E-03    0   0.9297   age061_m22            0.0000     3.7003E+02    12.5731   3.7406    83.8415
  5      0.0000     0.0000E+00    0.0000E+00    8.710000E+06  0.00010  7.690E-03    0   0.9030   age067_m22            0.0000     3.4904E+02    12.2044   3.7346    84.1846
  6      0.0000     0.0000E+00    0.0000E+00    1.000000E+07  0.00010  6.375E-03    0   0.8902   age070_m22            0.0000     3.3203E+02    11.8664   3.7524    84.2328
  7      0.0000     0.0000E+00    0.0000E+00    1.445000E+07  0.00010  4.874E-03    0   0.8589   age078_m22            0.0000     2.4155E+02    10.2259   3.5765    86.7531
  8      0.0000     0.0000E+00    0.0000E+00    2.512000E+07  0.00010  4.103E-03    0   0.8174   age090_m22            0.0000     9.6920E+01     6.8972   3.1840    92.3838
  9      0.0000     0.0000E+00    0.0000E+00    4.000000E+07  0.00010  3.654E-03    0   0.7830   age104_m22            0.0000     4.4248E+01     4.2875   2.9032    96.3371
 10      0.0000     0.0000E+00    0.0000E+00    5.500000E+07  0.00010  3.093E-03    0   0.7597   age110_m22            0.0000     3.5681E+01     3.4955   2.8064    97.6298
 11      0.0000     9.7052E-08    1.3458E-07    1.015200E+08  0.00010  2.431E-03    0   0.7138   age116_m22            0.0000     4.4094E+01     3.2161   2.4648   100.2941
 12      0.0000     0.0000E+00    0.0000E+00    1.609000E+08  0.00010  1.319E-03    0   0.6775   age120_m22            0.0000     4.6314E+01     3.0340   1.9897   102.4444
 13      0.0000     0.0000E+00    0.0000E+00    2.861200E+08  0.00010  1.075E-03    0   0.6412   age125_m22            0.0000     1.7433E+02     6.1780   2.0696   105.2740
 14      0.0000     0.0000E+00    0.0000E+00    5.088000E+08  0.00010  7.183E-04    0   0.6083   age130_m22            0.0000     2.3417E+02     7.5222   1.8440   106.7043
 15      0.0000     0.0000E+00    0.0000E+00    9.047900E+08  0.00010  4.524E-04    0   0.5785   age135_m22            0.0000     2.4040E+02     7.7708   1.6444   107.8231
 16      0.0000     0.0000E+00    0.0000E+00    1.278050E+09  0.00010  3.018E-04    0   0.5588   age138_m22            0.0000     9.3261E+01     4.8415   1.1052   106.2288
 17      0.0000     0.0000E+00    0.0000E+00    1.434000E+09  0.00010  2.691E-04    0   0.5532   age139_m22            0.0000     7.0314E+01     4.2813   0.9477   105.6693
 18      0.0000     0.0000E+00    0.0000E+00    2.500000E+09  0.00010  1.582E-04    0   0.5296   age150_m22            0.0000     5.3455E+01     3.6379   0.8325   106.5543
 19      0.0000     0.0000E+00    0.0000E+00    4.250000E+09  0.00010  1.007E-04    0   0.5110   age158_m22            0.0000     1.9403E+01     2.3132   0.6732   105.0619
 20      0.0083     1.1919E-02    1.1543E-02    6.250000E+09  0.00010  6.869E-05    0   0.4985   age166_m22            0.0000     4.1081E+00     1.3401   0.6085   102.5078
 21      0.0173     2.9075E-02    2.7851E-02    7.500000E+09  0.00010  5.873E-05    0   0.4931   age171_m22            0.0000     3.8474E+00     1.2966   0.5953   102.0669
 22      0.0000     0.0000E+00    0.0000E+00    1.000000E+10  0.00010  4.481E-05    0   0.4854   age181_m22            0.0000     3.6632E+00     1.2890   0.5563   101.6973
 23      1.1675     3.3022E+00    3.0734E+00    1.300000E+10  0.00010  3.489E-05    0   0.4791   age193_m22            0.0000     3.5997E+00     1.3180   0.4986   101.1250
 24      0.7011     2.2797E+00    2.1107E+00    1.500000E+10  0.00010  3.035E-05    0   0.4766   age201_m22            0.0000     3.7734E+00     1.3549   0.4586   100.9349
 25      0.4951     1.9464E+00    1.7903E+00    1.800000E+10  0.00010  2.510E-05    0   0.4735   age213_m22            0.0000     4.8365E+00     1.4965   0.3883   100.3375
 26      0.0000     0.0000E+00    0.0000E+00    1.000000E+06  0.00040  8.458E-03    0   1.0000   age020_m32            0.0000     3.7713E+02    12.4657   3.7990    81.3515
 27      0.0000     0.0000E+00    0.0000E+00    3.160000E+06  0.00040  3.973E-02    0   1.0000   age045_m32            0.0000     1.1266E+02     7.4449   3.0788    92.5423
 28      0.0000     0.0000E+00    0.0000E+00    5.010000E+06  0.00040  1.935E-02    0   0.9532   age055_m32            0.0000     2.7781E+02    11.2323   3.2942    87.4263
 29      0.0000     0.0000E+00    0.0000E+00    6.610000E+06  0.00040  1.204E-02    0   0.9243   age061_m32            0.0000     3.0563E+02    11.5407   3.6053    85.5864
 30      0.0000     0.0000E+00    0.0000E+00    8.710000E+06  0.00040  9.433E-03    0   0.9001   age067_m32            0.0000     2.7174E+02    10.9169   3.5802    86.3472
 31      0.0000     0.0000E+00    0.0000E+00    1.000000E+07  0.00040  8.053E-03    0   0.8877   age070_m32            0.0000     2.5868E+02    10.6708   3.5455    86.7484
 32      0.0000     0.0000E+00    0.0000E+00    1.445000E+07  0.00040  7.027E-03    0   0.8578   age078_m32            0.0000     1.5108E+02     8.5294   3.0325    91.4475
 33      0.0000     0.0000E+00    0.0000E+00    2.512000E+07  0.00040  4.707E-03    0   0.8166   age090_m32            0.0000     8.1576E+01     6.3829   2.7443    94.9047
 34      0.0000     0.0000E+00    0.0000E+00    4.000000E+07  0.00040  3.714E-03    0   0.7827   age104_m32            0.0000     4.2331E+01     4.2909   2.5543    97.6886
 35      0.0000     0.0000E+00    0.0000E+00    5.500000E+07  0.00040  2.982E-03    0   0.7593   age110_m32            0.0000     3.5668E+01     3.6293   2.4958    98.6883
 36      0.0000     0.0000E+00    0.0000E+00    1.015200E+08  0.00040  2.188E-03    0   0.7143   age116_m32            0.0000     6.9328E+01     3.6361   2.2432   102.3152
 37      0.3768     2.2000E-02    2.9300E-02    1.609000E+08  0.00040  1.690E-03    0   0.6856   age120_m32            0.0000     1.2184E+02     4.8224   2.0445   104.7030
 38      0.0000     0.0000E+00    0.0000E+00    2.861200E+08  0.00040  1.152E-03    0   0.6509   age125_m32            0.0000     1.8880E+02     6.5612   1.8248   106.2869
 39      0.0000     0.0000E+00    0.0000E+00    5.088000E+08  0.00040  7.331E-04    0   0.6182   age130_m32            0.0000     2.1573E+02     7.2995   1.6630   106.8227
 40      0.0000     0.0000E+00    0.0000E+00    9.047900E+08  0.00040  3.960E-04    0   0.5890   age135_m32            0.0000     1.0334E+02     5.3607   1.1958   105.4085
 41      0.0000     0.0000E+00    0.0000E+00    1.278050E+09  0.00040  2.854E-04    0   0.5687   age138_m32            0.0000     6.9292E+01     4.1795   0.8994   107.4351
 42      0.0000     0.0000E+00    0.0000E+00    1.434000E+09  0.00040  2.531E-04    0   0.5632   age139_m32            0.0000     6.5545E+01     4.0628   0.8390   107.4047
 43     16.6395     1.1035E+01    1.1546E+01    2.500000E+09  0.00040  1.488E-04    0   0.5386   age150_m32            0.0000     3.6008E+01     3.1640   0.5797   105.6672
 44     57.6013     6.2588E+01    6.3212E+01    4.250000E+09  0.00040  9.082E-05    0   0.5199   age158_m32            0.0000     5.1924E+00     1.5723   0.4689   102.6319
 45      0.0085     1.3208E-02    1.3024E-02    6.250000E+09  0.00040  6.362E-05    0   0.5076   age166_m32            0.0000     1.3367E+01     2.1242   0.4155    99.6152
 46      3.8041     7.0977E+00    6.9313E+00    7.500000E+09  0.00040  5.289E-05    0   0.5027   age171_m32            0.0000     1.8982E+01     2.4058   0.3766    98.3856
 47      4.6694     1.1601E+01    1.1151E+01    1.000000E+10  0.00040  3.972E-05    0   0.4948   age181_m32            0.0000     2.4589E+01     2.6523   0.3134    96.9750
 48      0.0128     3.8591E-02    3.6509E-02    1.300000E+10  0.00040  3.283E-05    0   0.4870   age193_m32            0.0000     1.0899E+01     2.0468   0.2752    99.4982
 49      0.0000     0.0000E+00    0.0000E+00    1.500000E+10  0.00040  2.925E-05    0   0.4854   age201_m32            0.0000     7.6639E+00     1.8623   0.2608   100.9654
 50      0.0000     0.0000E+00    0.0000E+00    1.800000E+10  0.00040  2.469E-05    0   0.4819   age213_m32            0.0000     8.1450E+00     1.9273   0.2220   101.4136
 51      0.0000     0.0000E+00    0.0000E+00    1.000000E+06  0.00400  1.114E-02    0   1.0000   age020_m42            0.0000     3.6120E+02    12.1510   3.7273    81.7679
 52      0.0000     0.0000E+00    0.0000E+00    3.160000E+06  0.00400  4.073E-02    0   0.9999   age045_m42            0.0000     6.8846E+01     5.7676   2.7872    94.8115
 53      0.0000     0.0000E+00    0.0000E+00    5.010000E+06  0.00400  2.534E-02    0   0.9488   age055_m42            0.0000     1.8035E+02     9.0051   3.1763    89.2159
 54      0.0000     0.0000E+00    0.0000E+00    6.610000E+06  0.00400  2.583E-02    0   0.9220   age061_m42            0.0000     5.1726E+01     4.9557   2.6068    95.3959
 55      0.0000     0.0000E+00    0.0000E+00    8.710000E+06  0.00400  1.706E-02    0   0.8983   age067_m42            0.0000     1.0444E+02     7.1084   2.4227    93.9621
 56      0.0000     0.0000E+00    0.0000E+00    1.000000E+07  0.00400  1.271E-02    0   0.8862   age070_m42            0.0000     1.6232E+02     8.9170   2.4044    92.7913
 57      0.0000     0.0000E+00    0.0000E+00    1.445000E+07  0.00400  7.666E-03    0   0.8571   age078_m42            0.0000     2.1570E+02     9.7900   2.7968    89.8491
 58      0.0000     0.0000E+00    0.0000E+00    2.512000E+07  0.00400  5.070E-03    0   0.8174   age090_m42            0.0000     1.3522E+02     8.1803   2.2706    94.4026
 59      0.0000     0.0000E+00    0.0000E+00    4.000000E+07  0.00400  3.505E-03    0   0.7851   age104_m42            0.0000     7.5490E+01     6.1414   1.9541    97.0568
 60      0.0000     0.0000E+00    0.0000E+00    5.500000E+07  0.00400  3.059E-03    0   0.7629   age110_m42            0.0000     2.5791E+01     3.0270   2.0267   100.8581
 61      0.0000     0.0000E+00    0.0000E+00    1.015200E+08  0.00400  2.268E-03    0   0.7207   age116_m42            0.0000     1.0453E+02     4.6422   1.9563   105.2088
 62      0.0000     0.0000E+00    0.0000E+00    1.609000E+08  0.00400  1.720E-03    0   0.6930   age120_m42            0.0000     1.2429E+02     5.3708   1.8180   106.6977
 63      0.0000     0.0000E+00    0.0000E+00    2.861200E+08  0.00400  1.079E-03    0   0.6613   age125_m42            0.0000     1.4035E+02     5.7929   1.4694   106.9362
 64      0.0000     0.0000E+00    0.0000E+00    5.088000E+08  0.00400  6.261E-04    0   0.6313   age130_m42            0.0000     1.6646E+02     6.3782   1.2794   109.6491
 65      0.0000     0.0000E+00    0.0000E+00    9.047900E+08  0.00400  3.535E-04    0   0.6024   age135_m42            0.0000     9.1082E+01     5.0454   0.8723   109.8095
 66      0.0000     0.0000E+00    0.0000E+00    1.278050E+09  0.00400  2.677E-04    0   0.5837   age138_m42            0.0000     8.4003E+01     5.6385   0.1856   106.3856
 67      0.0000     0.0000E+00    0.0000E+00    1.434000E+09  0.00400  1.910E-04    0   0.5716   age139_m42            0.0000     7.1580E+01     5.2438   0.3523   107.5362
 68      0.0000     0.0000E+00    0.0000E+00    2.500000E+09  0.00400  9.818E-05    0   0.5463   age150_m42            0.0000     8.4967E+01     5.4387   0.0735   102.6565
 69      0.0000     0.0000E+00    0.0000E+00    4.250000E+09  0.00400  5.491E-05    0   0.5269   age158_m42            0.0000     1.0980E+02     5.8886  -0.0526    99.8930
 70      0.0000     0.0000E+00    0.0000E+00    6.250000E+09  0.00400  3.857E-05    0   0.5151   age166_m42            0.0000     1.4802E+02     6.6685  -0.1766    98.2818
 71      0.0000     0.0000E+00    0.0000E+00    7.500000E+09  0.00400  3.243E-05    0   0.5110   age171_m42            0.0000     1.7431E+02     7.1452  -0.2516    97.5173
 72      0.0000     0.0000E+00    0.0000E+00    1.000000E+10  0.00400  2.424E-05    0   0.5028   age181_m42            0.0000     2.1110E+02     7.7478  -0.3273    96.6568
 73      0.0000     0.0000E+00    0.0000E+00    1.300000E+10  0.00400  1.883E-05    0   0.4927   age193_m42            0.0000     2.3976E+02     8.1872  -0.3644    96.2160
 74      0.0000     0.0000E+00    0.0000E+00    1.500000E+10  0.00400  1.685E-05    0   0.4919   age201_m42            0.0000     2.3173E+02     8.0711  -0.3610    96.3107
 75      0.0000     0.0000E+00    0.0000E+00    1.800000E+10  0.00400  1.452E-05    0   0.4874   age213_m42            0.0000     2.1706E+02     7.8602  -0.3475    96.6930
 76      0.0000     0.0000E+00    0.0000E+00    1.000000E+06  0.00800  1.286E-02    0   1.0000   age020_m52            0.0000     3.0879E+02    11.3742   3.7055    83.5695
 77      0.0000     0.0000E+00    0.0000E+00    3.160000E+06  0.00800  3.147E-02    0   0.9966   age045_m52            0.0000     2.9431E+02    11.2087   3.6149    85.2042
 78      0.0000     0.0000E+00    0.0000E+00    5.010000E+06  0.00800  2.664E-02    0   0.9443   age055_m52            0.0000     2.1025E+02     9.6048   3.2883    88.4063
 79      0.0000     0.0000E+00    0.0000E+00    6.610000E+06  0.00800  2.151E-02    0   0.9177   age061_m52            0.0000     1.3165E+02     7.6030   1.9883    94.4545
 80      0.0000     0.0000E+00    0.0000E+00    8.710000E+06  0.00800  1.628E-02    0   0.8948   age067_m52            0.0000     1.1984E+02     7.6997   2.3674    94.7272
 81      0.0000     0.0000E+00    0.0000E+00    1.000000E+07  0.00800  1.215E-02    0   0.8827   age070_m52            0.0000     1.5086E+02     8.5818   2.7059    93.0112
 82      0.0000     0.0000E+00    0.0000E+00    1.445000E+07  0.00800  8.739E-03    0   0.8552   age078_m52            0.0000     1.1688E+02     7.5813   2.7502    94.1298
 83      0.0000     0.0000E+00    0.0000E+00    2.512000E+07  0.00800  5.676E-03    0   0.8162   age090_m52            0.0000     6.8449E+01     5.7338   2.3637    98.4048
 84      0.0000     0.0000E+00    0.0000E+00    4.000000E+07  0.00800  3.939E-03    0   0.7841   age104_m52            0.0000     4.5005E+01     4.1513   2.2099   100.5547
 85      0.0000     0.0000E+00    0.0000E+00    5.500000E+07  0.00800  3.155E-03    0   0.7627   age110_m52            0.0000     4.3258E+01     3.2720   2.1833   102.0034
 86      0.0000     0.0000E+00    0.0000E+00    1.015200E+08  0.00800  2.206E-03    0   0.7226   age116_m52            0.0000     7.4642E+01     3.7814   2.0066   105.2809
 87      0.0000     0.0000E+00    0.0000E+00    1.609000E+08  0.00800  1.596E-03    0   0.6963   age120_m52            0.0000     1.0179E+02     4.6720   1.7960   106.7370
 88      0.0000     0.0000E+00    0.0000E+00    2.861200E+08  0.00800  1.002E-03    0   0.6665   age125_m52            0.0000     1.9162E+02     7.1908   1.5128   108.9146
 89      0.0000     0.0000E+00    0.0000E+00    5.088000E+08  0.00800  5.759E-04    0   0.6377   age130_m52            0.0000     2.2454E+02     8.2815   1.1670   112.4656
 90      0.0000     0.0000E+00    0.0000E+00    9.047900E+08  0.00800  2.972E-04    0   0.6086   age135_m52            0.0000     1.5484E+02     7.3754   0.6281   110.8066
 91      0.0000     0.0000E+00    0.0000E+00    1.278050E+09  0.00800  2.242E-04    0   0.5907   age138_m52            0.0000     1.3376E+02     6.8480   0.0091   109.0061
 92      0.0000     0.0000E+00    0.0000E+00    1.434000E+09  0.00800  1.645E-04    0   0.5787   age139_m52            0.0000     1.0874E+02     6.2577   0.1510   108.7489
 93      0.0000     0.0000E+00    0.0000E+00    2.500000E+09  0.00800  7.723E-05    0   0.5519   age150_m52            0.0000     1.5319E+02     7.0062  -0.1886   104.6727
 94      0.0000     0.0000E+00    0.0000E+00    4.250000E+09  0.00800  4.151E-05    0   0.5320   age158_m52            0.0000     1.7106E+02     7.1844  -0.2585   102.0977
 95      0.0000     0.0000E+00    0.0000E+00    6.250000E+09  0.00800  3.010E-05    0   0.5197   age166_m52            0.0000     2.3626E+02     8.2000  -0.4468   100.3044
 96      0.0000     0.0000E+00    0.0000E+00    7.500000E+09  0.00800  2.467E-05    0   0.5139   age171_m52            0.0000     2.5449E+02     8.4648  -0.4862    99.7721
 97      0.0000     0.0000E+00    0.0000E+00    1.000000E+10  0.00800  1.862E-05    0   0.5054   age181_m52            0.0000     3.1235E+02     9.2881  -0.6111    99.0258
