###################################################################
## OUTPUT of StarlightChains_v04.for    [Cid@UFSC - 01/Apr/2007] ##
###################################################################

## Some input info
NGC3201_a_1.cxt                          [arq_obs]
Base.BC03.S                              [arq_base]
NGC3201_a_1.msk                          [arq_masks]
StCv04.C11.config                        [arq_config]
  150                                    [N_base]
    0                                    [N_YAV_components = # of components with extra extinction!]
    0                                    [i_FitPowerLaw (1/0 = Yes/No)]
-9.99                                    [alpha_PowerLaw]
CCM                                      [red_law_option]
 1.458241                                [q_norm = A(l_norm)/A(V)]

## (Re)Sampling Parameters
 3359.00                                 [l_ini (A)]
 6428.00                                 [l_fin (A)]
    1.00                                 [dl    (A)]     (OBS: dl_cushion =    50.00 A)

## Normalization info
 4020.00                                 [l_norm (A) - for base]
 4010.00                                 [llow_norm (A) - window for f_obs]
 4060.00                                 [lupp_norm (A) - window for f_obs]
1.250092E-14                             [fobs_norm (in input units)]

## S/N
 4730.00                                 [llow_SN (A) - window for S/N]
 4780.00                                 [lupp_SN (A) - window for S/N]
  72.417                                 [S/N in S/N window]
  61.465                                 [S/N in norm. window]
  55.763                                 [S/N_err in S/N window]
  47.330                                 [S/N_err in norm. window]
  1.0000                                 [fscale_chi2]

## etc...
  2147483640                             [idum_orig]
  3052                                   [NOl_eff]
  1812                                   [Nl_eff]
  1240    NSIGMA                         [Ntot_cliped & clip_method]
  1733340                                [Nglobal_steps]
   7                                     [N_chains]
  27                                     [NEX0s_base = N_base in EX0s-fits]
 0   0   1      371   2.0   8.843E+02    [Clip-Bug, RC-Crash & Burn-In warning-flags, n_censored_weights, wei_nsig_threshold & wei_limit]
    56     56.001     55.989      0.012  [idt_all, wdt_TotTime, wdt_UsrTime & wdt_SysTime (sec)]

## Synthesis Results - Best model ##

 1.75801E+00                             [chi2/Nl_eff]
     1.65837                             [adev (%)]

   101.71896                             [sum-of-x (%)]
 3.94842E-14                             [Flux_tot (units of input spectrum!)]
 5.58228E-10                             [Mini_tot (???)]
 2.86029E-10                             [Mcor_tot (???)]

 -14.35                                  [v0_min  (km/s)]
  61.21                                  [vd_min  (km/s)]
 0.8436                                  [AV_min  (mag)]
 0.0000                                  [YAV_min (mag)]

# j     x_j(%)      Mini_j(%)     Mcor_j(%)     age_j(yr)     Z_j      (L/M)_j    YAV?  Mstars   component_j        a/Fe...       SSP_chi2r SSP_adev(%)   SSP_AV   SSP_x(%)
  1      0.0000     0.0000E+00    0.0000E+00    1.000000E+06  0.00010  8.160E-03    0   1.0000   age020_m22            0.0000     4.3699E+02    15.3907   4.0000    70.7455
  2     11.2832     1.6486E-02    3.2176E-02    3.160000E+06  0.00010  4.759E-02    0   1.0000   age045_m22            0.0000     2.9049E+01     3.5156   2.2240    93.6289
  3      0.0000     0.0000E+00    0.0000E+00    5.010000E+06  0.00010  1.932E-02    0   0.9582   age055_m22            0.0000     2.6713E+02    10.9227   2.7274    76.5212
  4      0.0000     0.0000E+00    0.0000E+00    6.610000E+06  0.00010  9.973E-03    0   0.9297   age061_m22            0.0000     3.8462E+02    14.4791   4.0000    73.4317
  5      0.0000     0.0000E+00    0.0000E+00    8.710000E+06  0.00010  7.690E-03    0   0.9030   age067_m22            0.0000     3.6193E+02    13.8854   4.0000    74.0439
  6      0.0000     0.0000E+00    0.0000E+00    1.000000E+07  0.00010  6.375E-03    0   0.8902   age070_m22            0.0000     3.5252E+02    13.8768   4.0000    74.3887
  7      0.0000     0.0000E+00    0.0000E+00    1.445000E+07  0.00010  4.874E-03    0   0.8589   age078_m22            0.0000     2.0902E+02     8.3590   4.0000    77.9804
  8      0.0000     0.0000E+00    0.0000E+00    2.512000E+07  0.00010  4.103E-03    0   0.8174   age090_m22            0.0000     6.0964E+01     5.8427   3.6565    85.8638
  9      1.5790     3.0049E-02    4.5918E-02    4.000000E+07  0.00010  3.654E-03    0   0.7830   age104_m22            0.0000     4.4397E+01     3.5529   3.2644    92.3433
 10      1.5838     3.5608E-02    5.2794E-02    5.500000E+07  0.00010  3.093E-03    0   0.7597   age110_m22            0.0000     5.6493E+01     3.1992   3.1212    95.0227
 11      0.0000     0.0000E+00    0.0000E+00    1.015200E+08  0.00010  2.431E-03    0   0.7138   age116_m22            0.0000     1.0596E+02     3.3426   2.7228    99.2638
 12      0.0000     0.0000E+00    0.0000E+00    1.609000E+08  0.00010  1.319E-03    0   0.6775   age120_m22            0.0000     8.9596E+01     3.3565   2.2203   103.0649
 13      0.0000     0.0000E+00    0.0000E+00    2.861200E+08  0.00010  1.075E-03    0   0.6412   age125_m22            0.0000     3.1835E+02     7.6053   2.0924   112.3969
 14      0.0000     0.0000E+00    0.0000E+00    5.088000E+08  0.00010  7.183E-04    0   0.6083   age130_m22            0.0000     3.9156E+02     9.3781   1.7754   117.2987
 15      0.0000     0.0000E+00    0.0000E+00    9.047900E+08  0.00010  4.524E-04    0   0.5785   age135_m22            0.0000     3.9641E+02     9.8349   1.5515   119.5466
 16      0.0000     0.0000E+00    0.0000E+00    1.278050E+09  0.00010  3.018E-04    0   0.5588   age138_m22            0.0000     1.5569E+02     6.8007   1.1583   113.5605
 17      0.0000     0.0000E+00    0.0000E+00    1.434000E+09  0.00010  2.691E-04    0   0.5532   age139_m22            0.0000     1.1826E+02     6.2584   1.0231   112.3641
 18      0.0000     0.0000E+00    0.0000E+00    2.500000E+09  0.00010  1.582E-04    0   0.5296   age150_m22            0.0000     9.8129E+01     5.4206   0.9414   112.0298
 19      0.0000     4.2723E-06    4.2607E-06    4.250000E+09  0.00010  1.007E-04    0   0.5110   age158_m22            0.0000     3.8094E+01     3.8645   0.8528   108.3776
 20      0.0167     1.6872E-02    1.6415E-02    6.250000E+09  0.00010  6.869E-05    0   0.4985   age166_m22            0.0000     7.5399E+00     2.4035   0.8568   103.7098
 21      2.0127     2.3830E+00    2.2933E+00    7.500000E+09  0.00010  5.873E-05    0   0.4931   age171_m22            0.0000     5.2219E+00     2.0612   0.8610   102.6282
 22      0.0000     0.0000E+00    0.0000E+00    1.000000E+10  0.00010  4.481E-05    0   0.4854   age181_m22            0.0000     4.4973E+00     2.0531   0.8240   102.2733
 23      0.0000     0.0000E+00    0.0000E+00    1.300000E+10  0.00010  3.489E-05    0   0.4791   age193_m22            0.0000     3.4493E+00     2.0313   0.7704   101.6840
 24      0.7267     1.6649E+00    1.5486E+00    1.500000E+10  0.00010  3.035E-05    0   0.4766   age201_m22            0.0000     3.0425E+00     1.9787   0.7354   101.3950
 25      3.3131     9.1784E+00    8.4818E+00    1.800000E+10  0.00010  2.510E-05    0   0.4735   age213_m22            0.0000     2.8666E+00     1.8734   0.6769   100.5077
 26      0.0000     0.0000E+00    0.0000E+00    1.000000E+06  0.00040  8.458E-03    0   1.0000   age020_m32            0.0000     4.3228E+02    15.6788   4.0000    71.4226
 27      0.0016     2.8164E-06    5.4967E-06    3.160000E+06  0.00040  3.973E-02    0   1.0000   age045_m32            0.0000     7.3861E+01     6.4210   3.5743    85.1589
 28      0.0000     0.0000E+00    0.0000E+00    5.010000E+06  0.00040  1.935E-02    0   0.9532   age055_m32            0.0000     1.9958E+02    10.0410   3.9009    77.4180
 29      0.0000     0.0000E+00    0.0000E+00    6.610000E+06  0.00040  1.204E-02    0   0.9243   age061_m32            0.0000     2.7071E+02    10.1708   4.0000    75.8057
 30      0.0000     0.0000E+00    0.0000E+00    8.710000E+06  0.00040  9.433E-03    0   0.9001   age067_m32            0.0000     2.3172E+02     9.1598   4.0000    76.9552
 31      0.0000     0.0000E+00    0.0000E+00    1.000000E+07  0.00040  8.053E-03    0   0.8877   age070_m32            0.0000     2.1368E+02     8.7245   4.0000    77.5038
 32      0.0000     0.0000E+00    0.0000E+00    1.445000E+07  0.00040  7.027E-03    0   0.8578   age078_m32            0.0000     9.2049E+01     7.3489   3.5610    83.2998
 33      0.0000     0.0000E+00    0.0000E+00    2.512000E+07  0.00040  4.707E-03    0   0.8166   age090_m32            0.0000     4.2795E+01     5.1594   3.1994    88.7098
 34      1.2865     2.4086E-02    3.6793E-02    4.000000E+07  0.00040  3.714E-03    0   0.7827   age104_m32            0.0000     3.4919E+01     3.4054   2.9247    93.6146
 35      0.0000     0.0000E+00    0.0000E+00    5.500000E+07  0.00040  2.982E-03    0   0.7593   age110_m32            0.0000     4.6145E+01     3.0708   2.8307    95.6445
 36      0.0000     0.0000E+00    0.0000E+00    1.015200E+08  0.00040  2.188E-03    0   0.7143   age116_m32            0.0000     1.6136E+02     4.2493   2.4309   103.7355
 37      0.0000     0.0000E+00    0.0000E+00    1.609000E+08  0.00040  1.690E-03    0   0.6856   age120_m32            0.0000     2.7138E+02     5.9644   2.1404   108.9368
 38      0.0000     0.0000E+00    0.0000E+00    2.861200E+08  0.00040  1.152E-03    0   0.6509   age125_m32            0.0000     3.3118E+02     8.1906   1.8115   114.8154
 39      0.0000     0.0000E+00    0.0000E+00    5.088000E+08  0.00040  7.331E-04    0   0.6182   age130_m32            0.0000     3.5839E+02     9.2138   1.6009   117.3642
 40      0.0000     0.0000E+00    0.0000E+00    9.047900E+08  0.00040  3.960E-04    0   0.5890   age135_m32            0.0000     1.5638E+02     7.4536   1.2209   113.8490
 41      0.0000     0.0000E+00    0.0000E+00    1.278050E+09  0.00040  2.854E-04    0   0.5687   age138_m32            0.0000     1.2027E+02     6.0660   0.9815   113.9030
 42      0.0000     0.0000E+00    0.0000E+00    1.434000E+09  0.00040  2.531E-04    0   0.5632   age139_m32            0.0000     1.1640E+02     5.9194   0.9245   113.7205
 43      0.0105     4.9071E-03    5.1582E-03    2.500000E+09  0.00040  1.488E-04    0   0.5386   age150_m32            0.0000     6.6779E+01     4.9833   0.7001   110.8743
 44     67.6824     5.1821E+01    5.2581E+01    4.250000E+09  0.00040  9.082E-05    0   0.5199   age158_m32            0.0000     7.0445E+00     2.7537   0.6992   104.6158
 45      5.1021     5.5765E+00    5.5244E+00    6.250000E+09  0.00040  6.362E-05    0   0.5076   age166_m32            0.0000     1.0114E+01     1.7891   0.7382    98.8470
 46      3.4442     4.5282E+00    4.4426E+00    7.500000E+09  0.00040  5.289E-05    0   0.5027   age171_m32            0.0000     1.7046E+01     1.9850   0.7106    97.4202
 47      0.0000     0.0000E+00    0.0000E+00    1.000000E+10  0.00040  3.972E-05    0   0.4948   age181_m32            0.0000     2.3967E+01     2.2387   0.6490    96.1909
 48      0.0073     1.5442E-02    1.4677E-02    1.300000E+10  0.00040  3.283E-05    0   0.4870   age193_m32            0.0000     7.9977E+00     2.1701   0.5651   100.0559
 49      0.0149     3.5466E-02    3.3598E-02    1.500000E+10  0.00040  2.925E-05    0   0.4854   age201_m32            0.0000     4.7287E+00     2.4427   0.5228   102.3479
 50      0.0086     2.4318E-02    2.2871E-02    1.800000E+10  0.00040  2.469E-05    0   0.4819   age213_m32            0.0000     5.1225E+00     2.6705   0.4714   103.2012
 51      0.0000     0.0000E+00    0.0000E+00    1.000000E+06  0.00400  1.114E-02    0   1.0000   age020_m42            0.0000     3.9245E+02    13.4903   4.0000    72.1247
 52      0.0000     0.0000E+00    0.0000E+00    3.160000E+06  0.00400  4.073E-02    0   0.9999   age045_m42            0.0000     4.7089E+01     4.8332   3.2308    88.8855
 53      0.0001     2.2156E-07    4.1026E-07    5.010000E+06  0.00400  2.534E-02    0   0.9488   age055_m42            0.0000     1.3144E+02     7.9112   3.7250    80.8011
 54      0.0499     1.3422E-04    2.4151E-04    6.610000E+06  0.00400  2.583E-02    0   0.9220   age061_m42            0.0000     3.6805E+01     3.9336   3.0193    90.1944
 55      0.0000     0.0000E+00    0.0000E+00    8.710000E+06  0.00400  1.706E-02    0   0.8983   age067_m42            0.0000     5.5971E+01     5.7931   2.9106    86.7606
 56      0.0000     0.0000E+00    0.0000E+00    1.000000E+07  0.00400  1.271E-02    0   0.8862   age070_m42            0.0000     8.4954E+01     7.3823   2.9371    84.3123
 57      0.0000     0.0000E+00    0.0000E+00    1.445000E+07  0.00400  7.666E-03    0   0.8571   age078_m42            0.0000     1.4305E+02     8.2741   3.3637    81.0019
 58      0.0000     0.0000E+00    0.0000E+00    2.512000E+07  0.00400  5.070E-03    0   0.8174   age090_m42            0.0000     7.6939E+01     6.6738   2.7863    86.6263
 59      0.0000     0.0000E+00    0.0000E+00    4.000000E+07  0.00400  3.505E-03    0   0.7851   age104_m42            0.0000     5.5033E+01     4.8169   2.4227    91.0153
 60      0.0000     0.0000E+00    0.0000E+00    5.500000E+07  0.00400  3.059E-03    0   0.7629   age110_m42            0.0000     3.8891E+01     2.2151   2.3437    99.1415
 61      0.0000     0.0000E+00    0.0000E+00    1.015200E+08  0.00400  2.268E-03    0   0.7207   age116_m42            0.0000     2.2339E+02     5.8938   2.0600   109.7003
 62      0.0000     0.0000E+00    0.0000E+00    1.609000E+08  0.00400  1.720E-03    0   0.6930   age120_m42            0.0000     2.4410E+02     6.8670   1.8714   113.0436
 63      0.0000     0.0000E+00    0.0000E+00    2.861200E+08  0.00400  1.079E-03    0   0.6613   age125_m42            0.0000     2.2577E+02     7.4797   1.4922   114.9903
 64      0.0000     0.0000E+00    0.0000E+00    5.088000E+08  0.00400  6.261E-04    0   0.6313   age130_m42            0.0000     2.8154E+02     8.3875   1.2497   119.6426
 65      0.0000     0.0000E+00    0.0000E+00    9.047900E+08  0.00400  3.535E-04    0   0.6024   age135_m42            0.0000     1.3702E+02     6.9990   0.9172   118.0996
 66      0.0000     0.0000E+00    0.0000E+00    1.278050E+09  0.00400  2.677E-04    0   0.5837   age138_m42            0.0000     5.2227E+01     6.7999   0.2955   114.5615
 67      0.0000     0.0000E+00    0.0000E+00    1.434000E+09  0.00400  1.910E-04    0   0.5716   age139_m42            0.0000     4.8519E+01     6.7513   0.4412   115.8054
 68      0.0000     0.0000E+00    0.0000E+00    2.500000E+09  0.00400  9.818E-05    0   0.5463   age150_m42            0.0000     5.2924E+01     5.5409   0.2684   108.2074
 69      0.0000     0.0000E+00    0.0000E+00    4.250000E+09  0.00400  5.491E-05    0   0.5269   age158_m42            0.0000     9.7632E+01     5.0260   0.1931   103.9735
 70      0.0000     0.0000E+00    0.0000E+00    6.250000E+09  0.00400  3.857E-05    0   0.5151   age166_m42            0.0000     1.4047E+02     5.9155   0.0000   102.7451
 71      0.0000     0.0000E+00    0.0000E+00    7.500000E+09  0.00400  3.243E-05    0   0.5110   age171_m42            0.0000     1.6554E+02     5.9233  -0.0052   102.1797
 72      0.0000     0.0000E+00    0.0000E+00    1.000000E+10  0.00400  2.424E-05    0   0.5028   age181_m42            0.0000     2.1132E+02     6.3876  -0.0813   101.6210
 73      0.0000     0.0000E+00    0.0000E+00    1.300000E+10  0.00400  1.883E-05    0   0.4927   age193_m42            0.0000     2.5429E+02     6.6630  -0.1124   101.1753
 74      0.0000     0.0000E+00    0.0000E+00    1.500000E+10  0.00400  1.685E-05    0   0.4919   age201_m42            0.0000     2.4294E+02     6.5465  -0.1063   101.0943
 75      0.0000     0.0000E+00    0.0000E+00    1.800000E+10  0.00400  1.452E-05    0   0.4874   age213_m42            0.0000     2.2253E+02     6.3435  -0.0902   101.2268
 76      0.0000     0.0000E+00    0.0000E+00    1.000000E+06  0.00800  1.286E-02    0   1.0000   age020_m52            0.0000     3.3933E+02    12.1479   4.0000    74.1837
 77      0.0000     0.0000E+00    0.0000E+00    3.160000E+06  0.00800  3.147E-02    0   0.9966   age045_m52            0.0000     2.8061E+02     9.9796   4.0000    75.7008
 78      0.0000     0.0000E+00    0.0000E+00    5.010000E+06  0.00800  2.664E-02    0   0.9443   age055_m52            0.0000     1.6909E+02     8.6138   3.8652    79.5625
 79      0.0000     0.0000E+00    0.0000E+00    6.610000E+06  0.00800  2.151E-02    0   0.9177   age061_m52            0.0000     1.1567E+02     6.3627   2.5218    86.7547
 80      0.0000     0.0000E+00    0.0000E+00    8.710000E+06  0.00800  1.628E-02    0   0.8948   age067_m52            0.0000     7.8242E+01     6.3611   2.8832    86.9873
 81      0.0000     0.0000E+00    0.0000E+00    1.000000E+07  0.00800  1.215E-02    0   0.8827   age070_m52            0.0000     9.7834E+01     7.2213   3.2432    84.6682
 82      0.0000     0.0000E+00    0.0000E+00    1.445000E+07  0.00800  8.739E-03    0   0.8552   age078_m52            0.0000     7.3036E+01     6.3145   3.2567    86.4690
 83      0.0000     0.0000E+00    0.0000E+00    2.512000E+07  0.00800  5.676E-03    0   0.8162   age090_m52            0.0000     5.1365E+01     4.5784   2.7886    92.4436
 84      0.0000     0.0000E+00    0.0000E+00    4.000000E+07  0.00800  3.939E-03    0   0.7841   age104_m52            0.0000     5.7836E+01     3.0202   2.5639    96.8547
 85      0.0000     0.0000E+00    0.0000E+00    5.500000E+07  0.00800  3.155E-03    0   0.7627   age110_m52            0.0000     7.9242E+01     2.6513   2.4738   100.4327
 86      0.0000     0.0000E+00    0.0000E+00    1.015200E+08  0.00800  2.206E-03    0   0.7226   age116_m52            0.0000     1.5644E+02     4.7551   2.1706   107.9767
 87      0.0000     0.0000E+00    0.0000E+00    1.609000E+08  0.00800  1.596E-03    0   0.6963   age120_m52            0.0000     1.8946E+02     6.0617   1.8988   111.7526
 88      0.0000     0.0000E+00    0.0000E+00    2.861200E+08  0.00800  1.002E-03    0   0.6665   age125_m52            0.0000     2.9048E+02     9.2182   1.4662   119.8454
 89      0.0000     0.0000E+00    0.0000E+00    5.088000E+08  0.00800  5.759E-04    0   0.6377   age130_m52            0.0000     2.8133E+02    10.9748   1.0377   127.6565
 90      0.0000     0.0000E+00    0.0000E+00    9.047900E+08  0.00800  2.972E-04    0   0.6086   age135_m52            0.0000     9.4224E+01     9.8322   0.5815   124.8554
 91      0.0000     0.0000E+00    0.0000E+00    1.278050E+09  0.00800  2.242E-04    0   0.5907   age138_m52            0.0000     7.5137E+01     8.1275   0.0992   119.1967
 92      0.0000     0.0000E+00    0.0000E+00    1.434000E+09  0.00800  1.645E-04    0   0.5787   age139_m52            0.0000     5.9317E+01     7.2704   0.2728   117.3617
 93      0.0000     0.0000E+00    0.0000E+00    2.500000E+09  0.00800  7.723E-05    0   0.5519   age150_m52            0.0000     1.2536E+02     6.8632  -0.0003   111.4848
 94      0.0000     0.0000E+00    0.0000E+00    4.250000E+09  0.00800  4.151E-05    0   0.5320   age158_m52            0.0000     1.5432E+02     6.5332  -0.0426   108.0029
 95      0.0000     0.0000E+00    0.0000E+00    6.250000E+09  0.00800  3.010E-05    0   0.5197   age166_m52            0.0000     2.3998E+02     7.2841  -0.2329   106.7727
 96      0.0000     0.0000E+00    0.0000E+00    7.500000E+09  0.00800  2.467E-05    0   0.5139   age171_m52            0.0000     2.6304E+02     7.5297  -0.2757   106.5109
 97      0.0000     0.0000E+00    0.0000E+00    1.000000E+10  0.00800  1.862E-05    0   0.5054   age181_m52            0.0000     3.3390E+02     8.3624  -0.4202   106.8046
