###################################################################
## OUTPUT of StarlightChains_v04.for    [Cid@UFSC - 01/Apr/2007] ##
###################################################################

## Some input info
NGC3201_b_1.cxt                          [arq_obs]
Base.BC03.S                              [arq_base]
NGC3201_b_1.msk                          [arq_masks]
StCv04.C11.config                        [arq_config]
  150                                    [N_base]
    0                                    [N_YAV_components = # of components with extra extinction!]
    0                                    [i_FitPowerLaw (1/0 = Yes/No)]
-9.99                                    [alpha_PowerLaw]
CCM                                      [red_law_option]
 1.458241                                [q_norm = A(l_norm)/A(V)]

## (Re)Sampling Parameters
 3359.00                                 [l_ini (A)]
 6428.00                                 [l_fin (A)]
    1.00                                 [dl    (A)]     (OBS: dl_cushion =    50.00 A)

## Normalization info
 4020.00                                 [l_norm (A) - for base]
 4010.00                                 [llow_norm (A) - window for f_obs]
 4060.00                                 [lupp_norm (A) - window for f_obs]
1.147975E-14                             [fobs_norm (in input units)]

## S/N
 4730.00                                 [llow_SN (A) - window for S/N]
 4780.00                                 [lupp_SN (A) - window for S/N]
  72.514                                 [S/N in S/N window]
  57.541                                 [S/N in norm. window]
  54.776                                 [S/N_err in S/N window]
  43.465                                 [S/N_err in norm. window]
  1.0000                                 [fscale_chi2]

## etc...
  2147483639                             [idum_orig]
  3058                                   [NOl_eff]
  1180                                   [Nl_eff]
  1878    NSIGMA                         [Ntot_cliped & clip_method]
  1404900                                [Nglobal_steps]
   7                                     [N_chains]
  20                                     [NEX0s_base = N_base in EX0s-fits]
 0   0   1      371   2.0   8.117E+02    [Clip-Bug, RC-Crash & Burn-In warning-flags, n_censored_weights, wei_nsig_threshold & wei_limit]
    55     54.481     54.449      0.032  [idt_all, wdt_TotTime, wdt_UsrTime & wdt_SysTime (sec)]

## Synthesis Results - Best model ##

 1.39833E+00                             [chi2/Nl_eff]
     1.41804                             [adev (%)]

   103.71308                             [sum-of-x (%)]
 4.25902E-14                             [Flux_tot (units of input spectrum!)]
 5.06878E-10                             [Mini_tot (???)]
 2.60455E-10                             [Mcor_tot (???)]

 -19.69                                  [v0_min  (km/s)]
  83.13                                  [vd_min  (km/s)]
 0.9490                                  [AV_min  (mag)]
 0.0000                                  [YAV_min (mag)]

# j     x_j(%)      Mini_j(%)     Mcor_j(%)     age_j(yr)     Z_j      (L/M)_j    YAV?  Mstars   component_j        a/Fe...       SSP_chi2r SSP_adev(%)   SSP_AV   SSP_x(%)
  1      0.0000     0.0000E+00    0.0000E+00    1.000000E+06  0.00010  8.160E-03    0   1.0000   age020_m22            0.0000     6.3878E+02    19.4863   4.0000    73.8215
  2     36.7593     6.2578E-02    1.2179E-01    3.160000E+06  0.00010  4.759E-02    0   1.0000   age045_m22            0.0000     3.2997E+01     3.9923   2.2884    97.9065
  3      0.0000     0.0000E+00    0.0000E+00    5.010000E+06  0.00010  1.932E-02    0   0.9582   age055_m22            0.0000     2.7198E+02     8.4655   3.1220    83.4645
  4      0.0000     0.0000E+00    0.0000E+00    6.610000E+06  0.00010  9.973E-03    0   0.9297   age061_m22            0.0000     5.2275E+02    18.6085   4.0000    76.7706
  5      0.0000     0.0000E+00    0.0000E+00    8.710000E+06  0.00010  7.690E-03    0   0.9030   age067_m22            0.0000     4.9415E+02    18.0203   4.0000    77.3558
  6      0.0000     0.0000E+00    0.0000E+00    1.000000E+07  0.00010  6.375E-03    0   0.8902   age070_m22            0.0000     4.8283E+02    17.7965   4.0000    77.6184
  7      0.0000     0.0000E+00    0.0000E+00    1.445000E+07  0.00010  4.874E-03    0   0.8589   age078_m22            0.0000     2.9970E+02    13.0889   4.0000    81.6430
  8      0.0000     0.0000E+00    0.0000E+00    2.512000E+07  0.00010  4.103E-03    0   0.8174   age090_m22            0.0000     1.1759E+02     6.3324   3.8123    89.7633
  9      0.0000     1.0968E-07    1.6713E-07    4.000000E+07  0.00010  3.654E-03    0   0.7830   age104_m22            0.0000     1.8127E+02     7.5285   3.2089    94.2050
 10      0.0000     0.0000E+00    0.0000E+00    5.500000E+07  0.00010  3.093E-03    0   0.7597   age110_m22            0.0000     2.2804E+02     8.3077   2.9786    96.1181
 11      0.0000     0.0000E+00    0.0000E+00    1.015200E+08  0.00010  2.431E-03    0   0.7138   age116_m22            0.0000     3.4896E+02    10.2299   2.4369    99.2528
 12      0.0000     0.0000E+00    0.0000E+00    1.609000E+08  0.00010  1.319E-03    0   0.6775   age120_m22            0.0000     3.3730E+02     9.7757   1.9106   102.9869
 13      0.0000     0.0000E+00    0.0000E+00    2.861200E+08  0.00010  1.075E-03    0   0.6412   age125_m22            0.0000     8.3620E+02    17.2337   1.2610   108.4270
 14      0.0000     0.0000E+00    0.0000E+00    5.088000E+08  0.00010  7.183E-04    0   0.6083   age130_m22            0.0000     9.6521E+02    19.6190   0.7422   111.9857
 15      0.0000     0.0000E+00    0.0000E+00    9.047900E+08  0.00010  4.524E-04    0   0.5785   age135_m22            0.0000     9.4963E+02    20.0424   0.4815   113.9724
 16      0.0000     0.0000E+00    0.0000E+00    1.278050E+09  0.00010  3.018E-04    0   0.5588   age138_m22            0.0000     4.3154E+02    13.1316   0.5499   111.6068
 17      0.0000     0.0000E+00    0.0000E+00    1.434000E+09  0.00010  2.691E-04    0   0.5532   age139_m22            0.0000     3.4077E+02    11.7361   0.4932   111.0189
 18      0.0000     0.0000E+00    0.0000E+00    2.500000E+09  0.00010  1.582E-04    0   0.5296   age150_m22            0.0000     3.0380E+02    11.1207   0.4827   111.0405
 19      0.0000     0.0000E+00    0.0000E+00    4.250000E+09  0.00010  1.007E-04    0   0.5110   age158_m22            0.0000     1.5396E+02     8.0143   0.5570   109.0007
 20      0.0000     0.0000E+00    0.0000E+00    6.250000E+09  0.00010  6.869E-05    0   0.4985   age166_m22            0.0000     5.8036E+01     5.0463   0.7015   105.7392
 21      0.0000     0.0000E+00    0.0000E+00    7.500000E+09  0.00010  5.873E-05    0   0.4931   age171_m22            0.0000     5.1055E+01     4.6634   0.7354   104.8178
 22      0.0000     0.0000E+00    0.0000E+00    1.000000E+10  0.00010  4.481E-05    0   0.4854   age181_m22            0.0000     4.8034E+01     4.5132   0.6998   104.4800
 23      0.0000     0.0000E+00    0.0000E+00    1.300000E+10  0.00010  3.489E-05    0   0.4791   age193_m22            0.0000     3.9493E+01     4.1119   0.6535   104.0475
 24      0.7430     1.9834E+00    1.8396E+00    1.500000E+10  0.00010  3.035E-05    0   0.4766   age201_m22            0.0000     3.4971E+01     3.8741   0.6247   103.8773
 25      1.0958     3.5369E+00    3.2592E+00    1.800000E+10  0.00010  2.510E-05    0   0.4735   age213_m22            0.0000     2.5142E+01     3.3192   0.5857   103.2689
 26      0.0000     0.0000E+00    0.0000E+00    1.000000E+06  0.00040  8.458E-03    0   1.0000   age020_m32            0.0000     6.1560E+02    19.5006   4.0000    74.5064
 27      0.0000     0.0000E+00    0.0000E+00    3.160000E+06  0.00040  3.973E-02    0   1.0000   age045_m32            0.0000     1.0663E+02     6.5428   3.7561    89.5508
 28      0.0000     0.0000E+00    0.0000E+00    5.010000E+06  0.00040  1.935E-02    0   0.9532   age055_m32            0.0000     2.4034E+02    10.7225   4.0000    82.4391
 29      0.0000     0.0000E+00    0.0000E+00    6.610000E+06  0.00040  1.204E-02    0   0.9243   age061_m32            0.0000     3.7389E+02    15.2929   4.0000    79.4983
 30      0.0000     0.0000E+00    0.0000E+00    8.710000E+06  0.00040  9.433E-03    0   0.9001   age067_m32            0.0000     3.2215E+02    14.1482   4.0000    80.6670
 31      0.0000     0.0000E+00    0.0000E+00    1.000000E+07  0.00040  8.053E-03    0   0.8877   age070_m32            0.0000     2.9769E+02    13.3462   4.0000    81.3400
 32      0.0000     0.0000E+00    0.0000E+00    1.445000E+07  0.00040  7.027E-03    0   0.8578   age078_m32            0.0000     1.2885E+02     7.2449   3.7812    87.8557
 33      0.0000     0.0000E+00    0.0000E+00    2.512000E+07  0.00040  4.707E-03    0   0.8166   age090_m32            0.0000     1.1194E+02     6.4551   3.3064    92.1003
 34      0.0000     0.0000E+00    0.0000E+00    4.000000E+07  0.00040  3.714E-03    0   0.7827   age104_m32            0.0000     1.5935E+02     7.1512   2.8818    95.6223
 35      0.0000     0.0000E+00    0.0000E+00    5.500000E+07  0.00040  2.982E-03    0   0.7593   age110_m32            0.0000     2.0258E+02     7.8733   2.7132    97.0316
 36      0.0000     0.0000E+00    0.0000E+00    1.015200E+08  0.00040  2.188E-03    0   0.7143   age116_m32            0.0000     4.8659E+02    12.1133   1.9801   102.5820
 37      1.9219     9.2136E-02    1.2293E-01    1.609000E+08  0.00040  1.690E-03    0   0.6856   age120_m32            0.0000     7.1825E+02    15.4346   1.4612   106.0557
 38      0.0000     0.0000E+00    0.0000E+00    2.861200E+08  0.00040  1.152E-03    0   0.6509   age125_m32            0.0000     8.5568E+02    17.9832   0.9126   110.5960
 39      0.0000     0.0000E+00    0.0000E+00    5.088000E+08  0.00040  7.331E-04    0   0.6182   age130_m32            0.0000     8.9186E+02    19.0233   0.5961   112.4845
 40      0.0000     0.0000E+00    0.0000E+00    9.047900E+08  0.00040  3.960E-04    0   0.5890   age135_m32            0.0000     4.2186E+02    13.1290   0.5879   111.6664
 41      0.0000     0.0000E+00    0.0000E+00    1.278050E+09  0.00040  2.854E-04    0   0.5687   age138_m32            0.0000     3.4816E+02    11.9486   0.4680   112.5779
 42      0.0000     0.0000E+00    0.0000E+00    1.434000E+09  0.00040  2.531E-04    0   0.5632   age139_m32            0.0000     3.4014E+02    11.8399   0.4180   112.4673
 43      4.2938     2.3378E+00    2.4505E+00    2.500000E+09  0.00040  1.488E-04    0   0.5386   age150_m32            0.0000     2.1507E+02     9.5429   0.2998   110.8194
 44     17.5313     1.5639E+01    1.5823E+01    4.250000E+09  0.00040  9.082E-05    0   0.5199   age158_m32            0.0000     4.8787E+01     4.8715   0.5242   106.8258
 45      0.0000     0.0000E+00    0.0000E+00    6.250000E+09  0.00040  6.362E-05    0   0.5076   age166_m32            0.0000     9.9286E+00     2.0042   0.7190   102.4864
 46      3.1899     4.8863E+00    4.7803E+00    7.500000E+09  0.00040  5.289E-05    0   0.5027   age171_m32            0.0000     1.1705E+01     1.7755   0.7116   101.2646
 47      0.0541     1.1031E-01    1.0622E-01    1.000000E+10  0.00040  3.972E-05    0   0.4948   age181_m32            0.0000     1.7017E+01     1.8314   0.6540   100.0997
 48      0.3713     9.1635E-01    8.6848E-01    1.300000E+10  0.00040  3.283E-05    0   0.4870   age193_m32            0.0000     1.1127E+01     2.3780   0.4928   103.2913
 49      0.0000     0.0000E+00    0.0000E+00    1.500000E+10  0.00040  2.925E-05    0   0.4854   age201_m32            0.0000     2.0808E+01     3.3120   0.4009   105.1315
 50      0.0000     0.0000E+00    0.0000E+00    1.800000E+10  0.00040  2.469E-05    0   0.4819   age213_m32            0.0000     2.6855E+01     3.6875   0.3286   105.8225
 51      0.0000     0.0000E+00    0.0000E+00    1.000000E+06  0.00400  1.114E-02    0   1.0000   age020_m42            0.0000     5.7044E+02    17.9562   4.0000    75.3883
 52      0.0000     0.0000E+00    0.0000E+00    3.160000E+06  0.00400  4.073E-02    0   0.9999   age045_m42            0.0000     6.7030E+01     5.1053   3.3518    93.0413
 53      0.0000     0.0000E+00    0.0000E+00    5.010000E+06  0.00400  2.534E-02    0   0.9488   age055_m42            0.0000     1.5851E+02     7.4753   3.9941    85.9319
 54      0.0000     0.0000E+00    0.0000E+00    6.610000E+06  0.00400  2.583E-02    0   0.9220   age061_m42            0.0000     9.6399E+01     5.9272   3.0613    93.3533
 55      0.0000     0.0000E+00    0.0000E+00    8.710000E+06  0.00400  1.706E-02    0   0.8983   age067_m42            0.0000     9.0604E+01     6.3042   3.0613    90.8057
 56      0.0000     0.0000E+00    0.0000E+00    1.000000E+07  0.00400  1.271E-02    0   0.8862   age070_m42            0.0000     1.1695E+02     7.1740   3.1508    88.7824
 57      0.0000     0.0000E+00    0.0000E+00    1.445000E+07  0.00400  7.666E-03    0   0.8571   age078_m42            0.0000     1.9134E+02     8.1040   3.6423    85.9068
 58      0.0000     0.0000E+00    0.0000E+00    2.512000E+07  0.00400  5.070E-03    0   0.8174   age090_m42            0.0000     1.0856E+02     6.3980   2.9763    90.9820
 59      0.0000     0.0000E+00    0.0000E+00    4.000000E+07  0.00400  3.505E-03    0   0.7851   age104_m42            0.0000     8.2668E+01     4.7673   2.5306    95.1115
 60      0.0000     0.0000E+00    0.0000E+00    5.500000E+07  0.00400  3.059E-03    0   0.7629   age110_m42            0.0000     1.8153E+02     6.5957   2.1907   100.5952
 61      1.9438     6.9434E-02    9.7386E-02    1.015200E+08  0.00400  2.268E-03    0   0.7207   age116_m42            0.0000     6.1521E+02    13.9505   1.4420   107.0936
 62      0.0000     0.0000E+00    0.0000E+00    1.609000E+08  0.00400  1.720E-03    0   0.6930   age120_m42            0.0000     6.3531E+02    14.8073   1.1724   110.1201
 63      0.0000     0.0000E+00    0.0000E+00    2.861200E+08  0.00400  1.079E-03    0   0.6613   age125_m42            0.0000     6.0441E+02    14.7309   0.7898   112.4634
 64      0.0000     0.0000E+00    0.0000E+00    5.088000E+08  0.00400  6.261E-04    0   0.6313   age130_m42            0.0000     6.9459E+02    16.8273   0.4387   115.8361
 65      0.0000     0.0000E+00    0.0000E+00    9.047900E+08  0.00400  3.535E-04    0   0.6024   age135_m42            0.0000     3.5796E+02    12.2535   0.3675   116.6356
 66      0.0000     0.0000E+00    0.0000E+00    1.278050E+09  0.00400  2.677E-04    0   0.5837   age138_m42            0.0000     7.5989E+01     6.5401  -0.0301   116.6205
 67      0.0000     0.0000E+00    0.0000E+00    1.434000E+09  0.00400  1.910E-04    0   0.5716   age139_m42            0.0000     1.0178E+02     7.8240   0.0000   116.6199
 68      9.4983     7.8378E+00    8.3329E+00    2.500000E+09  0.00400  9.818E-05    0   0.5463   age150_m42            0.0000     4.7553E+01     5.1625   0.1014   112.1581
 69      0.0000     0.0000E+00    0.0000E+00    4.250000E+09  0.00400  5.491E-05    0   0.5269   age158_m42            0.0000     1.0359E+02     5.9228   0.1056   108.9523
 70     13.6648     2.8703E+01    2.8773E+01    6.250000E+09  0.00400  3.857E-05    0   0.5151   age166_m42            0.0000     1.6712E+02     7.0090  -0.0068   108.1071
 71      7.9102     1.9761E+01    1.9652E+01    7.500000E+09  0.00400  3.243E-05    0   0.5110   age171_m42            0.0000     2.1236E+02     7.7053  -0.0876   107.9566
 72      3.6448     1.2182E+01    1.1920E+01    1.000000E+10  0.00400  2.424E-05    0   0.5028   age181_m42            0.0000     2.8958E+02     8.6763  -0.1635   107.8592
 73      0.3511     1.5104E+00    1.4483E+00    1.300000E+10  0.00400  1.883E-05    0   0.4927   age193_m42            0.0000     3.6303E+02     9.4052  -0.1897   107.8596
 74      0.0000     0.0000E+00    0.0000E+00    1.500000E+10  0.00400  1.685E-05    0   0.4919   age201_m42            0.0000     3.4304E+02     9.2082  -0.1803   107.7244
 75      0.0259     1.4453E-01    1.3709E-01    1.800000E+10  0.00400  1.452E-05    0   0.4874   age213_m42            0.0000     3.0630E+02     8.8117  -0.1604   107.7237
 76      0.0000     0.0000E+00    0.0000E+00    1.000000E+06  0.00800  1.286E-02    0   1.0000   age020_m52            0.0000     4.7052E+02    16.4716   4.0000    77.6053
 77      0.0000     0.0000E+00    0.0000E+00    3.160000E+06  0.00800  3.147E-02    0   0.9966   age045_m52            0.0000     3.8508E+02    15.0032   4.0000    79.3639
 78      0.0000     0.0000E+00    0.0000E+00    5.010000E+06  0.00800  2.664E-02    0   0.9443   age055_m52            0.0000     2.0586E+02     8.9489   4.0000    84.4286
 79      0.0000     0.0000E+00    0.0000E+00    6.610000E+06  0.00800  2.151E-02    0   0.9177   age061_m52            0.0000     1.0841E+02     5.7942   2.7392    92.2474
 80      0.0000     0.0000E+00    0.0000E+00    8.710000E+06  0.00800  1.628E-02    0   0.8948   age067_m52            0.0000     1.0414E+02     6.2911   3.0576    91.4570
 81      0.0000     0.0000E+00    0.0000E+00    1.000000E+07  0.00800  1.215E-02    0   0.8827   age070_m52            0.0000     1.3344E+02     7.1779   3.4487    89.1972
 82      0.0000     0.0000E+00    0.0000E+00    1.445000E+07  0.00800  8.739E-03    0   0.8552   age078_m52            0.0000     1.2706E+02     6.9975   3.4080    90.4421
 83      0.0000     0.0000E+00    0.0000E+00    2.512000E+07  0.00800  5.676E-03    0   0.8162   age090_m52            0.0000     1.6878E+02     7.5830   2.7909    95.0042
 84      0.0000     0.0000E+00    0.0000E+00    4.000000E+07  0.00800  3.939E-03    0   0.7841   age104_m52            0.0000     2.2624E+02     7.8104   2.4515    98.4006
 85      0.0000     0.0000E+00    0.0000E+00    5.500000E+07  0.00800  3.155E-03    0   0.7627   age110_m52            0.0000     2.9983E+02     8.9087   2.2505   100.9359
 86      0.0000     0.0000E+00    0.0000E+00    1.015200E+08  0.00800  2.206E-03    0   0.7226   age116_m52            0.0000     4.6312E+02    11.8223   1.7028   106.6555
 87      0.4774     2.4234E-02    3.2839E-02    1.609000E+08  0.00800  1.596E-03    0   0.6963   age120_m52            0.0000     5.3317E+02    13.2971   1.3200   109.7216
 88      0.0000     0.0000E+00    0.0000E+00    2.861200E+08  0.00800  1.002E-03    0   0.6665   age125_m52            0.0000     7.2094E+02    16.8809   0.5959   115.8109
 89      0.0000     0.0000E+00    0.0000E+00    5.088000E+08  0.00800  5.759E-04    0   0.6377   age130_m52            0.0000     6.3412E+02    17.3049   0.0959   123.2822
 90      0.0000     0.0000E+00    0.0000E+00    9.047900E+08  0.00800  2.972E-04    0   0.6086   age135_m52            0.0000     1.7564E+02    10.9410  -0.0119   124.6685
 91      0.0000     0.0000E+00    0.0000E+00    1.278050E+09  0.00800  2.242E-04    0   0.5907   age138_m52            0.0000     7.7093E+01     7.3563  -0.2480   122.1747
 92      0.0000     0.0000E+00    0.0000E+00    1.434000E+09  0.00800  1.645E-04    0   0.5787   age139_m52            0.0000     5.9910E+01     6.5327  -0.0421   120.4001
 93      0.0000     0.0000E+00    0.0000E+00    2.500000E+09  0.00800  7.723E-05    0   0.5519   age150_m52            0.0000     1.3861E+02     6.9013  -0.1905   116.3677
 94      0.0000     0.0000E+00    0.0000E+00    4.250000E+09  0.00800  4.151E-05    0   0.5320   age158_m52            0.0000     1.9403E+02     7.5024  -0.1854   113.5503
 95      0.0000     0.0000E+00    0.0000E+00    6.250000E+09  0.00800  3.010E-05    0   0.5197   age166_m52            0.0000     3.3045E+02     9.0530  -0.3676   112.9908
 96      0.0000     0.0000E+00    0.0000E+00    7.500000E+09  0.00800  2.467E-05    0   0.5139   age171_m52            0.0000     3.6819E+02     9.4166  -0.4157   112.8274
 97      0.0000     0.0000E+00    0.0000E+00    1.000000E+10  0.00800  1.862E-05    0   0.5054   age181_m52            0.0000     4.8310E+02    10.4999  -0.5743   113.3340
