###################################################################
## OUTPUT of StarlightChains_v04.for    [Cid@UFSC - 01/Apr/2007] ##
###################################################################

## Some input info
NGC5986_a_1.cxt                          [arq_obs]
Base.BC03.S                              [arq_base]
NGC5986_a_1.msk                          [arq_masks]
StCv04.C11.config                        [arq_config]
  150                                    [N_base]
    0                                    [N_YAV_components = # of components with extra extinction!]
    0                                    [i_FitPowerLaw (1/0 = Yes/No)]
-9.99                                    [alpha_PowerLaw]
CCM                                      [red_law_option]
 1.458241                                [q_norm = A(l_norm)/A(V)]

## (Re)Sampling Parameters
 3359.00                                 [l_ini (A)]
 6428.00                                 [l_fin (A)]
    1.00                                 [dl    (A)]     (OBS: dl_cushion =    50.00 A)

## Normalization info
 4020.00                                 [l_norm (A) - for base]
 4010.00                                 [llow_norm (A) - window for f_obs]
 4060.00                                 [lupp_norm (A) - window for f_obs]
1.970425E-14                             [fobs_norm (in input units)]

## S/N
 4730.00                                 [llow_SN (A) - window for S/N]
 4780.00                                 [lupp_SN (A) - window for S/N]
 120.453                                 [S/N in S/N window]
 104.720                                 [S/N in norm. window]
  85.601                                 [S/N_err in S/N window]
  74.420                                 [S/N_err in norm. window]
  1.0000                                 [fscale_chi2]

## etc...
  2147483629                             [idum_orig]
  3069                                   [NOl_eff]
  1916                                   [Nl_eff]
  1153    NSIGMA                         [Ntot_cliped & clip_method]
  1405950                                [Nglobal_steps]
   7                                     [N_chains]
  21                                     [NEX0s_base = N_base in EX0s-fits]
 0   0   1       80   2.0   6.651E+02    [Clip-Bug, RC-Crash & Burn-In warning-flags, n_censored_weights, wei_nsig_threshold & wei_limit]
    55     54.736     54.732      0.004  [idt_all, wdt_TotTime, wdt_UsrTime & wdt_SysTime (sec)]

## Synthesis Results - Best model ##

 2.33660E+00                             [chi2/Nl_eff]
     1.52349                             [adev (%)]

    99.52488                             [sum-of-x (%)]
 6.36305E-14                             [Flux_tot (units of input spectrum!)]
 7.12652E-10                             [Mini_tot (???)]
 3.68750E-10                             [Mcor_tot (???)]

 -20.00                                  [v0_min  (km/s)]
  66.45                                  [vd_min  (km/s)]
 0.8764                                  [AV_min  (mag)]
 0.0000                                  [YAV_min (mag)]

# j     x_j(%)      Mini_j(%)     Mcor_j(%)     age_j(yr)     Z_j      (L/M)_j    YAV?  Mstars   component_j        a/Fe...       SSP_chi2r SSP_adev(%)   SSP_AV   SSP_x(%)
  1      0.0000     0.0000E+00    0.0000E+00    1.000000E+06  0.00010  8.160E-03    0   1.0000   age020_m22            0.0000     1.9653E+02    10.0594   4.0000    74.8002
  2      5.7027     1.0750E-02    2.0776E-02    3.160000E+06  0.00010  4.759E-02    0   1.0000   age045_m22            0.0000     2.0969E+01     3.3041   2.1427    92.9673
  3      0.3411     1.5837E-03    2.9328E-03    5.010000E+06  0.00010  1.932E-02    0   0.9582   age055_m22            0.0000     1.5485E+02    10.5502   2.5470    76.2189
  4      0.0000     0.0000E+00    0.0000E+00    6.610000E+06  0.00010  9.973E-03    0   0.9297   age061_m22            0.0000     1.8931E+02    10.2154   4.0000    76.8635
  5      0.0000     0.0000E+00    0.0000E+00    8.710000E+06  0.00010  7.690E-03    0   0.9030   age067_m22            0.0000     1.7811E+02     9.9016   4.0000    77.2026
  6      0.0000     0.0000E+00    0.0000E+00    1.000000E+07  0.00010  6.375E-03    0   0.8902   age070_m22            0.0000     1.7238E+02     9.6541   4.0000    77.6970
  7      0.0000     0.0000E+00    0.0000E+00    1.445000E+07  0.00010  4.874E-03    0   0.8589   age078_m22            0.0000     1.1416E+02     8.5794   4.0000    77.0439
  8      0.0000     0.0000E+00    0.0000E+00    2.512000E+07  0.00010  4.103E-03    0   0.8174   age090_m22            0.0000     4.9209E+01     5.5508   3.5492    85.1238
  9      1.7029     4.1809E-02    6.3268E-02    4.000000E+07  0.00010  3.654E-03    0   0.7830   age104_m22            0.0000     1.6095E+01     3.4380   3.1858    92.4924
 10      1.3472     3.9077E-02    5.7373E-02    5.500000E+07  0.00010  3.093E-03    0   0.7597   age110_m22            0.0000     1.1610E+01     2.9758   3.0700    94.7425
 11      0.0000     0.0000E+00    0.0000E+00    1.015200E+08  0.00010  2.431E-03    0   0.7138   age116_m22            0.0000     1.1694E+01     2.9662   2.6940    99.0202
 12      0.0000     2.2659E-07    2.9668E-07    1.609000E+08  0.00010  1.319E-03    0   0.6775   age120_m22            0.0000     1.2731E+01     2.9865   2.2387   100.5578
 13      0.0000     0.0000E+00    0.0000E+00    2.861200E+08  0.00010  1.075E-03    0   0.6412   age125_m22            0.0000     5.9922E+01     6.5208   2.2469   106.9608
 14      0.0000     0.0000E+00    0.0000E+00    5.088000E+08  0.00010  7.183E-04    0   0.6083   age130_m22            0.0000     8.4482E+01     7.6314   2.0134   109.0268
 15      0.0000     0.0000E+00    0.0000E+00    9.047900E+08  0.00010  4.524E-04    0   0.5785   age135_m22            0.0000     8.8847E+01     7.7811   1.8161   110.1901
 16      0.0000     0.0000E+00    0.0000E+00    1.278050E+09  0.00010  3.018E-04    0   0.5588   age138_m22            0.0000     3.2728E+01     4.9408   1.3195   106.5807
 17      0.0000     0.0000E+00    0.0000E+00    1.434000E+09  0.00010  2.691E-04    0   0.5532   age139_m22            0.0000     2.4788E+01     4.3692   1.1729   105.5465
 18      0.0000     0.0000E+00    0.0000E+00    2.500000E+09  0.00010  1.582E-04    0   0.5296   age150_m22            0.0000     1.8505E+01     3.7526   1.0609   106.0942
 19      0.0000     0.0000E+00    0.0000E+00    4.250000E+09  0.00010  1.007E-04    0   0.5110   age158_m22            0.0000     6.8861E+00     2.5021   0.9304   103.2554
 20      0.0011     1.4650E-03    1.4114E-03    6.250000E+09  0.00010  6.869E-05    0   0.4985   age166_m22            0.0000     2.8460E+00     1.6509   0.8946    99.3391
 21      0.3370     5.1482E-01    4.9061E-01    7.500000E+09  0.00010  5.873E-05    0   0.4931   age171_m22            0.0000     2.9783E+00     1.6069   0.8842    98.6748
 22      0.3749     7.5051E-01    7.0405E-01    1.000000E+10  0.00010  4.481E-05    0   0.4854   age181_m22            0.0000     2.9842E+00     1.6175   0.8469    98.2835
 23      0.0053     1.3695E-02    1.2680E-02    1.300000E+10  0.00010  3.489E-05    0   0.4791   age193_m22            0.0000     3.1584E+00     1.6688   0.7938    97.5923
 24      0.0000     0.0000E+00    0.0000E+00    1.500000E+10  0.00010  3.035E-05    0   0.4766   age201_m22            0.0000     3.3318E+00     1.7061   0.7573    97.2964
 25      0.0022     8.0410E-03    7.3583E-03    1.800000E+10  0.00010  2.510E-05    0   0.4735   age213_m22            0.0000     4.0064E+00     1.8258   0.6945    96.4445
 26      0.0000     0.0000E+00    0.0000E+00    1.000000E+06  0.00040  8.458E-03    0   1.0000   age020_m32            0.0000     1.9839E+02    10.1256   4.0000    75.7365
 27      0.0000     0.0000E+00    0.0000E+00    3.160000E+06  0.00040  3.973E-02    0   1.0000   age045_m32            0.0000     5.6903E+01     5.8385   3.4523    84.8645
 28      0.0000     0.0000E+00    0.0000E+00    5.010000E+06  0.00040  1.935E-02    0   0.9532   age055_m32            0.0000     1.2987E+02     9.3825   3.7310    77.2009
 29      0.0000     0.0000E+00    0.0000E+00    6.610000E+06  0.00040  1.204E-02    0   0.9243   age061_m32            0.0000     1.4356E+02     9.4422   4.0000    76.1608
 30      0.0000     0.0000E+00    0.0000E+00    8.710000E+06  0.00040  9.433E-03    0   0.9001   age067_m32            0.0000     1.2818E+02     9.0417   4.0000    76.5330
 31      0.0000     0.0000E+00    0.0000E+00    1.000000E+07  0.00040  8.053E-03    0   0.8877   age070_m32            0.0000     1.2261E+02     8.9340   3.9831    76.6043
 32      0.0000     0.0000E+00    0.0000E+00    1.445000E+07  0.00040  7.027E-03    0   0.8578   age078_m32            0.0000     7.3711E+01     6.9491   3.4176    83.2147
 33      0.0000     0.0000E+00    0.0000E+00    2.512000E+07  0.00040  4.707E-03    0   0.8166   age090_m32            0.0000     4.0090E+01     5.2016   3.0901    88.3933
 34      0.0000     0.0000E+00    0.0000E+00    4.000000E+07  0.00040  3.714E-03    0   0.7827   age104_m32            0.0000     1.6574E+01     3.4766   2.8448    93.5389
 35      0.6973     2.0977E-02    3.0782E-02    5.500000E+07  0.00040  2.982E-03    0   0.7593   age110_m32            0.0000     1.2045E+01     3.0145   2.7685    95.3998
 36      0.0000     0.0000E+00    0.0000E+00    1.015200E+08  0.00040  2.188E-03    0   0.7143   age116_m32            0.0000     2.0807E+01     3.9053   2.4546   102.1128
 37      0.0000     0.0000E+00    0.0000E+00    1.609000E+08  0.00040  1.690E-03    0   0.6856   age120_m32            0.0000     4.1759E+01     5.3502   2.2195   106.2144
 38      0.0000     0.0000E+00    0.0000E+00    2.861200E+08  0.00040  1.152E-03    0   0.6509   age125_m32            0.0000     6.6919E+01     6.7845   2.0007   108.1591
 39      0.0000     0.0000E+00    0.0000E+00    5.088000E+08  0.00040  7.331E-04    0   0.6182   age130_m32            0.0000     7.9280E+01     7.3918   1.8389   108.9403
 40      0.0000     0.0000E+00    0.0000E+00    9.047900E+08  0.00040  3.960E-04    0   0.5890   age135_m32            0.0000     3.6461E+01     5.4187   1.4177   105.6460
 41      0.0000     0.0000E+00    0.0000E+00    1.278050E+09  0.00040  2.854E-04    0   0.5687   age138_m32            0.0000     2.4591E+01     4.3267   1.1255   107.2471
 42      0.0000     0.0000E+00    0.0000E+00    1.434000E+09  0.00040  2.531E-04    0   0.5632   age139_m32            0.0000     2.3475E+01     4.1777   1.0628   107.2571
 43     21.4328     1.2922E+01    1.3451E+01    2.500000E+09  0.00040  1.488E-04    0   0.5386   age150_m32            0.0000     1.4179E+01     3.2806   0.8158   104.9228
 44     56.7869     5.6095E+01    5.6362E+01    4.250000E+09  0.00040  9.082E-05    0   0.5199   age158_m32            0.0000     2.9145E+00     1.7900   0.7537    99.7464
 45      9.1158     1.2855E+01    1.2610E+01    6.250000E+09  0.00040  6.362E-05    0   0.5076   age166_m32            0.0000     7.6657E+00     2.2922   0.7432    94.8445
 46      0.0000     0.0000E+00    0.0000E+00    7.500000E+09  0.00040  5.289E-05    0   0.5027   age171_m32            0.0000     1.0023E+01     2.5061   0.7144    93.3016
 47      0.0000     0.0000E+00    0.0000E+00    1.000000E+10  0.00040  3.972E-05    0   0.4948   age181_m32            0.0000     1.1920E+01     2.6608   0.6594    91.7479
 48      0.0000     0.0000E+00    0.0000E+00    1.300000E+10  0.00040  3.283E-05    0   0.4870   age193_m32            0.0000     5.7880E+00     2.1910   0.5993    95.1795
 49      0.0000     0.0000E+00    0.0000E+00    1.500000E+10  0.00040  2.925E-05    0   0.4854   age201_m32            0.0000     3.9928E+00     2.0394   0.5710    97.2187
 50      0.0000     0.0000E+00    0.0000E+00    1.800000E+10  0.00040  2.469E-05    0   0.4819   age213_m32            0.0000     3.8341E+00     2.0555   0.5274    97.9079
 51      0.0000     0.0000E+00    0.0000E+00    1.000000E+06  0.00400  1.114E-02    0   1.0000   age020_m42            0.0000     1.7687E+02     9.6238   4.0000    74.8792
 52      0.0000     0.0000E+00    0.0000E+00    3.160000E+06  0.00400  4.073E-02    0   0.9999   age045_m42            0.0000     3.5938E+01     4.4543   3.1409    88.0834
 53      0.0000     0.0000E+00    0.0000E+00    5.010000E+06  0.00400  2.534E-02    0   0.9488   age055_m42            0.0000     8.7192E+01     7.3028   3.5912    80.1272
 54      0.7082     2.4597E-03    4.3829E-03    6.610000E+06  0.00400  2.583E-02    0   0.9220   age061_m42            0.0000     2.3547E+01     3.6817   2.9275    90.1415
 55      0.0000     0.0000E+00    0.0000E+00    8.710000E+06  0.00400  1.706E-02    0   0.8983   age067_m42            0.0000     4.9358E+01     5.7361   2.7813    87.0486
 56      0.0000     0.0000E+00    0.0000E+00    1.000000E+07  0.00400  1.271E-02    0   0.8862   age070_m42            0.0000     7.6016E+01     7.4963   2.7849    84.8378
 57      0.0000     0.0000E+00    0.0000E+00    1.445000E+07  0.00400  7.666E-03    0   0.8571   age078_m42            0.0000     1.0077E+02     8.3790   3.2166    80.5819
 58      0.0000     0.0000E+00    0.0000E+00    2.512000E+07  0.00400  5.070E-03    0   0.8174   age090_m42            0.0000     6.8333E+01     7.0339   2.6579    86.3135
 59      0.0000     0.0000E+00    0.0000E+00    4.000000E+07  0.00400  3.505E-03    0   0.7851   age104_m42            0.0000     4.5902E+01     5.4033   2.3364    89.5301
 60      0.0000     0.0000E+00    0.0000E+00    5.500000E+07  0.00400  3.059E-03    0   0.7629   age110_m42            0.0000     1.1231E+01     2.5858   2.3268    97.0434
 61      0.0000     0.0000E+00    0.0000E+00    1.015200E+08  0.00400  2.268E-03    0   0.7207   age116_m42            0.0000     3.5102E+01     5.1033   2.1559   106.0819
 62      0.0000     0.0000E+00    0.0000E+00    1.609000E+08  0.00400  1.720E-03    0   0.6930   age120_m42            0.0000     4.5019E+01     5.7563   2.0125   107.8576
 63      0.0000     0.0000E+00    0.0000E+00    2.861200E+08  0.00400  1.079E-03    0   0.6613   age125_m42            0.0000     4.5615E+01     5.7605   1.6749   107.6965
 64      0.0000     0.0000E+00    0.0000E+00    5.088000E+08  0.00400  6.261E-04    0   0.6313   age130_m42            0.0000     6.1213E+01     6.3799   1.4648   111.3606
 65      0.0000     0.0000E+00    0.0000E+00    9.047900E+08  0.00400  3.535E-04    0   0.6024   age135_m42            0.0000     3.4226E+01     4.9785   1.0944   110.0971
 66      0.0000     0.0000E+00    0.0000E+00    1.278050E+09  0.00400  2.677E-04    0   0.5837   age138_m42            0.0000     2.4752E+01     4.6566   0.4776   104.4167
 67      0.0000     0.0000E+00    0.0000E+00    1.434000E+09  0.00400  1.910E-04    0   0.5716   age139_m42            0.0000     2.3655E+01     4.5651   0.6287   106.0728
 68      0.0000     0.0000E+00    0.0000E+00    2.500000E+09  0.00400  9.818E-05    0   0.5463   age150_m42            0.0000     2.1609E+01     4.3917   0.4119    98.8653
 69      0.0000     0.0000E+00    0.0000E+00    4.250000E+09  0.00400  5.491E-05    0   0.5269   age158_m42            0.0000     2.7076E+01     4.6592   0.3079    95.2068
 70      0.0000     0.0000E+00    0.0000E+00    6.250000E+09  0.00400  3.857E-05    0   0.5151   age166_m42            0.0000     3.5589E+01     5.2417   0.1945    93.4419
 71      0.0000     0.0000E+00    0.0000E+00    7.500000E+09  0.00400  3.243E-05    0   0.5110   age171_m42            0.0000     4.1259E+01     5.6068   0.1228    92.6915
 72      0.0000     0.0000E+00    0.0000E+00    1.000000E+10  0.00400  2.424E-05    0   0.5028   age181_m42            0.0000     4.9052E+01     6.0548   0.0533    91.7611
 73      0.0000     0.0000E+00    0.0000E+00    1.300000E+10  0.00400  1.883E-05    0   0.4927   age193_m42            0.0000     5.5140E+01     6.3809   0.0204    91.2093
 74      0.0000     0.0000E+00    0.0000E+00    1.500000E+10  0.00400  1.685E-05    0   0.4919   age201_m42            0.0000     5.3606E+01     6.2997   0.0234    91.2793
 75      0.0000     0.0000E+00    0.0000E+00    1.800000E+10  0.00400  1.452E-05    0   0.4874   age213_m42            0.0000     5.0776E+01     6.1598   0.0355    91.6230
 76      0.0000     0.0000E+00    0.0000E+00    1.000000E+06  0.00800  1.286E-02    0   1.0000   age020_m52            0.0000     1.5797E+02     8.9797   4.0000    76.2189
 77      0.0000     0.0000E+00    0.0000E+00    3.160000E+06  0.00800  3.147E-02    0   0.9966   age045_m52            0.0000     1.4243E+02     9.0367   4.0000    76.0101
 78      0.0000     0.0000E+00    0.0000E+00    5.010000E+06  0.00800  2.664E-02    0   0.9443   age055_m52            0.0000     1.0473E+02     7.8913   3.7310    78.4120
 79      0.0000     0.0000E+00    0.0000E+00    6.610000E+06  0.00800  2.151E-02    0   0.9177   age061_m52            0.0000     7.3446E+01     6.7260   2.4109    85.3449
 80      0.0000     0.0000E+00    0.0000E+00    8.710000E+06  0.00800  1.628E-02    0   0.8948   age067_m52            0.0000     6.4778E+01     6.4971   2.7621    86.4993
 81      0.0000     0.0000E+00    0.0000E+00    1.000000E+07  0.00800  1.215E-02    0   0.8827   age070_m52            0.0000     7.8664E+01     7.1813   3.1131    84.2449
 82      0.0000     0.0000E+00    0.0000E+00    1.445000E+07  0.00800  8.739E-03    0   0.8552   age078_m52            0.0000     6.0244E+01     6.1433   3.1332    86.3099
 83      0.0000     0.0000E+00    0.0000E+00    2.512000E+07  0.00800  5.676E-03    0   0.8162   age090_m52            0.0000     2.9307E+01     4.4909   2.6822    93.1753
 84      0.0000     4.3847E-08    6.6444E-08    4.000000E+07  0.00800  3.939E-03    0   0.7841   age104_m52            0.0000     1.5953E+01     3.1350   2.5026    96.5984
 85      0.0000     0.0000E+00    0.0000E+00    5.500000E+07  0.00800  3.155E-03    0   0.7627   age110_m52            0.0000     1.1949E+01     2.6989   2.4524    99.2865
 86      0.0000     0.0000E+00    0.0000E+00    1.015200E+08  0.00800  2.206E-03    0   0.7226   age116_m52            0.0000     2.2667E+01     4.1638   2.2327   104.9205
 87      0.0000     0.0000E+00    0.0000E+00    1.609000E+08  0.00800  1.596E-03    0   0.6963   age120_m52            0.0000     3.3175E+01     5.0316   2.0125   106.9633
 88      0.0000     0.0000E+00    0.0000E+00    2.861200E+08  0.00800  1.002E-03    0   0.6665   age125_m52            0.0000     6.7986E+01     7.0768   1.7147   110.3832
 89      0.0000     0.0000E+00    0.0000E+00    5.088000E+08  0.00800  5.759E-04    0   0.6377   age130_m52            0.0000     8.4870E+01     7.8598   1.3813   113.9746
 90      0.0000     0.0000E+00    0.0000E+00    9.047900E+08  0.00800  2.972E-04    0   0.6086   age135_m52            0.0000     5.1570E+01     6.5815   0.8980   110.2996
 91      0.0000     0.0000E+00    0.0000E+00    1.278050E+09  0.00800  2.242E-04    0   0.5907   age138_m52            0.0000     3.7764E+01     5.7109   0.3274   106.5757
 92      0.0000     0.0000E+00    0.0000E+00    1.434000E+09  0.00800  1.645E-04    0   0.5787   age139_m52            0.0000     3.0994E+01     5.2421   0.4736   105.9724
 93      0.0000     0.0000E+00    0.0000E+00    2.500000E+09  0.00800  7.723E-05    0   0.5519   age150_m52            0.0000     3.9378E+01     5.7295   0.1693   100.6319
 94      0.0000     0.0000E+00    0.0000E+00    4.250000E+09  0.00800  4.151E-05    0   0.5320   age158_m52            0.0000     4.2240E+01     5.8211   0.1092    97.6920
 95      0.0000     0.0000E+00    0.0000E+00    6.250000E+09  0.00800  3.010E-05    0   0.5197   age166_m52            0.0000     5.6433E+01     6.6011  -0.0675    95.7282
 96      0.0000     0.0000E+00    0.0000E+00    7.500000E+09  0.00800  2.467E-05    0   0.5139   age171_m52            0.0000     6.0462E+01     6.8090  -0.1052    95.2268
 97      0.0000     0.0000E+00    0.0000E+00    1.000000E+10  0.00800  1.862E-05    0   0.5054   age181_m52            0.0000     7.3601E+01     7.4677  -0.2263    94.6084
