###################################################################
## OUTPUT of StarlightChains_v04.for    [Cid@UFSC - 01/Apr/2007] ##
###################################################################

## Some input info
NGC5904_b_1.cxt                          [arq_obs]
Base.BC03.S                              [arq_base]
NGC5904_b_1.msk                          [arq_masks]
StCv04.C11.config                        [arq_config]
  150                                    [N_base]
    0                                    [N_YAV_components = # of components with extra extinction!]
    0                                    [i_FitPowerLaw (1/0 = Yes/No)]
-9.99                                    [alpha_PowerLaw]
CCM                                      [red_law_option]
 1.458241                                [q_norm = A(l_norm)/A(V)]

## (Re)Sampling Parameters
 3359.00                                 [l_ini (A)]
 6428.00                                 [l_fin (A)]
    1.00                                 [dl    (A)]     (OBS: dl_cushion =    50.00 A)

## Normalization info
 4020.00                                 [l_norm (A) - for base]
 4010.00                                 [llow_norm (A) - window for f_obs]
 4060.00                                 [lupp_norm (A) - window for f_obs]
8.938202E-14                             [fobs_norm (in input units)]

## S/N
 4730.00                                 [llow_SN (A) - window for S/N]
 4780.00                                 [lupp_SN (A) - window for S/N]
  94.706                                 [S/N in S/N window]
  90.136                                 [S/N in norm. window]
 354.791                                 [S/N_err in S/N window]
 337.672                                 [S/N_err in norm. window]
  1.0000                                 [fscale_chi2]

## etc...
  2147483634                             [idum_orig]
  3069                                   [NOl_eff]
   976                                   [Nl_eff]
  2093    NSIGMA                         [Ntot_cliped & clip_method]
  1778770                                [Nglobal_steps]
   7                                     [N_chains]
  19                                     [NEX0s_base = N_base in EX0s-fits]
 0   0   1      257   2.0   7.095E+02    [Clip-Bug, RC-Crash & Burn-In warning-flags, n_censored_weights, wei_nsig_threshold & wei_limit]
    83     82.658     82.642      0.016  [idt_all, wdt_TotTime, wdt_UsrTime & wdt_SysTime (sec)]

## Synthesis Results - Best model ##

 2.67613E+00                             [chi2/Nl_eff]
     0.53442                             [adev (%)]

   100.99282                             [sum-of-x (%)]
 1.16849E-13                             [Flux_tot (units of input spectrum!)]
 1.29602E-09                             [Mini_tot (???)]
 6.77989E-10                             [Mcor_tot (???)]

 -17.60                                  [v0_min  (km/s)]
  67.27                                  [vd_min  (km/s)]
 0.1922                                  [AV_min  (mag)]
 0.0000                                  [YAV_min (mag)]

# j     x_j(%)      Mini_j(%)     Mcor_j(%)     age_j(yr)     Z_j      (L/M)_j    YAV?  Mstars   component_j        a/Fe...       SSP_chi2r SSP_adev(%)   SSP_AV   SSP_x(%)
  1      0.0000     0.0000E+00    0.0000E+00    1.000000E+06  0.00010  8.160E-03    0   1.0000   age020_m22            0.0000     1.8297E+03    11.5584   3.5839    74.2513
  2     19.2734     3.6155E-02    6.9112E-02    3.160000E+06  0.00010  4.759E-02    0   1.0000   age045_m22            0.0000     2.5379E+02     4.6135   1.5298    95.4879
  3      0.0000     0.0000E+00    0.0000E+00    5.010000E+06  0.00010  1.932E-02    0   0.9582   age055_m22            0.0000     1.7660E+03    11.4638   1.8654    80.9148
  4      0.0000     0.0000E+00    0.0000E+00    6.610000E+06  0.00010  9.973E-03    0   0.9297   age061_m22            0.0000     1.8905E+03    11.8605   3.5314    77.3343
  5      0.0000     0.0000E+00    0.0000E+00    8.710000E+06  0.00010  7.690E-03    0   0.9030   age067_m22            0.0000     1.7900E+03    11.5766   3.5218    77.8145
  6      0.0000     0.0000E+00    0.0000E+00    1.000000E+07  0.00010  6.375E-03    0   0.8902   age070_m22            0.0000     1.7125E+03    11.3556   3.5359    77.9836
  7      0.0000     0.0000E+00    0.0000E+00    1.445000E+07  0.00010  4.874E-03    0   0.8589   age078_m22            0.0000     1.2547E+03     9.9267   3.3518    80.9897
  8      0.0000     0.0000E+00    0.0000E+00    2.512000E+07  0.00010  4.103E-03    0   0.8174   age090_m22            0.0000     5.3933E+02     6.9902   2.9247    88.2604
  9      0.0000     0.0000E+00    0.0000E+00    4.000000E+07  0.00010  3.654E-03    0   0.7830   age104_m22            0.0000     2.9023E+02     4.9950   2.6045    94.0780
 10      0.0000     0.0000E+00    0.0000E+00    5.500000E+07  0.00010  3.093E-03    0   0.7597   age110_m22            0.0000     2.5800E+02     4.3576   2.4967    96.0034
 11      0.0000     0.0000E+00    0.0000E+00    1.015200E+08  0.00010  2.431E-03    0   0.7138   age116_m22            0.0000     3.2754E+02     4.0605   2.1368    99.6673
 12      0.0000     0.0000E+00    0.0000E+00    1.609000E+08  0.00010  1.319E-03    0   0.6775   age120_m22            0.0000     3.1773E+02     3.6258   1.6608   102.0271
 13      0.0000     0.0000E+00    0.0000E+00    2.861200E+08  0.00010  1.075E-03    0   0.6412   age125_m22            0.0000     1.0191E+03     6.2925   1.7051   106.9618
 14      0.0000     0.0000E+00    0.0000E+00    5.088000E+08  0.00010  7.183E-04    0   0.6083   age130_m22            0.0000     1.3077E+03     7.3346   1.4708   109.0621
 15      0.0000     0.0000E+00    0.0000E+00    9.047900E+08  0.00010  4.524E-04    0   0.5785   age135_m22            0.0000     1.3313E+03     7.4865   1.2712   110.3815
 16      0.0000     0.0000E+00    0.0000E+00    1.278050E+09  0.00010  3.018E-04    0   0.5588   age138_m22            0.0000     5.2608E+02     4.6004   0.7537   107.5879
 17      0.0000     0.0000E+00    0.0000E+00    1.434000E+09  0.00010  2.691E-04    0   0.5532   age139_m22            0.0000     3.9910E+02     4.0141   0.6010   106.7788
 18      0.0000     0.0000E+00    0.0000E+00    2.500000E+09  0.00010  1.582E-04    0   0.5296   age150_m22            0.0000     3.1508E+02     3.4294   0.4892   107.3654
 19      0.0000     0.0000E+00    0.0000E+00    4.250000E+09  0.00010  1.007E-04    0   0.5110   age158_m22            0.0000     1.3017E+02     2.3109   0.3482   104.9285
 20      0.0087     1.1370E-02    1.0834E-02    6.250000E+09  0.00010  6.869E-05    0   0.4985   age166_m22            0.0000     4.2248E+01     1.6394   0.3018   101.3869
 21      0.0000     0.0000E+00    0.0000E+00    7.500000E+09  0.00010  5.873E-05    0   0.4931   age171_m22            0.0000     4.4951E+01     1.7716   0.2915   100.7263
 22      0.0000     0.0000E+00    0.0000E+00    1.000000E+10  0.00010  4.481E-05    0   0.4854   age181_m22            0.0000     4.1411E+01     1.7221   0.2544   100.3270
 23      0.0000     0.0000E+00    0.0000E+00    1.300000E+10  0.00010  3.489E-05    0   0.4791   age193_m22            0.0000     3.4642E+01     1.6011   0.2000    99.6732
 24      0.0000     0.0000E+00    0.0000E+00    1.500000E+10  0.00010  3.035E-05    0   0.4766   age201_m22            0.0000     3.2277E+01     1.5513   0.1619    99.4201
 25      0.0000     0.0000E+00    0.0000E+00    1.800000E+10  0.00010  2.510E-05    0   0.4735   age213_m22            0.0000     3.0338E+01     1.5041   0.0957    98.6601
 26      0.0000     0.0000E+00    0.0000E+00    1.000000E+06  0.00040  8.458E-03    0   1.0000   age020_m32            0.0000     1.8288E+03    11.5812   3.5935    75.0148
 27      0.0000     0.0000E+00    0.0000E+00    3.160000E+06  0.00040  3.973E-02    0   1.0000   age045_m32            0.0000     6.0549E+02     7.2809   2.8211    88.1679
 28      0.0000     0.0000E+00    0.0000E+00    5.010000E+06  0.00040  1.935E-02    0   0.9532   age055_m32            0.0000     1.4420E+03    10.6630   3.0663    81.5595
 29      0.0000     0.0000E+00    0.0000E+00    6.610000E+06  0.00040  1.204E-02    0   0.9243   age061_m32            0.0000     1.5652E+03    10.9376   3.3865    79.4593
 30      0.0000     0.0000E+00    0.0000E+00    8.710000E+06  0.00040  9.433E-03    0   0.9001   age067_m32            0.0000     1.3962E+03    10.4200   3.3577    80.4075
 31      0.0000     0.0000E+00    0.0000E+00    1.000000E+07  0.00040  8.053E-03    0   0.8877   age070_m32            0.0000     1.3308E+03    10.1968   3.3208    80.9093
 32      0.0000     0.0000E+00    0.0000E+00    1.445000E+07  0.00040  7.027E-03    0   0.8578   age078_m32            0.0000     8.0305E+02     8.3187   2.7827    86.7042
 33      0.0000     0.0000E+00    0.0000E+00    2.512000E+07  0.00040  4.707E-03    0   0.8166   age090_m32            0.0000     4.6556E+02     6.6009   2.4752    91.2059
 34      0.0000     0.0000E+00    0.0000E+00    4.000000E+07  0.00040  3.714E-03    0   0.7827   age104_m32            0.0000     2.7952E+02     4.9992   2.2578    95.3452
 35      0.0000     0.0000E+00    0.0000E+00    5.500000E+07  0.00040  2.982E-03    0   0.7593   age110_m32            0.0000     2.5498E+02     4.4719   2.1907    96.8874
 36      0.0000     0.0000E+00    0.0000E+00    1.015200E+08  0.00040  2.188E-03    0   0.7143   age116_m32            0.0000     4.7643E+02     4.3476   1.9033   102.5269
 37      0.0000     0.0000E+00    0.0000E+00    1.609000E+08  0.00040  1.690E-03    0   0.6856   age120_m32            0.0000     7.8226E+02     5.2344   1.6805   106.0316
 38      0.0000     0.0000E+00    0.0000E+00    2.861200E+08  0.00040  1.152E-03    0   0.6509   age125_m32            0.0000     1.0884E+03     6.5151   1.4547   108.3042
 39      0.0000     0.0000E+00    0.0000E+00    5.088000E+08  0.00040  7.331E-04    0   0.6182   age130_m32            0.0000     1.2130E+03     7.0788   1.2926   109.1183
 40      0.0000     0.0000E+00    0.0000E+00    9.047900E+08  0.00040  3.960E-04    0   0.5890   age135_m32            0.0000     5.6374E+02     5.1277   0.8483   106.7933
 41      0.0000     0.0000E+00    0.0000E+00    1.278050E+09  0.00040  2.854E-04    0   0.5687   age138_m32            0.0000     3.9446E+02     3.9214   0.5549   108.4586
 42      0.0000     0.0000E+00    0.0000E+00    1.434000E+09  0.00040  2.531E-04    0   0.5632   age139_m32            0.0000     3.7809E+02     3.7725   0.4928   108.4439
 43     13.9865     8.3913E+00    8.6394E+00    2.500000E+09  0.00040  1.488E-04    0   0.5386   age150_m32            0.0000     2.2161E+02     2.8791   0.2397   106.3128
 44     38.3138     3.7661E+01    3.7429E+01    4.250000E+09  0.00040  9.082E-05    0   0.5199   age158_m32            0.0000     2.8365E+01     1.1808   0.1607   101.6998
 45      1.0675     1.4979E+00    1.4534E+00    6.250000E+09  0.00040  6.362E-05    0   0.5076   age166_m32            0.0000     5.1372E+01     1.7424   0.1349    97.2985
 46      1.5891     2.6823E+00    2.5775E+00    7.500000E+09  0.00040  5.289E-05    0   0.5027   age171_m32            0.0000     6.6962E+01     1.9033   0.1020    95.8758
 47      0.0000     0.0000E+00    0.0000E+00    1.000000E+10  0.00040  3.972E-05    0   0.4948   age181_m32            0.0000     7.6033E+01     1.9185   0.0434    94.4277
 48      0.0000     0.0000E+00    0.0000E+00    1.300000E+10  0.00040  3.283E-05    0   0.4870   age193_m32            0.0000     2.0714E+01     1.1349  -0.0098    97.6252
 49      0.0000     0.0000E+00    0.0000E+00    1.500000E+10  0.00040  2.925E-05    0   0.4854   age201_m32            0.0000     1.1439E+01     0.9304  -0.0338    99.5164
 50      0.0000     0.0000E+00    0.0000E+00    1.800000E+10  0.00040  2.469E-05    0   0.4819   age213_m32            0.0000     1.2491E+01     0.9494  -0.0765   100.1397
 51      0.0000     0.0000E+00    0.0000E+00    1.000000E+06  0.00400  1.114E-02    0   1.0000   age020_m42            0.0000     1.7410E+03    11.2569   3.5240    75.4421
 52      0.0000     0.0000E+00    0.0000E+00    3.160000E+06  0.00400  4.073E-02    0   0.9999   age045_m42            0.0000     3.9065E+02     5.9111   2.5136    91.1050
 53      0.0000     0.0000E+00    0.0000E+00    5.010000E+06  0.00400  2.534E-02    0   0.9488   age055_m42            0.0000     9.0840E+02     8.5774   2.9394    83.9870
 54      0.0000     0.0000E+00    0.0000E+00    6.610000E+06  0.00400  2.583E-02    0   0.9220   age061_m42            0.0000     2.9109E+02     5.2323   2.3236    92.3209
 55      0.0000     0.0000E+00    0.0000E+00    8.710000E+06  0.00400  1.706E-02    0   0.8983   age067_m42            0.0000     5.4065E+02     7.0721   2.1559    89.9144
 56      0.0000     0.0000E+00    0.0000E+00    1.000000E+07  0.00400  1.271E-02    0   0.8862   age070_m42            0.0000     8.2683E+02     8.6592   2.1464    88.0848
 57      0.0000     0.0000E+00    0.0000E+00    1.445000E+07  0.00400  7.666E-03    0   0.8571   age078_m42            0.0000     1.0670E+03     9.3608   2.5625    84.3548
 58      0.0000     0.0000E+00    0.0000E+00    2.512000E+07  0.00400  5.070E-03    0   0.8174   age090_m42            0.0000     7.0418E+02     8.0231   2.0111    89.8137
 59      0.0000     0.0000E+00    0.0000E+00    4.000000E+07  0.00400  3.505E-03    0   0.7851   age104_m42            0.0000     3.9631E+02     6.0666   1.6850    93.1883
 60      0.0000     0.0000E+00    0.0000E+00    5.500000E+07  0.00400  3.059E-03    0   0.7629   age110_m42            0.0000     1.6643E+02     3.2192   1.7192    99.2135
 61      0.0000     0.0000E+00    0.0000E+00    1.015200E+08  0.00400  2.268E-03    0   0.7207   age116_m42            0.0000     6.5630E+02     4.8300   1.6032   106.2247
 62      0.0000     0.0000E+00    0.0000E+00    1.609000E+08  0.00400  1.720E-03    0   0.6930   age120_m42            0.0000     7.5847E+02     5.4395   1.4589   108.0301
 63      0.0000     0.0000E+00    0.0000E+00    2.861200E+08  0.00400  1.079E-03    0   0.6613   age125_m42            0.0000     7.6103E+02     5.4677   1.1063   108.5811
 64      0.0000     0.0000E+00    0.0000E+00    5.088000E+08  0.00400  6.261E-04    0   0.6313   age130_m42            0.0000     9.1005E+02     5.9866   0.9020   112.0724
 65      0.0000     0.0000E+00    0.0000E+00    9.047900E+08  0.00400  3.535E-04    0   0.6024   age135_m42            0.0000     4.5983E+02     4.5398   0.5129   111.4783
 66      0.0000     0.0000E+00    0.0000E+00    1.278050E+09  0.00400  2.677E-04    0   0.5837   age138_m42            0.0000     2.2230E+02     4.2212  -0.1400   106.8966
 67      0.8110     3.7906E-01    4.1418E-01    1.434000E+09  0.00400  1.910E-04    0   0.5716   age139_m42            0.0000     2.3174E+02     4.0932   0.0199   108.2447
 68     10.5228     9.5682E+00    9.9920E+00    2.500000E+09  0.00400  9.818E-05    0   0.5463   age150_m42            0.0000     1.6730E+02     3.5576  -0.2186   101.6639
 69      0.0000     0.0000E+00    0.0000E+00    4.250000E+09  0.00400  5.491E-05    0   0.5269   age158_m42            0.0000     2.2587E+02     3.5470  -0.3324    98.2525
 70      0.4846     1.1217E+00    1.1045E+00    6.250000E+09  0.00400  3.857E-05    0   0.5151   age166_m42            0.0000     3.3444E+02     4.1599  -0.4498    96.5118
 71      1.9533     5.3772E+00    5.2525E+00    7.500000E+09  0.00400  3.243E-05    0   0.5110   age171_m42            0.0000     4.1088E+02     4.5671  -0.5236    95.7648
 72      0.0000     0.0000E+00    0.0000E+00    1.000000E+10  0.00400  2.424E-05    0   0.5028   age181_m42            0.0000     5.2035E+02     5.0889  -0.5975    94.9136
 73      0.0000     0.0000E+00    0.0000E+00    1.300000E+10  0.00400  1.883E-05    0   0.4927   age193_m42            0.0000     6.0597E+02     5.4395  -0.6331    94.4212
 74      0.0000     0.0000E+00    0.0000E+00    1.500000E+10  0.00400  1.685E-05    0   0.4919   age201_m42            0.0000     5.8000E+02     5.3033  -0.6305    94.4867
 75      0.0000     0.0000E+00    0.0000E+00    1.800000E+10  0.00400  1.452E-05    0   0.4874   age213_m42            0.0000     5.3434E+02     5.0793  -0.6185    94.8209
 76      0.0000     0.0000E+00    0.0000E+00    1.000000E+06  0.00800  1.286E-02    0   1.0000   age020_m52            0.0000     1.5516E+03    10.7050   3.4952    77.3924
 77      0.0000     0.0000E+00    0.0000E+00    3.160000E+06  0.00800  3.147E-02    0   0.9966   age045_m52            0.0000     1.4876E+03    10.5425   3.4007    79.0863
 78      0.0000     0.0000E+00    0.0000E+00    5.010000E+06  0.00800  2.664E-02    0   0.9443   age055_m52            0.0000     1.0478E+03     8.9652   3.0652    82.8064
 79      0.0000     0.0000E+00    0.0000E+00    6.610000E+06  0.00800  2.151E-02    0   0.9177   age061_m52            0.0000     6.6421E+02     7.1813   1.7449    89.5657
 80      0.0000     0.0000E+00    0.0000E+00    8.710000E+06  0.00800  1.628E-02    0   0.8948   age067_m52            0.0000     6.3764E+02     7.4646   2.1094    90.3017
 81      0.0000     0.0000E+00    0.0000E+00    1.000000E+07  0.00800  1.215E-02    0   0.8827   age070_m52            0.0000     7.9444E+02     8.2621   2.4546    88.2431
 82      0.0000     0.0000E+00    0.0000E+00    1.445000E+07  0.00800  8.739E-03    0   0.8552   age078_m52            0.0000     6.1853E+02     7.3770   2.4885    89.9096
 83      0.0000     0.0000E+00    0.0000E+00    2.512000E+07  0.00800  5.676E-03    0   0.8162   age090_m52            0.0000     3.9524E+02     5.9757   2.0664    95.6896
 84      0.0000     0.0000E+00    0.0000E+00    4.000000E+07  0.00800  3.939E-03    0   0.7841   age104_m52            0.0000     2.8472E+02     4.5419   1.8974    98.8039
 85      0.0000     0.0000E+00    0.0000E+00    5.500000E+07  0.00800  3.155E-03    0   0.7627   age110_m52            0.0000     2.7551E+02     3.6536   1.8626   100.9719
 86      0.0000     0.0000E+00    0.0000E+00    1.015200E+08  0.00800  2.206E-03    0   0.7226   age116_m52            0.0000     4.6001E+02     3.9220   1.6695   105.5147
 87      0.0000     0.0000E+00    0.0000E+00    1.609000E+08  0.00800  1.596E-03    0   0.6963   age120_m52            0.0000     5.8179E+02     4.6882   1.4493   107.5292
 88      0.0000     0.0000E+00    0.0000E+00    2.861200E+08  0.00800  1.002E-03    0   0.6665   age125_m52            0.0000     1.0083E+03     6.8405   1.1478   110.9819
 89      0.0000     0.0000E+00    0.0000E+00    5.088000E+08  0.00800  5.759E-04    0   0.6377   age130_m52            0.0000     1.1279E+03     7.7056   0.7961   115.1264
 90      0.0000     0.0000E+00    0.0000E+00    9.047900E+08  0.00800  2.972E-04    0   0.6086   age135_m52            0.0000     6.3113E+02     6.5063   0.2831   112.6475
 91      0.0000     0.0000E+00    0.0000E+00    1.278050E+09  0.00800  2.242E-04    0   0.5907   age138_m52            0.0000     3.8992E+02     5.4999  -0.3066   109.5288
 92      0.0000     0.0000E+00    0.0000E+00    1.434000E+09  0.00800  1.645E-04    0   0.5787   age139_m52            0.0000     3.0092E+02     4.8412  -0.1593   108.8679
 93      1.7241     1.9930E+00    2.1026E+00    2.500000E+09  0.00800  7.723E-05    0   0.5519   age150_m52            0.0000     3.9394E+02     5.1282  -0.4755   103.7961
 94      1.5514     3.3364E+00    3.3930E+00    4.250000E+09  0.00800  4.151E-05    0   0.5320   age158_m52            0.0000     4.3132E+02     5.1140  -0.5341   100.7173
 95      0.0000     0.0000E+00    0.0000E+00    6.250000E+09  0.00800  3.010E-05    0   0.5197   age166_m52            0.0000     6.4092E+02     5.9996  -0.7166    98.8340
 96      2.1538     7.7939E+00    7.6563E+00    7.500000E+09  0.00800  2.467E-05    0   0.5139   age171_m52            0.0000     7.0100E+02     6.2573  -0.7555    98.3430
 97      0.7338     3.5181E+00    3.3988E+00    1.000000E+10  0.00800  1.862E-05    0   0.5054   age181_m52            0.0000     8.9879E+02     7.0859  -0.8788    97.7155
