###################################################################
## OUTPUT of StarlightChains_v04.for    [Cid@UFSC - 01/Apr/2007] ##
###################################################################

## Some input info
NGC5286_b_1.cxt                          [arq_obs]
Base.BC03.S                              [arq_base]
NGC5286_b_1.msk                          [arq_masks]
StCv04.C11.config                        [arq_config]
  150                                    [N_base]
    0                                    [N_YAV_components = # of components with extra extinction!]
    0                                    [i_FitPowerLaw (1/0 = Yes/No)]
-9.99                                    [alpha_PowerLaw]
CCM                                      [red_law_option]
 1.458241                                [q_norm = A(l_norm)/A(V)]

## (Re)Sampling Parameters
 3359.00                                 [l_ini (A)]
 6428.00                                 [l_fin (A)]
    1.00                                 [dl    (A)]     (OBS: dl_cushion =    50.00 A)

## Normalization info
 4020.00                                 [l_norm (A) - for base]
 4010.00                                 [llow_norm (A) - window for f_obs]
 4060.00                                 [lupp_norm (A) - window for f_obs]
1.497078E-14                             [fobs_norm (in input units)]

## S/N
 4730.00                                 [llow_SN (A) - window for S/N]
 4780.00                                 [lupp_SN (A) - window for S/N]
 111.377                                 [S/N in S/N window]
  94.497                                 [S/N in norm. window]
  66.783                                 [S/N_err in S/N window]
  56.662                                 [S/N_err in norm. window]
  1.0000                                 [fscale_chi2]

## etc...
  2147483637                             [idum_orig]
  3067                                   [NOl_eff]
  2310                                   [Nl_eff]
   757    NSIGMA                         [Ntot_cliped & clip_method]
  1480920                                [Nglobal_steps]
   7                                     [N_chains]
  21                                     [NEX0s_base = N_base in EX0s-fits]
 0   0   1      308   2.0   8.976E+02    [Clip-Bug, RC-Crash & Burn-In warning-flags, n_censored_weights, wei_nsig_threshold & wei_limit]
    54     54.656     54.644      0.012  [idt_all, wdt_TotTime, wdt_UsrTime & wdt_SysTime (sec)]

## Synthesis Results - Best model ##

 2.09098E+00                             [chi2/Nl_eff]
     1.63308                             [adev (%)]

   101.48882                             [sum-of-x (%)]
 4.65231E-14                             [Flux_tot (units of input spectrum!)]
 7.22449E-10                             [Mini_tot (???)]
 3.68409E-10                             [Mcor_tot (???)]

 -27.85                                  [v0_min  (km/s)]
  98.83                                  [vd_min  (km/s)]
 0.8332                                  [AV_min  (mag)]
 0.0000                                  [YAV_min (mag)]

# j     x_j(%)      Mini_j(%)     Mcor_j(%)     age_j(yr)     Z_j      (L/M)_j    YAV?  Mstars   component_j        a/Fe...       SSP_chi2r SSP_adev(%)   SSP_AV   SSP_x(%)
  1      0.0000     0.0000E+00    0.0000E+00    1.000000E+06  0.00010  8.160E-03    0   1.0000   age020_m22            0.0000     3.1362E+02    16.9428   4.0000    68.0043
  2     20.5857     2.7447E-02    5.3823E-02    3.160000E+06  0.00010  4.759E-02    0   1.0000   age045_m22            0.0000     2.1583E+01     3.4796   2.1390    94.2216
  3      0.0000     0.0000E+00    0.0000E+00    5.010000E+06  0.00010  1.932E-02    0   0.9582   age055_m22            0.0000     1.8024E+02    11.9822   2.6844    73.5026
  4      0.0000     0.0000E+00    0.0000E+00    6.610000E+06  0.00010  9.973E-03    0   0.9297   age061_m22            0.0000     2.8659E+02    15.6996   4.0000    70.6840
  5      0.0000     0.0000E+00    0.0000E+00    8.710000E+06  0.00010  7.690E-03    0   0.9030   age067_m22            0.0000     2.6900E+02    15.0816   4.0000    71.3360
  6      0.0000     0.0000E+00    0.0000E+00    1.000000E+07  0.00010  6.375E-03    0   0.8902   age070_m22            0.0000     2.6361E+02    15.0179   4.0000    71.7375
  7      0.0000     0.0000E+00    0.0000E+00    1.445000E+07  0.00010  4.874E-03    0   0.8589   age078_m22            0.0000     1.4516E+02     9.7631   4.0000    75.4930
  8      0.0000     0.0000E+00    0.0000E+00    2.512000E+07  0.00010  4.103E-03    0   0.8174   age090_m22            0.0000     4.9719E+01     5.9399   3.5912    85.1527
  9      0.0066     1.1391E-04    1.7490E-04    4.000000E+07  0.00010  3.654E-03    0   0.7830   age104_m22            0.0000     4.1883E+01     3.7738   3.1627    94.2899
 10      0.0000     0.0000E+00    0.0000E+00    5.500000E+07  0.00010  3.093E-03    0   0.7597   age110_m22            0.0000     4.9638E+01     3.4234   3.0051    98.0160
 11      4.7663     1.2441E-01    1.7414E-01    1.015200E+08  0.00010  2.431E-03    0   0.7138   age116_m22            0.0000     8.7384E+01     4.3122   2.5707   104.4217
 12      0.0000     0.0000E+00    0.0000E+00    1.609000E+08  0.00010  1.319E-03    0   0.6775   age120_m22            0.0000     6.5698E+01     4.9788   2.0614   108.6543
 13      0.0000     0.0000E+00    0.0000E+00    2.861200E+08  0.00010  1.075E-03    0   0.6412   age125_m22            0.0000     2.4536E+02    11.4138   1.8316   124.5064
 14      0.0000     0.0000E+00    0.0000E+00    5.088000E+08  0.00010  7.183E-04    0   0.6083   age130_m22            0.0000     3.0283E+02    13.6525   1.4917   131.2148
 15      0.0000     0.0000E+00    0.0000E+00    9.047900E+08  0.00010  4.524E-04    0   0.5785   age135_m22            0.0000     2.9995E+02    14.0476   1.2729   133.5738
 16      0.0000     0.0000E+00    0.0000E+00    1.278050E+09  0.00010  3.018E-04    0   0.5588   age138_m22            0.0000     1.0826E+02     8.9176   0.9824   121.2870
 17      0.0000     0.0000E+00    0.0000E+00    1.434000E+09  0.00010  2.691E-04    0   0.5532   age139_m22            0.0000     8.1597E+01     7.9123   0.8723   118.6987
 18      0.0000     0.0000E+00    0.0000E+00    2.500000E+09  0.00010  1.582E-04    0   0.5296   age150_m22            0.0000     6.4250E+01     6.7768   0.8034   117.5926
 19      0.0000     0.0000E+00    0.0000E+00    4.250000E+09  0.00010  1.007E-04    0   0.5110   age158_m22            0.0000     2.4980E+01     4.5160   0.7531   111.4886
 20      0.0000     0.0000E+00    0.0000E+00    6.250000E+09  0.00010  6.869E-05    0   0.4985   age166_m22            0.0000     7.3933E+00     2.5898   0.7898   104.6651
 21      0.0000     0.0000E+00    0.0000E+00    7.500000E+09  0.00010  5.873E-05    0   0.4931   age171_m22            0.0000     6.1461E+00     2.2660   0.7975   103.2898
 22      0.0000     0.0000E+00    0.0000E+00    1.000000E+10  0.00010  4.481E-05    0   0.4854   age181_m22            0.0000     5.7064E+00     2.2439   0.7605   102.8799
 23      0.0000     0.0000E+00    0.0000E+00    1.300000E+10  0.00010  3.489E-05    0   0.4791   age193_m22            0.0000     5.1323E+00     2.1564   0.7097   102.1033
 24      0.0000     0.0000E+00    0.0000E+00    1.500000E+10  0.00010  3.035E-05    0   0.4766   age201_m22            0.0000     4.8661E+00     2.0856   0.6758   101.7041
 25      3.8089     9.6288E+00    8.9406E+00    1.800000E+10  0.00010  2.510E-05    0   0.4735   age213_m22            0.0000     4.8675E+00     1.9293   0.6221   100.5103
 26      0.0000     0.0000E+00    0.0000E+00    1.000000E+06  0.00040  8.458E-03    0   1.0000   age020_m32            0.0000     3.1721E+02    17.1352   4.0000    68.6828
 27      0.0000     0.0000E+00    0.0000E+00    3.160000E+06  0.00040  3.973E-02    0   1.0000   age045_m32            0.0000     5.7637E+01     6.4571   3.5062    84.4760
 28      0.0000     0.0000E+00    0.0000E+00    5.010000E+06  0.00040  1.935E-02    0   0.9532   age055_m32            0.0000     1.4123E+02    10.5929   3.8529    74.9755
 29      0.0000     0.0000E+00    0.0000E+00    6.610000E+06  0.00040  1.204E-02    0   0.9243   age061_m32            0.0000     1.8999E+02    11.7086   4.0000    73.2097
 30      0.0000     0.0000E+00    0.0000E+00    8.710000E+06  0.00040  9.433E-03    0   0.9001   age067_m32            0.0000     1.6137E+02    10.5944   4.0000    74.4852
 31      0.0000     0.0000E+00    0.0000E+00    1.000000E+07  0.00040  8.053E-03    0   0.8877   age070_m32            0.0000     1.4787E+02     9.9838   4.0000    75.0363
 32      0.0000     0.0000E+00    0.0000E+00    1.445000E+07  0.00040  7.027E-03    0   0.8578   age078_m32            0.0000     7.2866E+01     7.6442   3.4989    82.0619
 33      0.0000     0.0000E+00    0.0000E+00    2.512000E+07  0.00040  4.707E-03    0   0.8166   age090_m32            0.0000     3.9395E+01     5.4434   3.1257    88.5631
 34      0.0000     0.0000E+00    0.0000E+00    4.000000E+07  0.00040  3.714E-03    0   0.7827   age104_m32            0.0000     3.3176E+01     3.7868   2.8247    95.3507
 35      0.0001     1.1198E-06    1.6673E-06    5.500000E+07  0.00040  2.982E-03    0   0.7593   age110_m32            0.0000     4.0987E+01     3.4545   2.7155    98.3652
 36      0.0000     0.0000E+00    0.0000E+00    1.015200E+08  0.00040  2.188E-03    0   0.7143   age116_m32            0.0000     1.3053E+02     6.4624   2.2432   111.0473
 37      0.0000     0.0000E+00    0.0000E+00    1.609000E+08  0.00040  1.690E-03    0   0.6856   age120_m32            0.0000     2.1503E+02     9.2427   1.9033   119.4358
 38      0.0000     0.0000E+00    0.0000E+00    2.861200E+08  0.00040  1.152E-03    0   0.6509   age125_m32            0.0000     2.5703E+02    12.0697   1.5476   127.3471
 39      0.0000     0.0000E+00    0.0000E+00    5.088000E+08  0.00040  7.331E-04    0   0.6182   age130_m32            0.0000     2.7643E+02    13.2592   1.3291   130.6448
 40      0.0000     0.0000E+00    0.0000E+00    9.047900E+08  0.00040  3.960E-04    0   0.5890   age135_m32            0.0000     1.1157E+02     9.5254   1.0574   121.1845
 41      0.0000     0.0000E+00    0.0000E+00    1.278050E+09  0.00040  2.854E-04    0   0.5687   age138_m32            0.0000     7.9584E+01     7.7194   0.8325   120.3101
 42      0.0000     0.0000E+00    0.0000E+00    1.434000E+09  0.00040  2.531E-04    0   0.5632   age139_m32            0.0000     7.7363E+01     7.5173   0.7769   119.9940
 43      9.5063     4.0537E+00    4.2815E+00    2.500000E+09  0.00040  1.488E-04    0   0.5386   age150_m32            0.0000     4.8552E+01     6.0140   0.5829   115.2044
 44     46.0754     3.2191E+01    3.2819E+01    4.250000E+09  0.00040  9.082E-05    0   0.5199   age158_m32            0.0000     7.8597E+00     2.8118   0.6335   105.5652
 45      2.4528     2.4463E+00    2.4351E+00    6.250000E+09  0.00040  6.362E-05    0   0.5076   age166_m32            0.0000     9.6818E+00     2.0254   0.7043    97.6704
 46      3.3061     3.9663E+00    3.9099E+00    7.500000E+09  0.00040  5.289E-05    0   0.5027   age171_m32            0.0000     1.3855E+01     2.2499   0.6837    95.8364
 47      0.6828     1.0907E+00    1.0583E+00    1.000000E+10  0.00040  3.972E-05    0   0.4948   age181_m32            0.0000     1.7761E+01     2.4084   0.6284    94.3054
 48      0.0201     3.8800E-02    3.7055E-02    1.300000E+10  0.00040  3.283E-05    0   0.4870   age193_m32            0.0000     8.2838E+00     2.0919   0.5282    99.2048
 49      0.0000     0.0000E+00    0.0000E+00    1.500000E+10  0.00040  2.925E-05    0   0.4854   age201_m32            0.0000     6.3579E+00     2.3289   0.4745   102.2123
 50      0.0000     0.0000E+00    0.0000E+00    1.800000E+10  0.00040  2.469E-05    0   0.4819   age213_m32            0.0000     6.7373E+00     2.5535   0.4189   103.3592
 51      0.0000     0.0000E+00    0.0000E+00    1.000000E+06  0.00400  1.114E-02    0   1.0000   age020_m42            0.0000     2.7748E+02    15.1107   4.0000    69.2850
 52      0.0000     0.0000E+00    0.0000E+00    3.160000E+06  0.00400  4.073E-02    0   0.9999   age045_m42            0.0000     3.5006E+01     4.7453   3.1508    88.9511
 53      0.0000     0.0000E+00    0.0000E+00    5.010000E+06  0.00400  2.534E-02    0   0.9488   age055_m42            0.0000     9.1496E+01     8.3127   3.6784    78.8365
 54      0.9942     2.4424E-03    4.4159E-03    6.610000E+06  0.00400  2.583E-02    0   0.9220   age061_m42            0.0000     3.1945E+01     4.0256   2.9343    90.9435
 55      0.0002     6.5561E-07    1.1549E-06    8.710000E+06  0.00400  1.706E-02    0   0.8983   age067_m42            0.0000     4.5185E+01     6.3415   2.8448    86.0828
 56      0.0000     0.0000E+00    0.0000E+00    1.000000E+07  0.00400  1.271E-02    0   0.8862   age070_m42            0.0000     6.8045E+01     8.2587   2.8809    82.9213
 57      0.0000     0.0000E+00    0.0000E+00    1.445000E+07  0.00400  7.666E-03    0   0.8571   age078_m42            0.0000     1.0526E+02     9.3849   3.3267    78.5438
 58      0.0000     0.0000E+00    0.0000E+00    2.512000E+07  0.00400  5.070E-03    0   0.8174   age090_m42            0.0000     6.3330E+01     7.6012   2.7302    85.2799
 59      0.0000     0.0000E+00    0.0000E+00    4.000000E+07  0.00400  3.505E-03    0   0.7851   age104_m42            0.0000     4.8475E+01     5.4927   2.3519    90.5657
 60      0.0000     0.0000E+00    0.0000E+00    5.500000E+07  0.00400  3.059E-03    0   0.7629   age110_m42            0.0000     3.4271E+01     2.9895   2.2231   102.2670
 61      0.0000     0.0000E+00    0.0000E+00    1.015200E+08  0.00400  2.268E-03    0   0.7207   age116_m42            0.0000     1.7075E+02     8.9147   1.8389   119.4813
 62      0.0000     0.0000E+00    0.0000E+00    1.609000E+08  0.00400  1.720E-03    0   0.6930   age120_m42            0.0000     1.8225E+02    10.0783   1.6416   123.7206
 63      0.0000     0.0000E+00    0.0000E+00    2.861200E+08  0.00400  1.079E-03    0   0.6613   age125_m42            0.0000     1.6438E+02    10.4012   1.2748   125.1315
 64      0.0000     0.0000E+00    0.0000E+00    5.088000E+08  0.00400  6.261E-04    0   0.6313   age130_m42            0.0000     2.0274E+02    11.5899   1.0168   131.1434
 65      0.0000     0.0000E+00    0.0000E+00    9.047900E+08  0.00400  3.535E-04    0   0.6024   age135_m42            0.0000     9.9531E+01     8.7176   0.7585   125.2205
 66      0.0000     0.0000E+00    0.0000E+00    1.278050E+09  0.00400  2.677E-04    0   0.5837   age138_m42            0.0000     5.5020E+01     6.4394   0.2377   115.3742
 67      0.0000     0.0000E+00    0.0000E+00    1.434000E+09  0.00400  1.910E-04    0   0.5716   age139_m42            0.0000     4.9803E+01     6.8639   0.3618   118.1668
 68      0.0000     0.0000E+00    0.0000E+00    2.500000E+09  0.00400  9.818E-05    0   0.5463   age150_m42            0.0000     4.1436E+01     4.8239   0.2534   106.3998
 69      0.0000     0.0000E+00    0.0000E+00    4.250000E+09  0.00400  5.491E-05    0   0.5269   age158_m42            0.0000     5.9605E+01     4.4512   0.1972   100.8681
 70      0.0000     0.0000E+00    0.0000E+00    6.250000E+09  0.00400  3.857E-05    0   0.5151   age166_m42            0.0000     7.4124E+01     4.9784   0.0918    98.7669
 71      0.0000     0.0000E+00    0.0000E+00    7.500000E+09  0.00400  3.243E-05    0   0.5110   age171_m42            0.0000     8.5145E+01     5.4955   0.0000    98.0733
 72      4.7657     1.2475E+01    1.2300E+01    1.000000E+10  0.00400  2.424E-05    0   0.5028   age181_m42            0.0000     1.0559E+02     5.8244  -0.0488    97.0147
 73      0.0000     0.0000E+00    0.0000E+00    1.300000E+10  0.00400  1.883E-05    0   0.4927   age193_m42            0.0000     1.2941E+02     6.1411  -0.0777    96.3355
 74      0.0000     0.0000E+00    0.0000E+00    1.500000E+10  0.00400  1.685E-05    0   0.4919   age201_m42            0.0000     1.2388E+02     6.0421  -0.0733    96.3497
 75      0.0000     0.0000E+00    0.0000E+00    1.800000E+10  0.00400  1.452E-05    0   0.4874   age213_m42            0.0000     1.1547E+02     5.8646  -0.0597    96.6547
 76      0.0000     0.0000E+00    0.0000E+00    1.000000E+06  0.00800  1.286E-02    0   1.0000   age020_m52            0.0000     2.4236E+02    13.4322   4.0000    71.5713
 77      0.0000     0.0000E+00    0.0000E+00    3.160000E+06  0.00800  3.147E-02    0   0.9966   age045_m52            0.0000     1.9687E+02    11.5815   4.0000    73.0526
 78      0.0000     0.0000E+00    0.0000E+00    5.010000E+06  0.00800  2.664E-02    0   0.9443   age055_m52            0.0000     1.2144E+02     8.9788   3.8196    77.3230
 79      0.0000     0.0000E+00    0.0000E+00    6.610000E+06  0.00800  2.151E-02    0   0.9177   age061_m52            0.0000     7.8086E+01     7.4237   2.4716    84.8246
 80      0.0000     0.0000E+00    0.0000E+00    8.710000E+06  0.00800  1.628E-02    0   0.8948   age067_m52            0.0000     6.5458E+01     6.9900   2.8174    86.1386
 81      0.0000     0.0000E+00    0.0000E+00    1.000000E+07  0.00800  1.215E-02    0   0.8827   age070_m52            0.0000     8.3053E+01     7.7796   3.1811    83.5920
 82      0.0000     0.0000E+00    0.0000E+00    1.445000E+07  0.00800  8.739E-03    0   0.8552   age078_m52            0.0000     6.5749E+01     6.6123   3.1829    86.1547
 83      0.0000     0.0000E+00    0.0000E+00    2.512000E+07  0.00800  5.676E-03    0   0.8162   age090_m52            0.0000     5.0406E+01     4.7190   2.6808    94.4381
 84      0.0000     0.0000E+00    0.0000E+00    4.000000E+07  0.00800  3.939E-03    0   0.7841   age104_m52            0.0000     5.1923E+01     3.3669   2.4309   100.4719
 85      0.0000     0.0000E+00    0.0000E+00    5.500000E+07  0.00800  3.155E-03    0   0.7627   age110_m52            0.0000     6.4382E+01     3.8006   2.3222   105.4268
 86      0.0000     0.0000E+00    0.0000E+00    1.015200E+08  0.00800  2.206E-03    0   0.7226   age116_m52            0.0000     1.1476E+02     7.1787   1.9778   116.0779
 87      0.0000     0.0000E+00    0.0000E+00    1.609000E+08  0.00800  1.596E-03    0   0.6963   age120_m52            0.0000     1.3613E+02     8.7488   1.6955   120.9180
 88      0.0000     0.0000E+00    0.0000E+00    2.861200E+08  0.00800  1.002E-03    0   0.6665   age125_m52            0.0000     2.1897E+02    12.5638   1.2305   131.5903
 89      0.0000     0.0000E+00    0.0000E+00    5.088000E+08  0.00800  5.759E-04    0   0.6377   age130_m52            0.0000     2.2180E+02    13.8216   0.8268   138.8936
 90      0.0000     0.0000E+00    0.0000E+00    9.047900E+08  0.00800  2.972E-04    0   0.6086   age135_m52            0.0000     1.0025E+02    10.4303   0.4855   128.8990
 91      0.0000     0.0000E+00    0.0000E+00    1.278050E+09  0.00800  2.242E-04    0   0.5907   age138_m52            0.0000     8.2022E+01     7.3740   0.0720   118.4724
 92      0.0000     0.0000E+00    0.0000E+00    1.434000E+09  0.00800  1.645E-04    0   0.5787   age139_m52            0.0000     7.0473E+01     6.6487   0.2373   117.0347
 93      0.0000     0.0000E+00    0.0000E+00    2.500000E+09  0.00800  7.723E-05    0   0.5519   age150_m52            0.0000     9.4001E+01     5.9914   0.0000   108.5007
 94      0.0000     0.0000E+00    0.0000E+00    4.250000E+09  0.00800  4.151E-05    0   0.5320   age158_m52            0.0000     9.1519E+01     5.7383  -0.0220   104.1384
 95      0.0000     0.0000E+00    0.0000E+00    6.250000E+09  0.00800  3.010E-05    0   0.5197   age166_m52            0.0000     1.2691E+02     6.4583  -0.1950   101.9577
 96      0.0000     0.0000E+00    0.0000E+00    7.500000E+09  0.00800  2.467E-05    0   0.5139   age171_m52            0.0000     1.3722E+02     6.6875  -0.2348   101.5078
 97      0.0000     0.0000E+00    0.0000E+00    1.000000E+10  0.00800  1.862E-05    0   0.5054   age181_m52            0.0000     1.7009E+02     7.4318  -0.3666   101.2841
