###################################################################
## OUTPUT of StarlightChains_v04.for    [Cid@UFSC - 01/Apr/2007] ##
###################################################################

## Some input info
NGC5904_a_1.cxt                          [arq_obs]
Base.BC03.S                              [arq_base]
NGC5904_a_1.msk                          [arq_masks]
StCv04.C11.config                        [arq_config]
  150                                    [N_base]
    0                                    [N_YAV_components = # of components with extra extinction!]
    0                                    [i_FitPowerLaw (1/0 = Yes/No)]
-9.99                                    [alpha_PowerLaw]
CCM                                      [red_law_option]
 1.458241                                [q_norm = A(l_norm)/A(V)]

## (Re)Sampling Parameters
 3359.00                                 [l_ini (A)]
 6428.00                                 [l_fin (A)]
    1.00                                 [dl    (A)]     (OBS: dl_cushion =    50.00 A)

## Normalization info
 4020.00                                 [l_norm (A) - for base]
 4010.00                                 [llow_norm (A) - window for f_obs]
 4060.00                                 [lupp_norm (A) - window for f_obs]
5.027376E-14                             [fobs_norm (in input units)]

## S/N
 4730.00                                 [llow_SN (A) - window for S/N]
 4780.00                                 [lupp_SN (A) - window for S/N]
  94.495                                 [S/N in S/N window]
  88.383                                 [S/N in norm. window]
 203.063                                 [S/N_err in S/N window]
 189.929                                 [S/N_err in norm. window]
  1.0000                                 [fscale_chi2]

## etc...
  2147483635                             [idum_orig]
  3069                                   [NOl_eff]
  1056                                   [Nl_eff]
  2013    NSIGMA                         [Ntot_cliped & clip_method]
  1336790                                [Nglobal_steps]
   7                                     [N_chains]
  16                                     [NEX0s_base = N_base in EX0s-fits]
 0   0   1      257   2.0   3.991E+02    [Clip-Bug, RC-Crash & Burn-In warning-flags, n_censored_weights, wei_nsig_threshold & wei_limit]
    70     70.856     70.844      0.012  [idt_all, wdt_TotTime, wdt_UsrTime & wdt_SysTime (sec)]

## Synthesis Results - Best model ##

 2.76410E+00                             [chi2/Nl_eff]
     0.92747                             [adev (%)]

   102.35206                             [sum-of-x (%)]
 6.53524E-14                             [Flux_tot (units of input spectrum!)]
 5.65647E-10                             [Mini_tot (???)]
 3.03541E-10                             [Mcor_tot (???)]

 -14.80                                  [v0_min  (km/s)]
  65.60                                  [vd_min  (km/s)]
 0.1780                                  [AV_min  (mag)]
 0.0000                                  [YAV_min (mag)]

# j     x_j(%)      Mini_j(%)     Mcor_j(%)     age_j(yr)     Z_j      (L/M)_j    YAV?  Mstars   component_j        a/Fe...       SSP_chi2r SSP_adev(%)   SSP_AV   SSP_x(%)
  1      0.0000     0.0000E+00    0.0000E+00    1.000000E+06  0.00010  8.160E-03    0   1.0000   age020_m22            0.0000     8.6846E+02    14.7406   3.6282    77.7169
  2     20.3675     4.8311E-02    9.0026E-02    3.160000E+06  0.00010  4.759E-02    0   1.0000   age045_m22            0.0000     1.3115E+02     5.9657   1.5877    96.7180
  3      0.0000     0.0000E+00    0.0000E+00    5.010000E+06  0.00010  1.932E-02    0   0.9582   age055_m22            0.0000     7.6583E+02    14.0017   1.9298    83.8835
  4      0.0000     0.0000E+00    0.0000E+00    6.610000E+06  0.00010  9.973E-03    0   0.9297   age061_m22            0.0000     8.5034E+02    14.7951   3.5912    80.5690
  5      0.0000     0.0000E+00    0.0000E+00    8.710000E+06  0.00010  7.690E-03    0   0.9030   age067_m22            0.0000     8.0500E+02    14.4308   3.5816    80.9932
  6      0.0000     0.0000E+00    0.0000E+00    1.000000E+07  0.00010  6.375E-03    0   0.8902   age070_m22            0.0000     7.6783E+02    14.1147   3.5971    81.1268
  7      0.0000     0.0000E+00    0.0000E+00    1.445000E+07  0.00010  4.874E-03    0   0.8589   age078_m22            0.0000     5.7253E+02    12.4067   3.4080    83.8752
  8      0.0000     0.0000E+00    0.0000E+00    2.512000E+07  0.00010  4.103E-03    0   0.8174   age090_m22            0.0000     2.6884E+02     8.9560   2.9845    90.0294
  9      0.0000     0.0000E+00    0.0000E+00    4.000000E+07  0.00010  3.654E-03    0   0.7830   age104_m22            0.0000     1.7214E+02     6.4610   2.6748    94.5382
 10      0.0000     0.0000E+00    0.0000E+00    5.500000E+07  0.00010  3.093E-03    0   0.7597   age110_m22            0.0000     1.5763E+02     5.6385   2.5639    96.1738
 11      0.0000     0.0000E+00    0.0000E+00    1.015200E+08  0.00010  2.431E-03    0   0.7138   age116_m22            0.0000     1.9043E+02     5.3346   2.2099    99.1107
 12      0.0000     0.0000E+00    0.0000E+00    1.609000E+08  0.00010  1.319E-03    0   0.6775   age120_m22            0.0000     1.8519E+02     4.8850   1.7198   101.6603
 13      0.0000     0.0000E+00    0.0000E+00    2.861200E+08  0.00010  1.075E-03    0   0.6412   age125_m22            0.0000     5.0871E+02     7.6666   1.7576   105.6105
 14      0.0000     0.0000E+00    0.0000E+00    5.088000E+08  0.00010  7.183E-04    0   0.6083   age130_m22            0.0000     6.4612E+02     8.9416   1.5137   107.6080
 15      0.0000     0.0000E+00    0.0000E+00    9.047900E+08  0.00010  4.524E-04    0   0.5785   age135_m22            0.0000     6.5808E+02     9.1019   1.3118   108.8664
 16      0.0000     0.0000E+00    0.0000E+00    1.278050E+09  0.00010  3.018E-04    0   0.5588   age138_m22            0.0000     2.8079E+02     5.8543   0.7893   106.7937
 17      0.0000     0.0000E+00    0.0000E+00    1.434000E+09  0.00010  2.691E-04    0   0.5532   age139_m22            0.0000     2.1926E+02     5.1865   0.6340   106.1770
 18      0.0000     0.0000E+00    0.0000E+00    2.500000E+09  0.00010  1.582E-04    0   0.5296   age150_m22            0.0000     1.8511E+02     4.8077   0.5319   106.6843
 19      0.0000     0.0000E+00    0.0000E+00    4.250000E+09  0.00010  1.007E-04    0   0.5110   age158_m22            0.0000     8.5172E+01     3.3678   0.3839   104.9091
 20      0.0000     0.0000E+00    0.0000E+00    6.250000E+09  0.00010  6.869E-05    0   0.4985   age166_m22            0.0000     3.2114E+01     2.2117   0.3288   102.1305
 21      0.0000     0.0000E+00    0.0000E+00    7.500000E+09  0.00010  5.873E-05    0   0.4931   age171_m22            0.0000     3.2566E+01     2.3462   0.3215   101.5296
 22      0.0000     0.0000E+00    0.0000E+00    1.000000E+10  0.00010  4.481E-05    0   0.4854   age181_m22            0.0000     2.9997E+01     2.2618   0.2828   101.1685
 23      0.0000     0.0000E+00    0.0000E+00    1.300000E+10  0.00010  3.489E-05    0   0.4791   age193_m22            0.0000     2.4618E+01     2.0858   0.2243   100.6308
 24      0.0000     0.0000E+00    0.0000E+00    1.500000E+10  0.00010  3.035E-05    0   0.4766   age201_m22            0.0000     2.2370E+01     2.0203   0.1845   100.4352
 25      0.0000     0.0000E+00    0.0000E+00    1.800000E+10  0.00010  2.510E-05    0   0.4735   age213_m22            0.0000     1.9159E+01     1.9421   0.1151    99.8158
 26      0.0000     0.0000E+00    0.0000E+00    1.000000E+06  0.00040  8.458E-03    0   1.0000   age020_m32            0.0000     8.5163E+02    14.6494   3.6441    78.4041
 27      0.0000     0.0000E+00    0.0000E+00    3.160000E+06  0.00040  3.973E-02    0   1.0000   age045_m32            0.0000     3.0147E+02     9.3783   2.8854    89.9736
 28      0.0000     0.0000E+00    0.0000E+00    5.010000E+06  0.00040  1.935E-02    0   0.9532   age055_m32            0.0000     6.4998E+02    13.2846   3.1343    84.1987
 29      0.0000     0.0000E+00    0.0000E+00    6.610000E+06  0.00040  1.204E-02    0   0.9243   age061_m32            0.0000     7.1173E+02    13.6922   3.4464    82.4534
 30      0.0000     0.0000E+00    0.0000E+00    8.710000E+06  0.00040  9.433E-03    0   0.9001   age067_m32            0.0000     6.3850E+02    13.0464   3.4176    83.2963
 31      0.0000     0.0000E+00    0.0000E+00    1.000000E+07  0.00040  8.053E-03    0   0.8877   age070_m32            0.0000     6.1021E+02    12.7862   3.3792    83.7605
 32      0.0000     0.0000E+00    0.0000E+00    1.445000E+07  0.00040  7.027E-03    0   0.8578   age078_m32            0.0000     3.8158E+02    10.5501   2.8499    88.6520
 33      0.0000     0.0000E+00    0.0000E+00    2.512000E+07  0.00040  4.707E-03    0   0.8166   age090_m32            0.0000     2.3740E+02     8.4688   2.5410    92.5302
 34      0.0000     0.0000E+00    0.0000E+00    4.000000E+07  0.00040  3.714E-03    0   0.7827   age104_m32            0.0000     1.6526E+02     6.5005   2.3282    95.8127
 35      0.0000     0.0000E+00    0.0000E+00    5.500000E+07  0.00040  2.982E-03    0   0.7593   age110_m32            0.0000     1.5704E+02     5.8401   2.2610    97.0294
 36      0.0000     0.0000E+00    0.0000E+00    1.015200E+08  0.00040  2.188E-03    0   0.7143   age116_m32            0.0000     2.5368E+02     5.5300   1.9691   101.6335
 37      0.0000     0.0000E+00    0.0000E+00    1.609000E+08  0.00040  1.690E-03    0   0.6856   age120_m32            0.0000     3.9191E+02     6.6172   1.7480   104.5330
 38      0.0000     0.0000E+00    0.0000E+00    2.861200E+08  0.00040  1.152E-03    0   0.6509   age125_m32            0.0000     5.4133E+02     7.9899   1.5055   106.8506
 39      0.0000     0.0000E+00    0.0000E+00    5.088000E+08  0.00040  7.331E-04    0   0.6182   age130_m32            0.0000     5.9645E+02     8.6138   1.3333   107.7384
 40      0.0000     0.0000E+00    0.0000E+00    9.047900E+08  0.00040  3.960E-04    0   0.5890   age135_m32            0.0000     2.9476E+02     6.1940   0.8706   106.2617
 41      0.0000     0.0000E+00    0.0000E+00    1.278050E+09  0.00040  2.854E-04    0   0.5687   age138_m32            0.0000     2.1784E+02     5.1826   0.5939   107.7281
 42      0.0000     0.0000E+00    0.0000E+00    1.434000E+09  0.00040  2.531E-04    0   0.5632   age139_m32            0.0000     2.1048E+02     5.0996   0.5338   107.6755
 43     11.4079     8.6541E+00    8.6860E+00    2.500000E+09  0.00040  1.488E-04    0   0.5386   age150_m32            0.0000     1.2563E+02     3.9600   0.2754   105.9422
 44     28.2249     3.5081E+01    3.3987E+01    4.250000E+09  0.00040  9.082E-05    0   0.5199   age158_m32            0.0000     2.1891E+01     1.7555   0.1805   102.4928
 45      0.0403     7.1458E-02    6.7593E-02    6.250000E+09  0.00040  6.362E-05    0   0.5076   age166_m32            0.0000     2.4845E+01     2.2493   0.1470    98.9391
 46      0.1340     2.8592E-01    2.6784E-01    7.500000E+09  0.00040  5.289E-05    0   0.5027   age171_m32            0.0000     3.1274E+01     2.4462   0.1085    97.7183
 47      2.6163     7.4352E+00    6.8557E+00    1.000000E+10  0.00040  3.972E-05    0   0.4948   age181_m32            0.0000     3.5750E+01     2.4738   0.0420    96.4344
 48      0.0000     0.0000E+00    0.0000E+00    1.300000E+10  0.00040  3.283E-05    0   0.4870   age193_m32            0.0000     1.1720E+01     1.5103  -0.0064    99.1670
 49      0.0000     0.0000E+00    0.0000E+00    1.500000E+10  0.00040  2.925E-05    0   0.4854   age201_m32            0.0000     9.3167E+00     1.2929  -0.0269   100.7616
 50      0.0001     5.3825E-04    4.8336E-04    1.800000E+10  0.00040  2.469E-05    0   0.4819   age213_m32            0.0000     1.0350E+01     1.3023  -0.0694   101.2855
 51      0.0000     0.0000E+00    0.0000E+00    1.000000E+06  0.00400  1.114E-02    0   1.0000   age020_m42            0.0000     8.1505E+02    14.2908   3.5683    78.8847
 52      0.0000     0.0000E+00    0.0000E+00    3.160000E+06  0.00400  4.073E-02    0   0.9999   age045_m42            0.0000     1.9710E+02     7.5930   2.5721    92.7068
 53      0.0000     0.0000E+00    0.0000E+00    5.010000E+06  0.00400  2.534E-02    0   0.9488   age055_m42            0.0000     4.3695E+02    10.9631   2.9941    86.4706
 54      0.0000     0.0000E+00    0.0000E+00    6.610000E+06  0.00400  2.583E-02    0   0.9220   age061_m42            0.0000     1.6841E+02     6.8929   2.3857    93.3824
 55      0.0000     0.0000E+00    0.0000E+00    8.710000E+06  0.00400  1.706E-02    0   0.8983   age067_m42            0.0000     2.7375E+02     9.0307   2.2203    91.3918
 56      0.0000     0.0000E+00    0.0000E+00    1.000000E+07  0.00400  1.271E-02    0   0.8862   age070_m42            0.0000     3.8923E+02    10.7530   2.2144    89.8263
 57      0.0000     0.0000E+00    0.0000E+00    1.445000E+07  0.00400  7.666E-03    0   0.8571   age078_m42            0.0000     4.9924E+02    11.7776   2.6150    86.9016
 58      0.0000     0.0000E+00    0.0000E+00    2.512000E+07  0.00400  5.070E-03    0   0.8174   age090_m42            0.0000     3.2781E+02     9.9375   2.0687    91.6551
 59      0.0000     0.0000E+00    0.0000E+00    4.000000E+07  0.00400  3.505E-03    0   0.7851   age104_m42            0.0000     1.9356E+02     7.6790   1.7297    94.8180
 60      0.0000     0.0000E+00    0.0000E+00    5.500000E+07  0.00400  3.059E-03    0   0.7629   age110_m42            0.0000     1.0987E+02     4.5756   1.7658    99.5981
 61      0.0000     0.0000E+00    0.0000E+00    1.015200E+08  0.00400  2.268E-03    0   0.7207   age116_m42            0.0000     3.2529E+02     5.8147   1.6526   105.1719
 62      0.2837     1.8619E-02    2.4045E-02    1.609000E+08  0.00400  1.720E-03    0   0.6930   age120_m42            0.0000     3.6173E+02     6.3025   1.5004   107.0617
 63      0.0000     0.0000E+00    0.0000E+00    2.861200E+08  0.00400  1.079E-03    0   0.6613   age125_m42            0.0000     3.8509E+02     6.8250   1.1456   107.5608
 64      0.0000     0.0000E+00    0.0000E+00    5.088000E+08  0.00400  6.261E-04    0   0.6313   age130_m42            0.0000     4.5674E+02     7.3739   0.9527   110.3943
 65      0.0153     4.8947E-03    5.4946E-03    9.047900E+08  0.00400  3.535E-04    0   0.6024   age135_m42            0.0000     2.3496E+02     5.4660   0.5493   110.4728
 66      0.0002     7.4338E-05    8.0859E-05    1.278050E+09  0.00400  2.677E-04    0   0.5837   age138_m42            0.0000     9.2381E+01     4.6427  -0.1643   107.7582
 67      2.6575     1.5706E+00    1.6729E+00    1.434000E+09  0.00400  1.910E-04    0   0.5716   age139_m42            0.0000     9.8915E+01     4.4766   0.0058   108.7927
 68     25.9634     2.9851E+01    3.0389E+01    2.500000E+09  0.00400  9.818E-05    0   0.5463   age150_m42            0.0000     6.3311E+01     3.9419  -0.2698   103.8120
 69      0.0002     4.7686E-04    4.6821E-04    4.250000E+09  0.00400  5.491E-05    0   0.5269   age158_m42            0.0000     9.9161E+01     4.2981  -0.3905   100.8469
 70      0.0000     0.0000E+00    0.0000E+00    6.250000E+09  0.00400  3.857E-05    0   0.5151   age166_m42            0.0000     1.5381E+02     5.1651  -0.5224    99.4173
 71      0.0000     0.0000E+00    0.0000E+00    7.500000E+09  0.00400  3.243E-05    0   0.5110   age171_m42            0.0000     1.9147E+02     5.7096  -0.6056    98.8421
 72      0.0000     0.0000E+00    0.0000E+00    1.000000E+10  0.00400  2.424E-05    0   0.5028   age181_m42            0.0000     2.4836E+02     6.4210  -0.6900    98.1976
 73      0.0000     0.0000E+00    0.0000E+00    1.300000E+10  0.00400  1.883E-05    0   0.4927   age193_m42            0.0000     2.9673E+02     6.9445  -0.7326    97.8861
 74      0.0000     0.0000E+00    0.0000E+00    1.500000E+10  0.00400  1.685E-05    0   0.4919   age201_m42            0.0000     2.8301E+02     6.7698  -0.7268    97.8999
 75      0.0000     0.0000E+00    0.0000E+00    1.800000E+10  0.00400  1.452E-05    0   0.4874   age213_m42            0.0000     2.5852E+02     6.4645  -0.7098    98.1592
 76      0.0000     0.0000E+00    0.0000E+00    1.000000E+06  0.00800  1.286E-02    0   1.0000   age020_m52            0.0000     7.1835E+02    13.5104   3.5455    80.6410
 77      0.0000     0.0000E+00    0.0000E+00    3.160000E+06  0.00800  3.147E-02    0   0.9966   age045_m52            0.0000     6.8773E+02    13.3148   3.4546    82.1582
 78      0.0000     0.0000E+00    0.0000E+00    5.010000E+06  0.00800  2.664E-02    0   0.9443   age055_m52            0.0000     5.0321E+02    11.5230   3.1142    85.5401
 79      0.0000     0.0000E+00    0.0000E+00    6.610000E+06  0.00800  2.151E-02    0   0.9177   age061_m52            0.0000     3.1022E+02     9.0803   1.7887    91.8030
 80      0.0000     0.0000E+00    0.0000E+00    8.710000E+06  0.00800  1.628E-02    0   0.8948   age067_m52            0.0000     3.0881E+02     9.5199   2.1669    91.9683
 81      0.0000     0.0000E+00    0.0000E+00    1.000000E+07  0.00800  1.215E-02    0   0.8827   age070_m52            0.0000     3.8418E+02    10.5508   2.5114    90.1200
 82      0.0000     0.0000E+00    0.0000E+00    1.445000E+07  0.00800  8.739E-03    0   0.8552   age078_m52            0.0000     3.1591E+02     9.6004   2.5492    91.3967
 83      0.0000     0.0000E+00    0.0000E+00    2.512000E+07  0.00800  5.676E-03    0   0.8162   age090_m52            0.0000     2.2150E+02     7.7704   2.1390    96.0176
 84      0.0000     0.0000E+00    0.0000E+00    4.000000E+07  0.00800  3.939E-03    0   0.7841   age104_m52            0.0000     1.7256E+02     6.1713   1.9682    98.6819
 85      0.0000     0.0000E+00    0.0000E+00    5.500000E+07  0.00800  3.155E-03    0   0.7627   age110_m52            0.0000     1.7044E+02     5.2400   1.9276   100.6012
 86      0.0000     0.0000E+00    0.0000E+00    1.015200E+08  0.00800  2.206E-03    0   0.7226   age116_m52            0.0000     2.4071E+02     5.0079   1.7175   104.8353
 87      0.0000     0.0000E+00    0.0000E+00    1.609000E+08  0.00800  1.596E-03    0   0.6963   age120_m52            0.0000     2.9902E+02     5.6213   1.4914   106.7327
 88      0.0000     0.0000E+00    0.0000E+00    2.861200E+08  0.00800  1.002E-03    0   0.6665   age125_m52            0.0000     4.9450E+02     8.0167   1.1693   110.0404
 89      0.0000     0.0000E+00    0.0000E+00    5.088000E+08  0.00800  5.759E-04    0   0.6377   age130_m52            0.0000     5.3303E+02     8.9140   0.7961   114.4147
 90      0.0000     0.0000E+00    0.0000E+00    9.047900E+08  0.00800  2.972E-04    0   0.6086   age135_m52            0.0000     2.6886E+02     7.1208   0.2447   113.2318
 91      0.0000     0.0000E+00    0.0000E+00    1.278050E+09  0.00800  2.242E-04    0   0.5907   age138_m52            0.0000     1.4331E+02     5.8463  -0.3688   111.1937
 92      0.0000     0.0000E+00    0.0000E+00    1.434000E+09  0.00800  1.645E-04    0   0.5787   age139_m52            0.0000     1.0883E+02     5.0945  -0.2151   110.5807
 93      0.0000     0.0000E+00    0.0000E+00    2.500000E+09  0.00800  7.723E-05    0   0.5519   age150_m52            0.0000     1.4942E+02     5.6929  -0.5561   106.4870
 94      2.4290     6.6053E+00    6.5484E+00    4.250000E+09  0.00800  4.151E-05    0   0.5320   age158_m52            0.0000     1.7719E+02     5.8616  -0.6214   103.7544
 95      0.0000     0.0000E+00    0.0000E+00    6.250000E+09  0.00800  3.010E-05    0   0.5197   age166_m52            0.0000     2.7356E+02     7.0187  -0.8244   102.3134
 96      0.0000     0.0000E+00    0.0000E+00    7.500000E+09  0.00800  2.467E-05    0   0.5139   age171_m52            0.0000     3.0168E+02     7.3408  -0.8692   101.9173
 97      0.0000     0.0000E+00    0.0000E+00    1.000000E+10  0.00800  1.862E-05    0   0.5054   age181_m52            0.0000     3.8815E+02     8.2890  -1.0000   101.3912
