###################################################################
## OUTPUT of StarlightChains_v04.for    [Cid@UFSC - 01/Apr/2007] ##
###################################################################

## Some input info
NGC5927_b_1.cxt                          [arq_obs]
Base.BC03.S                              [arq_base]
NGC5927_b_1.msk                          [arq_masks]
StCv04.C11.config                        [arq_config]
  150                                    [N_base]
    0                                    [N_YAV_components = # of components with extra extinction!]
    0                                    [i_FitPowerLaw (1/0 = Yes/No)]
-9.99                                    [alpha_PowerLaw]
CCM                                      [red_law_option]
 1.458241                                [q_norm = A(l_norm)/A(V)]

## (Re)Sampling Parameters
 3359.00                                 [l_ini (A)]
 6428.00                                 [l_fin (A)]
    1.00                                 [dl    (A)]     (OBS: dl_cushion =    50.00 A)

## Normalization info
 4020.00                                 [l_norm (A) - for base]
 4010.00                                 [llow_norm (A) - window for f_obs]
 4060.00                                 [lupp_norm (A) - window for f_obs]
5.211403E-15                             [fobs_norm (in input units)]

## S/N
 4730.00                                 [llow_SN (A) - window for S/N]
 4780.00                                 [lupp_SN (A) - window for S/N]
  32.308                                 [S/N in S/N window]
  18.819                                 [S/N in norm. window]
 338.726                                 [S/N_err in S/N window]
 197.303                                 [S/N_err in norm. window]
  1.0000                                 [fscale_chi2]

## etc...
  2147483632                             [idum_orig]
  3067                                   [NOl_eff]
  1210                                   [Nl_eff]
  1857    NSIGMA                         [Ntot_cliped & clip_method]
  2144380                                [Nglobal_steps]
   7                                     [N_chains]
  31                                     [NEX0s_base = N_base in EX0s-fits]
 0   0   1      139   2.0   4.522E+02    [Clip-Bug, RC-Crash & Burn-In warning-flags, n_censored_weights, wei_nsig_threshold & wei_limit]
    70     70.088     70.088      0.000  [idt_all, wdt_TotTime, wdt_UsrTime & wdt_SysTime (sec)]

## Synthesis Results - Best model ##

 3.07316E+00                             [chi2/Nl_eff]
     2.29782                             [adev (%)]

    99.59544                             [sum-of-x (%)]
 2.70299E-14                             [Flux_tot (units of input spectrum!)]
 1.69004E-09                             [Mini_tot (???)]
 8.45980E-10                             [Mcor_tot (???)]

  -5.82                                  [v0_min  (km/s)]
  13.75                                  [vd_min  (km/s)]
 1.2286                                  [AV_min  (mag)]
 0.0000                                  [YAV_min (mag)]

# j     x_j(%)      Mini_j(%)     Mcor_j(%)     age_j(yr)     Z_j      (L/M)_j    YAV?  Mstars   component_j        a/Fe...       SSP_chi2r SSP_adev(%)   SSP_AV   SSP_x(%)
  1      2.1712     4.2728E-03    8.5358E-03    1.000000E+06  0.00010  8.160E-03    0   1.0000   age020_m22            0.0000     3.2014E+03    36.1411   4.0000    97.1751
  2      8.9660     3.0255E-03    6.0441E-03    3.160000E+06  0.00010  4.759E-02    0   1.0000   age045_m22            0.0000     4.5811E+02     9.1184   3.4952    97.4791
  3      6.9821     5.8035E-03    1.1109E-02    5.010000E+06  0.00010  1.932E-02    0   0.9582   age055_m22            0.0000     6.4635E+02    17.0562   3.9150    85.8739
  4      0.0000     0.0000E+00    0.0000E+00    6.610000E+06  0.00010  9.973E-03    0   0.9297   age061_m22            0.0000     3.2667E+03    35.2908   4.0000   100.0278
  5      0.0000     0.0000E+00    0.0000E+00    8.710000E+06  0.00010  7.690E-03    0   0.9030   age067_m22            0.0000     3.1939E+03    35.0458   4.0000   100.3939
  6      0.0000     0.0000E+00    0.0000E+00    1.000000E+07  0.00010  6.375E-03    0   0.8902   age070_m22            0.0000     3.1918E+03    35.2336   4.0000   100.5997
  7      0.2926     9.6414E-04    1.6543E-03    1.445000E+07  0.00010  4.874E-03    0   0.8589   age078_m22            0.0000     2.4874E+03    31.1291   4.0000   102.2170
  8      0.0000     0.0000E+00    0.0000E+00    2.512000E+07  0.00010  4.103E-03    0   0.8174   age090_m22            0.0000     1.4094E+03    21.9434   4.0000   104.1427
  9      0.0000     0.0000E+00    0.0000E+00    4.000000E+07  0.00010  3.654E-03    0   0.7830   age104_m22            0.0000     9.9829E+02    15.6803   4.0000   104.1164
 10      0.0000     0.0000E+00    0.0000E+00    5.500000E+07  0.00010  3.093E-03    0   0.7597   age110_m22            0.0000     9.0554E+02    13.8858   4.0000   103.7116
 11      0.0000     0.0000E+00    0.0000E+00    1.015200E+08  0.00010  2.431E-03    0   0.7138   age116_m22            0.0000     7.9002E+02     9.9002   4.0000   100.4308
 12      0.0000     0.0000E+00    0.0000E+00    1.609000E+08  0.00010  1.319E-03    0   0.6775   age120_m22            0.0000     7.4764E+02     9.9480   3.6700    99.8781
 13      0.0000     0.0000E+00    0.0000E+00    2.861200E+08  0.00010  1.075E-03    0   0.6412   age125_m22            0.0000     1.0893E+03    10.9542   3.7250   102.0131
 14      0.0000     0.0000E+00    0.0000E+00    5.088000E+08  0.00010  7.183E-04    0   0.6083   age130_m22            0.0000     1.1782E+03    11.3434   3.4907   103.3279
 15      0.0000     0.0000E+00    0.0000E+00    9.047900E+08  0.00010  4.524E-04    0   0.5785   age135_m22            0.0000     1.1623E+03    11.4329   3.2764   104.6756
 16      0.0000     0.0000E+00    0.0000E+00    1.278050E+09  0.00010  3.018E-04    0   0.5588   age138_m22            0.0000     7.6536E+02     9.5834   2.7443   103.8089
 17      0.0000     0.0000E+00    0.0000E+00    1.434000E+09  0.00010  2.691E-04    0   0.5532   age139_m22            0.0000     6.8731E+02     9.2157   2.5853   103.4430
 18      0.0000     0.0000E+00    0.0000E+00    2.500000E+09  0.00010  1.582E-04    0   0.5296   age150_m22            0.0000     6.5949E+02     9.2971   2.4812   104.3926
 19      0.0000     0.0000E+00    0.0000E+00    4.250000E+09  0.00010  1.007E-04    0   0.5110   age158_m22            0.0000     5.1457E+02     8.3554   2.3090   103.5232
 20      0.0000     0.0000E+00    0.0000E+00    6.250000E+09  0.00010  6.869E-05    0   0.4985   age166_m22            0.0000     4.0559E+02     7.6159   2.2395   101.4077
 21      0.0000     0.0000E+00    0.0000E+00    7.500000E+09  0.00010  5.873E-05    0   0.4931   age171_m22            0.0000     3.9942E+02     7.7198   2.2359   100.9321
 22      0.1012     3.6265E-02    3.5166E-02    1.000000E+10  0.00010  4.481E-05    0   0.4854   age181_m22            0.0000     3.8901E+02     7.6454   2.1966   100.5718
 23      0.0000     0.0000E+00    0.0000E+00    1.300000E+10  0.00010  3.489E-05    0   0.4791   age193_m22            0.0000     3.6770E+02     7.4432   2.1331   100.1248
 24      0.0000     0.0000E+00    0.0000E+00    1.500000E+10  0.00010  3.035E-05    0   0.4766   age201_m22            0.0000     3.5499E+02     7.3527   2.0924    99.9946
 25      0.0000     0.0000E+00    0.0000E+00    1.800000E+10  0.00010  2.510E-05    0   0.4735   age213_m22            0.0000     3.2875E+02     7.1499   2.0207    99.5159
 26      0.8003     1.5196E-03    3.0357E-03    1.000000E+06  0.00040  8.458E-03    0   1.0000   age020_m32            0.0000     3.2822E+03    36.3798   4.0000    97.9599
 27      0.0000     0.0000E+00    0.0000E+00    3.160000E+06  0.00040  3.973E-02    0   1.0000   age045_m32            0.0000     1.2551E+03    19.5040   4.0000   103.1948
 28      0.0000     0.0000E+00    0.0000E+00    5.010000E+06  0.00040  1.935E-02    0   0.9532   age055_m32            0.0000     1.9456E+03    25.0811   4.0000   100.4938
 29      0.0000     0.0000E+00    0.0000E+00    6.610000E+06  0.00040  1.204E-02    0   0.9243   age061_m32            0.0000     2.7347E+03    32.1245   4.0000   101.1471
 30      0.0000     0.0000E+00    0.0000E+00    8.710000E+06  0.00040  9.433E-03    0   0.9001   age067_m32            0.0000     2.5933E+03    31.4084   4.0000   101.8103
 31      0.0000     0.0000E+00    0.0000E+00    1.000000E+07  0.00040  8.053E-03    0   0.8877   age070_m32            0.0000     2.4732E+03    30.6002   4.0000   101.9759
 32      0.0000     0.0000E+00    0.0000E+00    1.445000E+07  0.00040  7.027E-03    0   0.8578   age078_m32            0.0000     1.2796E+03    18.8002   4.0000   101.5798
 33      0.0000     0.0000E+00    0.0000E+00    2.512000E+07  0.00040  4.707E-03    0   0.8166   age090_m32            0.0000     8.5391E+02    12.5865   4.0000   100.7726
 34      0.0000     0.0000E+00    0.0000E+00    4.000000E+07  0.00040  3.714E-03    0   0.7827   age104_m32            0.0000     7.2124E+02    10.0051   4.0000   100.1193
 35      0.0000     0.0000E+00    0.0000E+00    5.500000E+07  0.00040  2.982E-03    0   0.7593   age110_m32            0.0000     7.2064E+02     9.7901   4.0000    99.8550
 36      0.0000     0.0000E+00    0.0000E+00    1.015200E+08  0.00040  2.188E-03    0   0.7143   age116_m32            0.0000     8.5179E+02    10.2829   3.9114    99.5868
 37      0.0000     0.0000E+00    0.0000E+00    1.609000E+08  0.00040  1.690E-03    0   0.6856   age120_m32            0.0000     9.8101E+02    10.7659   3.7177   101.5543
 38      0.0000     0.0000E+00    0.0000E+00    2.861200E+08  0.00040  1.152E-03    0   0.6509   age125_m32            0.0000     1.0926E+03    10.9091   3.4774   103.0198
 39      0.0000     0.0000E+00    0.0000E+00    5.088000E+08  0.00040  7.331E-04    0   0.6182   age130_m32            0.0000     1.1111E+03    11.1082   3.2979   103.7416
 40      0.0000     0.0000E+00    0.0000E+00    9.047900E+08  0.00040  3.960E-04    0   0.5890   age135_m32            0.0000     7.7136E+02     9.5860   2.8078   103.2175
 41      0.0000     0.0000E+00    0.0000E+00    1.278050E+09  0.00040  2.854E-04    0   0.5687   age138_m32            0.0000     6.9680E+02     9.3265   2.5292   105.4202
 42      0.0000     0.0000E+00    0.0000E+00    1.434000E+09  0.00040  2.531E-04    0   0.5632   age139_m32            0.0000     6.8197E+02     9.2907   2.4738   105.3845
 43      0.0000     0.0000E+00    0.0000E+00    2.500000E+09  0.00040  1.488E-04    0   0.5386   age150_m32            0.0000     5.5220E+02     8.4406   2.2062   104.0380
 44      0.0000     0.0000E+00    0.0000E+00    4.250000E+09  0.00040  9.082E-05    0   0.5199   age158_m32            0.0000     3.6485E+02     7.1284   2.0888   101.6951
 45      1.3462     3.3979E-01    3.4456E-01    6.250000E+09  0.00040  6.362E-05    0   0.5076   age166_m32            0.0000     2.7487E+02     6.5452   2.0422    99.1160
 46      0.5747     1.7450E-01    1.7524E-01    7.500000E+09  0.00040  5.289E-05    0   0.5027   age171_m32            0.0000     2.5162E+02     6.3199   1.9993    97.9845
 47      1.7976     7.2675E-01    7.1838E-01    1.000000E+10  0.00040  3.972E-05    0   0.4948   age181_m32            0.0000     2.2916E+02     6.0785   1.9290    96.6550
 48      0.0151     7.3935E-03    7.1931E-03    1.300000E+10  0.00040  3.283E-05    0   0.4870   age193_m32            0.0000     2.5869E+02     6.2540   1.8883    99.0446
 49      0.0000     0.0000E+00    0.0000E+00    1.500000E+10  0.00040  2.925E-05    0   0.4854   age201_m32            0.0000     2.8505E+02     6.4900   1.8728   100.4295
 50      0.0000     0.0000E+00    0.0000E+00    1.800000E+10  0.00040  2.469E-05    0   0.4819   age213_m32            0.0000     2.9088E+02     6.5486   1.8344   100.8543
 51      1.7316     2.4962E-03    4.9868E-03    1.000000E+06  0.00400  1.114E-02    0   1.0000   age020_m42            0.0000     3.0134E+03    34.8285   4.0000    97.9692
 52      0.0000     0.0000E+00    0.0000E+00    3.160000E+06  0.00400  4.073E-02    0   0.9999   age045_m42            0.0000     7.5237E+02    12.5974   4.0000   101.3037
 53      0.0000     0.0000E+00    0.0000E+00    5.010000E+06  0.00400  2.534E-02    0   0.9488   age055_m42            0.0000     1.4543E+03    21.9895   4.0000   100.9961
 54      0.0000     0.0000E+00    0.0000E+00    6.610000E+06  0.00400  2.583E-02    0   0.9220   age061_m42            0.0000     6.5071E+02     9.8330   4.0000    98.9277
 55      0.0000     0.0000E+00    0.0000E+00    8.710000E+06  0.00400  1.706E-02    0   0.8983   age067_m42            0.0000     5.7336E+02    10.8418   4.0000    95.2744
 56      0.0000     0.0000E+00    0.0000E+00    1.000000E+07  0.00400  1.271E-02    0   0.8862   age070_m42            0.0000     6.0644E+02    12.3414   4.0000    94.3660
 57      0.0000     0.0000E+00    0.0000E+00    1.445000E+07  0.00400  7.666E-03    0   0.8571   age078_m42            0.0000     9.6340E+02    14.0361   4.0000    97.1553
 58      0.0000     0.0000E+00    0.0000E+00    2.512000E+07  0.00400  5.070E-03    0   0.8174   age090_m42            0.0000     5.3062E+02    12.8025   4.0000    93.5311
 59      0.0000     0.0000E+00    0.0000E+00    4.000000E+07  0.00400  3.505E-03    0   0.7851   age104_m42            0.0000     4.4407E+02    11.1986   3.7062    95.2818
 60      0.0000     0.0000E+00    0.0000E+00    5.500000E+07  0.00400  3.059E-03    0   0.7629   age110_m42            0.0000     5.5127E+02     9.3313   3.7332    98.6168
 61      0.0000     0.0000E+00    0.0000E+00    1.015200E+08  0.00400  2.268E-03    0   0.7207   age116_m42            0.0000     8.4730E+02     9.9757   3.6135   102.5855
 62      0.0000     0.0000E+00    0.0000E+00    1.609000E+08  0.00400  1.720E-03    0   0.6930   age120_m42            0.0000     8.6932E+02     9.8498   3.4464   104.3752
 63      0.0000     0.0000E+00    0.0000E+00    2.861200E+08  0.00400  1.079E-03    0   0.6613   age125_m42            0.0000     8.4284E+02     9.6857   3.1054   104.6220
 64      0.0000     0.0000E+00    0.0000E+00    5.088000E+08  0.00400  6.261E-04    0   0.6313   age130_m42            0.0000     8.9519E+02    10.1067   2.9046   107.6068
 65      0.0000     0.0000E+00    0.0000E+00    9.047900E+08  0.00400  3.535E-04    0   0.6024   age135_m42            0.0000     6.1555E+02     8.6902   2.4716   108.8148
 66      0.0000     0.0000E+00    0.0000E+00    1.278050E+09  0.00400  2.677E-04    0   0.5837   age138_m42            0.0000     2.3505E+02     6.4057   1.7353   106.9848
 67      0.0000     0.0000E+00    0.0000E+00    1.434000E+09  0.00400  1.910E-04    0   0.5716   age139_m42            0.0000     3.2053E+02     6.9331   1.9061   107.6946
 68      0.0000     0.0000E+00    0.0000E+00    2.500000E+09  0.00400  9.818E-05    0   0.5463   age150_m42            0.0000     1.1927E+02     5.2809   1.5950   103.7109
 69      0.0000     0.0000E+00    0.0000E+00    4.250000E+09  0.00400  5.491E-05    0   0.5269   age158_m42            0.0000     5.9116E+01     4.1517   1.4722   101.2025
 70      0.0000     0.0000E+00    0.0000E+00    6.250000E+09  0.00400  3.857E-05    0   0.5151   age166_m42            0.0000     3.8692E+01     4.2490   1.3265   100.0402
 71      0.0000     0.0000E+00    0.0000E+00    7.500000E+09  0.00400  3.243E-05    0   0.5110   age171_m42            0.0000     3.4333E+01     4.4323   1.2396    99.5268
 72      0.0396     2.6242E-02    2.6359E-02    1.000000E+10  0.00400  2.424E-05    0   0.5028   age181_m42            0.0000     3.3865E+01     4.7294   1.1515    98.9548
 73      2.0523     1.7503E+00    1.7228E+00    1.300000E+10  0.00400  1.883E-05    0   0.4927   age193_m42            0.0000     3.7098E+01     4.8960   1.1112    98.6720
 74      2.8929     2.7570E+00    2.7093E+00    1.500000E+10  0.00400  1.685E-05    0   0.4919   age201_m42            0.0000     3.5593E+01     4.6975   1.1213    98.6547
 75      2.4389     2.6974E+00    2.6264E+00    1.800000E+10  0.00400  1.452E-05    0   0.4874   age213_m42            0.0000     3.3625E+01     4.3691   1.1456    98.8672
 76      0.0000     0.0000E+00    0.0000E+00    1.000000E+06  0.00800  1.286E-02    0   1.0000   age020_m52            0.0000     2.8937E+03    34.1156   4.0000    99.6012
 77      0.0000     0.0000E+00    0.0000E+00    3.160000E+06  0.00800  3.147E-02    0   0.9966   age045_m52            0.0000     2.6788E+03    32.3024   4.0000   100.6901
 78      0.0000     0.0000E+00    0.0000E+00    5.010000E+06  0.00800  2.664E-02    0   0.9443   age055_m52            0.0000     1.7410E+03    24.9040   4.0000   101.2185
 79      0.0000     0.0000E+00    0.0000E+00    6.610000E+06  0.00800  2.151E-02    0   0.9177   age061_m52            0.0000     4.3212E+02    11.7721   3.7296    93.0993
 80      0.0000     0.0000E+00    0.0000E+00    8.710000E+06  0.00800  1.628E-02    0   0.8948   age067_m52            0.0000     5.6471E+02    11.4282   4.0000    95.1200
 81      0.0000     0.0000E+00    0.0000E+00    1.000000E+07  0.00800  1.215E-02    0   0.8827   age070_m52            0.0000     8.4751E+02    12.4655   4.0000    98.7775
 82      0.0000     0.0000E+00    0.0000E+00    1.445000E+07  0.00800  8.739E-03    0   0.8552   age078_m52            0.0000     8.8474E+02    12.8864   4.0000   100.2865
 83      0.0000     0.0000E+00    0.0000E+00    2.512000E+07  0.00800  5.676E-03    0   0.8162   age090_m52            0.0000     6.4987E+02    10.5480   4.0000    98.0920
 84      0.0000     0.0000E+00    0.0000E+00    4.000000E+07  0.00800  3.939E-03    0   0.7841   age104_m52            0.0000     6.4741E+02    10.6053   3.9551    97.6108
 85      0.0000     0.0000E+00    0.0000E+00    5.500000E+07  0.00800  3.155E-03    0   0.7627   age110_m52            0.0000     6.9324E+02     9.9580   3.8958    99.1211
 86      0.0000     0.0000E+00    0.0000E+00    1.015200E+08  0.00800  2.206E-03    0   0.7226   age116_m52            0.0000     7.7307E+02     9.6108   3.6576   102.8968
 87      0.0000     0.0000E+00    0.0000E+00    1.609000E+08  0.00800  1.596E-03    0   0.6963   age120_m52            0.0000     8.0952E+02     9.6867   3.4309   104.5486
 88      0.0000     0.0000E+00    0.0000E+00    2.861200E+08  0.00800  1.002E-03    0   0.6665   age125_m52            0.0000     9.2020E+02    10.3134   3.1255   106.7022
 89      0.0000     0.0000E+00    0.0000E+00    5.088000E+08  0.00800  5.759E-04    0   0.6377   age130_m52            0.0000     8.8892E+02    10.8652   2.7429   110.8012
 90      0.0000     0.0000E+00    0.0000E+00    9.047900E+08  0.00800  2.972E-04    0   0.6086   age135_m52            0.0000     5.3480E+02     9.7329   2.1523   110.2595
 91      0.0000     0.0000E+00    0.0000E+00    1.278050E+09  0.00800  2.242E-04    0   0.5907   age138_m52            0.0000     2.0094E+02     7.2467   1.5196   109.6319
 92      0.0000     0.0000E+00    0.0000E+00    1.434000E+09  0.00800  1.645E-04    0   0.5787   age139_m52            0.0000     1.9644E+02     6.7782   1.6735   109.1756
 93      0.0000     0.0000E+00    0.0000E+00    2.500000E+09  0.00800  7.723E-05    0   0.5519   age150_m52            0.0000     7.3925E+01     5.9814   1.2958   106.1708
 94      0.0755     2.9202E-02    3.1035E-02    4.250000E+09  0.00800  4.151E-05    0   0.5320   age158_m52            0.0000     4.8031E+01     5.6312   1.2167   103.9088
 95      0.8759     4.6731E-01    4.8517E-01    6.250000E+09  0.00800  3.010E-05    0   0.5197   age166_m52            0.0000     3.5935E+01     6.0975   1.0016   102.6431
 96      1.2845     8.3613E-01    8.5840E-01    7.500000E+09  0.00800  2.467E-05    0   0.5139   age171_m52            0.0000     3.7179E+01     6.3772   0.9536   102.2677
 97     31.5883     2.7243E+01    2.7506E+01    1.000000E+10  0.00800  1.862E-05    0   0.5054   age181_m52            0.0000     4.9490E+01     7.3985   0.8025   101.9451
