###################################################################
## OUTPUT of StarlightChains_v04.for    [Cid@UFSC - 01/Apr/2007] ##
###################################################################

## Some input info
NGC5927_c_1.cxt                          [arq_obs]
Base.BC03.S                              [arq_base]
NGC5927_c_1.msk                          [arq_masks]
StCv04.C11.config                        [arq_config]
  150                                    [N_base]
    0                                    [N_YAV_components = # of components with extra extinction!]
    0                                    [i_FitPowerLaw (1/0 = Yes/No)]
-9.99                                    [alpha_PowerLaw]
CCM                                      [red_law_option]
 1.458241                                [q_norm = A(l_norm)/A(V)]

## (Re)Sampling Parameters
 3359.00                                 [l_ini (A)]
 6428.00                                 [l_fin (A)]
    1.00                                 [dl    (A)]     (OBS: dl_cushion =    50.00 A)

## Normalization info
 4020.00                                 [l_norm (A) - for base]
 4010.00                                 [llow_norm (A) - window for f_obs]
 4060.00                                 [lupp_norm (A) - window for f_obs]
5.954027E-15                             [fobs_norm (in input units)]

## S/N
 4730.00                                 [llow_SN (A) - window for S/N]
 4780.00                                 [lupp_SN (A) - window for S/N]
  31.182                                 [S/N in S/N window]
  18.272                                 [S/N in norm. window]
 384.682                                 [S/N_err in S/N window]
 225.410                                 [S/N_err in norm. window]
  1.0000                                 [fscale_chi2]

## etc...
  2147483631                             [idum_orig]
  3066                                   [NOl_eff]
  1172                                   [Nl_eff]
  1894    NSIGMA                         [Ntot_cliped & clip_method]
  2204300                                [Nglobal_steps]
   7                                     [N_chains]
  32                                     [NEX0s_base = N_base in EX0s-fits]
 0   0   1      166   2.0   5.068E+02    [Clip-Bug, RC-Crash & Burn-In warning-flags, n_censored_weights, wei_nsig_threshold & wei_limit]
    72     71.251     71.243      0.008  [idt_all, wdt_TotTime, wdt_UsrTime & wdt_SysTime (sec)]

## Synthesis Results - Best model ##

 2.44822E+00                             [chi2/Nl_eff]
     1.90673                             [adev (%)]

   100.28707                             [sum-of-x (%)]
 2.73145E-14                             [Flux_tot (units of input spectrum!)]
 1.83968E-09                             [Mini_tot (???)]
 9.19789E-10                             [Mcor_tot (???)]

   6.36                                  [v0_min  (km/s)]
  55.03                                  [vd_min  (km/s)]
 1.1321                                  [AV_min  (mag)]
 0.0000                                  [YAV_min (mag)]

# j     x_j(%)      Mini_j(%)     Mcor_j(%)     age_j(yr)     Z_j      (L/M)_j    YAV?  Mstars   component_j        a/Fe...       SSP_chi2r SSP_adev(%)   SSP_AV   SSP_x(%)
  1      3.1146     5.6510E-03    1.1303E-02    1.000000E+06  0.00010  8.160E-03    0   1.0000   age020_m22            0.0000     3.0555E+03    33.8975   4.0000    92.5871
  2      7.8667     2.4473E-03    4.8948E-03    3.160000E+06  0.00010  4.759E-02    0   1.0000   age045_m22            0.0000     3.5850E+02    12.4399   3.5706   100.3552
  3      6.3083     4.8341E-03    9.2645E-03    5.010000E+06  0.00010  1.932E-02    0   0.9582   age055_m22            0.0000     5.4017E+02    19.6006   4.0000    88.5026
  4      0.2391     3.5496E-04    6.6005E-04    6.610000E+06  0.00010  9.973E-03    0   0.9297   age061_m22            0.0000     3.0018E+03    33.2568   4.0000    95.3678
  5      0.0000     0.0000E+00    0.0000E+00    8.710000E+06  0.00010  7.690E-03    0   0.9030   age067_m22            0.0000     2.9170E+03    32.9071   4.0000    95.8509
  6      0.0000     0.0000E+00    0.0000E+00    1.000000E+07  0.00010  6.375E-03    0   0.8902   age070_m22            0.0000     2.8866E+03    33.0104   4.0000    96.0429
  7      0.0000     0.0000E+00    0.0000E+00    1.445000E+07  0.00010  4.874E-03    0   0.8589   age078_m22            0.0000     2.2292E+03    28.3969   4.0000    99.0306
  8      0.0000     0.0000E+00    0.0000E+00    2.512000E+07  0.00010  4.103E-03    0   0.8174   age090_m22            0.0000     1.1705E+03    18.1917   4.0000   104.0894
  9      0.0000     0.0000E+00    0.0000E+00    4.000000E+07  0.00010  3.654E-03    0   0.7830   age104_m22            0.0000     7.7814E+02    11.8390   4.0000   106.2541
 10      0.0000     0.0000E+00    0.0000E+00    5.500000E+07  0.00010  3.093E-03    0   0.7597   age110_m22            0.0000     7.0111E+02    10.2456   4.0000   106.3651
 11      0.0000     0.0000E+00    0.0000E+00    1.015200E+08  0.00010  2.431E-03    0   0.7138   age116_m22            0.0000     6.6837E+02     9.6912   4.0000   104.7068
 12      0.0000     0.0000E+00    0.0000E+00    1.609000E+08  0.00010  1.319E-03    0   0.6775   age120_m22            0.0000     6.5669E+02     9.9707   3.6135   105.2239
 13      0.0000     0.0000E+00    0.0000E+00    2.861200E+08  0.00010  1.075E-03    0   0.6412   age125_m22            0.0000     1.0937E+03     9.5224   3.5455   109.1068
 14      0.0000     0.0000E+00    0.0000E+00    5.088000E+08  0.00010  7.183E-04    0   0.6083   age130_m22            0.0000     1.2401E+03    10.2079   3.2691   110.7899
 15      0.0000     0.0000E+00    0.0000E+00    9.047900E+08  0.00010  4.524E-04    0   0.5785   age135_m22            0.0000     1.2458E+03    10.3447   3.0613   112.0017
 16      0.0000     0.0000E+00    0.0000E+00    1.278050E+09  0.00010  3.018E-04    0   0.5588   age138_m22            0.0000     7.7996E+02     8.2056   2.5771   109.8030
 17      0.0000     0.0000E+00    0.0000E+00    1.434000E+09  0.00010  2.691E-04    0   0.5532   age139_m22            0.0000     6.9168E+02     7.8653   2.4332   109.0436
 18      0.0000     0.0000E+00    0.0000E+00    2.500000E+09  0.00010  1.582E-04    0   0.5296   age150_m22            0.0000     6.5601E+02     8.1122   2.3651   109.7111
 19      0.0000     0.0000E+00    0.0000E+00    4.250000E+09  0.00010  1.007E-04    0   0.5110   age158_m22            0.0000     4.9319E+02     7.9087   2.2491   107.8538
 20      0.0000     0.0000E+00    0.0000E+00    6.250000E+09  0.00010  6.869E-05    0   0.4985   age166_m22            0.0000     3.6291E+02     8.1394   2.2313   104.8415
 21      0.3902     9.8354E-02    9.7002E-02    7.500000E+09  0.00010  5.873E-05    0   0.4931   age171_m22            0.0000     3.5236E+02     8.5052   2.2373   104.2713
 22      0.0000     0.0000E+00    0.0000E+00    1.000000E+10  0.00010  4.481E-05    0   0.4854   age181_m22            0.0000     3.4403E+02     8.3366   2.1943   103.8894
 23      0.0000     0.0000E+00    0.0000E+00    1.300000E+10  0.00010  3.489E-05    0   0.4791   age193_m22            0.0000     3.2456E+02     8.0843   2.1322   103.2931
 24      0.0000     0.0000E+00    0.0000E+00    1.500000E+10  0.00010  3.035E-05    0   0.4766   age201_m22            0.0000     3.1312E+02     7.9775   2.0916   103.1096
 25      0.0000     0.0000E+00    0.0000E+00    1.800000E+10  0.00010  2.510E-05    0   0.4735   age213_m22            0.0000     2.8816E+02     7.8666   2.0258   102.4482
 26      0.8036     1.4067E-03    2.8135E-03    1.000000E+06  0.00040  8.458E-03    0   1.0000   age020_m32            0.0000     3.0829E+03    34.1817   4.0000    93.2249
 27      0.0000     0.0000E+00    0.0000E+00    3.160000E+06  0.00040  3.973E-02    0   1.0000   age045_m32            0.0000     1.0661E+03    16.0673   4.0000   103.5689
 28      0.0000     0.0000E+00    0.0000E+00    5.010000E+06  0.00040  1.935E-02    0   0.9532   age055_m32            0.0000     1.8101E+03    22.8289   4.0000    98.5512
 29      0.0585     7.1883E-05    1.3289E-04    6.610000E+06  0.00040  1.204E-02    0   0.9243   age061_m32            0.0000     2.5079E+03    29.7487   4.0000    97.5201
 30      0.0000     0.0000E+00    0.0000E+00    8.710000E+06  0.00040  9.433E-03    0   0.9001   age067_m32            0.0000     2.3501E+03    28.8299   4.0000    98.5070
 31      0.0000     0.0000E+00    0.0000E+00    1.000000E+07  0.00040  8.053E-03    0   0.8877   age070_m32            0.0000     2.2388E+03    27.9526   4.0000    98.9210
 32      0.0000     0.0000E+00    0.0000E+00    1.445000E+07  0.00040  7.027E-03    0   0.8578   age078_m32            0.0000     1.1189E+03    15.7703   4.0000   101.9220
 33      0.0000     0.0000E+00    0.0000E+00    2.512000E+07  0.00040  4.707E-03    0   0.8166   age090_m32            0.0000     6.9657E+02    10.3854   4.0000   102.9769
 34      0.0000     0.0000E+00    0.0000E+00    4.000000E+07  0.00040  3.714E-03    0   0.7827   age104_m32            0.0000     5.7110E+02     9.5777   4.0000   103.6662
 35      0.0000     0.0000E+00    0.0000E+00    5.500000E+07  0.00040  2.982E-03    0   0.7593   age110_m32            0.0000     5.7688E+02     9.6910   4.0000   103.7760
 36      0.0000     0.0000E+00    0.0000E+00    1.015200E+08  0.00040  2.188E-03    0   0.7143   age116_m32            0.0000     7.8000E+02     9.9224   3.8241   105.6336
 37      0.0000     0.0000E+00    0.0000E+00    1.609000E+08  0.00040  1.690E-03    0   0.6856   age120_m32            0.0000     9.6666E+02     9.4887   3.5647   108.4126
 38      0.0000     0.0000E+00    0.0000E+00    2.861200E+08  0.00040  1.152E-03    0   0.6509   age125_m32            0.0000     1.1294E+03     9.6199   3.2860   110.0990
 39      0.0000     0.0000E+00    0.0000E+00    5.088000E+08  0.00040  7.331E-04    0   0.6182   age130_m32            0.0000     1.1782E+03    10.0420   3.0864   110.9038
 40      0.0000     0.0000E+00    0.0000E+00    9.047900E+08  0.00040  3.960E-04    0   0.5890   age135_m32            0.0000     7.8121E+02     8.4480   2.6415   109.1654
 41      0.0000     0.0000E+00    0.0000E+00    1.278050E+09  0.00040  2.854E-04    0   0.5687   age138_m32            0.0000     7.0710E+02     8.1499   2.4131   110.8631
 42      0.0000     0.0000E+00    0.0000E+00    1.434000E+09  0.00040  2.531E-04    0   0.5632   age139_m32            0.0000     6.9541E+02     8.0925   2.3547   110.7825
 43      0.0000     0.0000E+00    0.0000E+00    2.500000E+09  0.00040  1.488E-04    0   0.5386   age150_m32            0.0000     5.6109E+02     7.5572   2.1048   108.7687
 44      0.2157     3.5170E-02    3.6572E-02    4.250000E+09  0.00040  9.082E-05    0   0.5199   age158_m32            0.0000     3.4115E+02     7.2244   2.0591   105.0746
 45      1.6293     3.7915E-01    3.8493E-01    6.250000E+09  0.00040  6.362E-05    0   0.5076   age166_m32            0.0000     2.3454E+02     8.0335   2.0797   101.4745
 46      0.1389     3.8873E-02    3.9085E-02    7.500000E+09  0.00040  5.289E-05    0   0.5027   age171_m32            0.0000     2.1180E+02     7.9168   2.0436   100.1255
 47      0.0000     0.0000E+00    0.0000E+00    1.000000E+10  0.00040  3.972E-05    0   0.4948   age181_m32            0.0000     1.9076E+02     7.4952   1.9691    98.6703
 48      0.0000     0.0000E+00    0.0000E+00    1.300000E+10  0.00040  3.283E-05    0   0.4870   age193_m32            0.0000     2.2950E+02     6.8235   1.8914   101.5862
 49      0.0000     0.0000E+00    0.0000E+00    1.500000E+10  0.00040  2.925E-05    0   0.4854   age201_m32            0.0000     2.6265E+02     6.5988   1.8544   103.3049
 50      0.0000     0.0000E+00    0.0000E+00    1.800000E+10  0.00040  2.469E-05    0   0.4819   age213_m32            0.0000     2.7262E+02     6.4009   1.8033   103.8491
 51      0.0039     5.2080E-06    1.0417E-05    1.000000E+06  0.00400  1.114E-02    0   1.0000   age020_m42            0.0000     2.8678E+03    32.5280   4.0000    93.6659
 52      0.0000     0.0000E+00    0.0000E+00    3.160000E+06  0.00400  4.073E-02    0   0.9999   age045_m42            0.0000     6.1047E+02    10.2302   4.0000   103.0441
 53      0.3682     2.1512E-04    4.0822E-04    5.010000E+06  0.00400  2.534E-02    0   0.9488   age055_m42            0.0000     1.3289E+03    18.9339   4.0000   100.3606
 54      1.5926     9.1281E-04    1.6833E-03    6.610000E+06  0.00400  2.583E-02    0   0.9220   age061_m42            0.0000     5.1691E+02     9.2333   4.0000   101.9231
 55      0.3814     3.3099E-04    5.9469E-04    8.710000E+06  0.00400  1.706E-02    0   0.8983   age067_m42            0.0000     4.6924E+02    11.7561   4.0000    98.6767
 56      0.1481     1.7247E-04    3.0570E-04    1.000000E+07  0.00400  1.271E-02    0   0.8862   age070_m42            0.0000     5.1974E+02    12.7475   4.0000    97.5030
 57      0.0000     0.0000E+00    0.0000E+00    1.445000E+07  0.00400  7.666E-03    0   0.8571   age078_m42            0.0000     9.1509E+02    12.2816   4.0000    98.2247
 58      0.0000     0.0000E+00    0.0000E+00    2.512000E+07  0.00400  5.070E-03    0   0.8174   age090_m42            0.0000     4.3158E+02    13.9302   4.0000    97.3052
 59      0.0000     0.0000E+00    0.0000E+00    4.000000E+07  0.00400  3.505E-03    0   0.7851   age104_m42            0.0000     3.5186E+02    13.2616   3.7634    98.1895
 60      0.0000     0.0000E+00    0.0000E+00    5.500000E+07  0.00400  3.059E-03    0   0.7629   age110_m42            0.0000     4.6795E+02     9.4844   3.6854   103.1359
 61      0.0000     0.0000E+00    0.0000E+00    1.015200E+08  0.00400  2.268E-03    0   0.7207   age116_m42            0.0000     8.4257E+02     8.4097   3.4523   109.1678
 62      0.0000     0.0000E+00    0.0000E+00    1.609000E+08  0.00400  1.720E-03    0   0.6930   age120_m42            0.0000     8.9229E+02     8.5198   3.2787   110.9396
 63      0.0000     0.0000E+00    0.0000E+00    2.861200E+08  0.00400  1.079E-03    0   0.6613   age125_m42            0.0000     8.8578E+02     8.2520   2.9128   110.9600
 64      0.0000     0.0000E+00    0.0000E+00    5.088000E+08  0.00400  6.261E-04    0   0.6313   age130_m42            0.0000     9.8279E+02     8.7434   2.7251   113.9610
 65      0.0000     0.0000E+00    0.0000E+00    9.047900E+08  0.00400  3.535E-04    0   0.6024   age135_m42            0.0000     6.7923E+02     7.4456   2.3392   113.9443
 66      0.0000     0.0000E+00    0.0000E+00    1.278050E+09  0.00400  2.677E-04    0   0.5837   age138_m42            0.0000     2.6649E+02     6.1871   1.5741   110.4842
 67      0.0000     0.0000E+00    0.0000E+00    1.434000E+09  0.00400  1.910E-04    0   0.5716   age139_m42            0.0000     3.5950E+02     6.2911   1.7553   111.7116
 68      0.0000     0.0000E+00    0.0000E+00    2.500000E+09  0.00400  9.818E-05    0   0.5463   age150_m42            0.0000     1.3237E+02     4.4321   1.5106   105.9431
 69      0.0000     0.0000E+00    0.0000E+00    4.250000E+09  0.00400  5.491E-05    0   0.5269   age158_m42            0.0000     6.6972E+01     3.4299   1.4118   102.6795
 70      0.0001     5.2553E-05    5.4143E-05    6.250000E+09  0.00400  3.857E-05    0   0.5151   age166_m42            0.0000     4.3585E+01     3.5525   1.2638   101.1517
 71      0.0000     0.0000E+00    0.0000E+00    7.500000E+09  0.00400  3.243E-05    0   0.5110   age171_m42            0.0000     3.6111E+01     3.8493   1.1684   100.4804
 72      0.0000     0.0000E+00    0.0000E+00    1.000000E+10  0.00400  2.424E-05    0   0.5028   age181_m42            0.0000     2.9717E+01     4.2553   1.0716    99.6919
 73      0.0000     0.0000E+00    0.0000E+00    1.300000E+10  0.00400  1.883E-05    0   0.4927   age193_m42            0.0000     2.6577E+01     4.4896   1.0264    99.2363
 74      0.0000     0.0000E+00    0.0000E+00    1.500000E+10  0.00400  1.685E-05    0   0.4919   age201_m42            0.0000     2.6474E+01     4.3695   1.0355    99.2664
 75      0.0000     0.0000E+00    0.0000E+00    1.800000E+10  0.00400  1.452E-05    0   0.4874   age213_m42            0.0000     2.6618E+01     4.1818   1.0578    99.5789
 76      0.0000     0.0000E+00    0.0000E+00    1.000000E+06  0.00800  1.286E-02    0   1.0000   age020_m52            0.0000     2.6749E+03    31.5536   4.0000    95.5963
 77      0.0000     0.0000E+00    0.0000E+00    3.160000E+06  0.00800  3.147E-02    0   0.9966   age045_m52            0.0000     2.4803E+03    29.7007   4.0000    97.2044
 78      0.0000     0.0000E+00    0.0000E+00    5.010000E+06  0.00800  2.664E-02    0   0.9443   age055_m52            0.0000     1.6140E+03    21.7572   4.0000   100.0283
 79      0.0000     0.0000E+00    0.0000E+00    6.610000E+06  0.00800  2.151E-02    0   0.9177   age061_m52            0.0000     3.3645E+02    15.6896   3.8652    95.2004
 80      0.0000     0.0000E+00    0.0000E+00    8.710000E+06  0.00800  1.628E-02    0   0.8948   age067_m52            0.0000     4.6306E+02    12.4183   4.0000    98.6763
 81      0.0000     0.0000E+00    0.0000E+00    1.000000E+07  0.00800  1.215E-02    0   0.8827   age070_m52            0.0000     7.3878E+02    10.9223   4.0000   100.6094
 82      0.0000     0.0000E+00    0.0000E+00    1.445000E+07  0.00800  8.739E-03    0   0.8552   age078_m52            0.0000     7.4301E+02    10.6293   4.0000   102.2953
 83      0.0000     0.0000E+00    0.0000E+00    2.512000E+07  0.00800  5.676E-03    0   0.8162   age090_m52            0.0000     5.2014E+02    11.2940   4.0000   102.0658
 84      0.0000     0.0000E+00    0.0000E+00    4.000000E+07  0.00800  3.939E-03    0   0.7841   age104_m52            0.0000     5.3731E+02    11.6068   3.9306   102.4956
 85      0.0000     0.0000E+00    0.0000E+00    5.500000E+07  0.00800  3.155E-03    0   0.7627   age110_m52            0.0000     5.9775E+02    10.3564   3.8456   104.4425
 86      0.0000     0.0000E+00    0.0000E+00    1.015200E+08  0.00800  2.206E-03    0   0.7226   age116_m52            0.0000     7.3477E+02     8.6467   3.5528   108.9816
 87      0.0000     0.0000E+00    0.0000E+00    1.609000E+08  0.00800  1.596E-03    0   0.6963   age120_m52            0.0000     8.0313E+02     8.2668   3.2993   110.7737
 88      0.0000     0.0000E+00    0.0000E+00    2.861200E+08  0.00800  1.002E-03    0   0.6665   age125_m52            0.0000     9.9319E+02     9.2688   2.9032   113.6149
 89      0.0000     0.0000E+00    0.0000E+00    5.088000E+08  0.00800  5.759E-04    0   0.6377   age130_m52            0.0000     1.0020E+03    10.1819   2.4981   117.7088
 90      0.0000     0.0000E+00    0.0000E+00    9.047900E+08  0.00800  2.972E-04    0   0.6086   age135_m52            0.0000     5.9913E+02     9.0827   1.9454   115.4703
 91      0.0000     0.0000E+00    0.0000E+00    1.278050E+09  0.00800  2.242E-04    0   0.5907   age138_m52            0.0000     2.2473E+02     7.1212   1.3502   112.9759
 92      0.0000     0.0000E+00    0.0000E+00    1.434000E+09  0.00800  1.645E-04    0   0.5787   age139_m52            0.0000     2.1816E+02     6.2238   1.5306   112.4017
 93      0.0000     0.0000E+00    0.0000E+00    2.500000E+09  0.00800  7.723E-05    0   0.5519   age150_m52            0.0000     8.1476E+01     4.9435   1.2105   107.9196
 94      0.0000     0.0000E+00    0.0000E+00    4.250000E+09  0.00800  4.151E-05    0   0.5320   age158_m52            0.0000     5.3609E+01     4.3815   1.1574   105.0676
 95      0.0541     2.6590E-02    2.7639E-02    6.250000E+09  0.00800  3.010E-05    0   0.5197   age166_m52            0.0000     3.3805E+01     4.8206   0.9381   103.3807
 96      0.3785     2.2717E-01    2.3350E-01    7.500000E+09  0.00800  2.467E-05    0   0.5139   age171_m52            0.0000     3.2503E+01     5.0717   0.8866   102.9379
 97     10.1581     8.0768E+00    8.1645E+00    1.000000E+10  0.00800  1.862E-05    0   0.5054   age181_m52            0.0000     3.6075E+01     6.0698   0.7226   102.4873
