###################################################################
## OUTPUT of StarlightChains_v04.for    [Cid@UFSC - 01/Apr/2007] ##
###################################################################

## Some input info
NGC5286_c_1.cxt                          [arq_obs]
Base.BC03.S                              [arq_base]
NGC5286_c_1.msk                          [arq_masks]
StCv04.C11.config                        [arq_config]
  150                                    [N_base]
    0                                    [N_YAV_components = # of components with extra extinction!]
    0                                    [i_FitPowerLaw (1/0 = Yes/No)]
-9.99                                    [alpha_PowerLaw]
CCM                                      [red_law_option]
 1.458241                                [q_norm = A(l_norm)/A(V)]

## (Re)Sampling Parameters
 3359.00                                 [l_ini (A)]
 6428.00                                 [l_fin (A)]
    1.00                                 [dl    (A)]     (OBS: dl_cushion =    50.00 A)

## Normalization info
 4020.00                                 [l_norm (A) - for base]
 4010.00                                 [llow_norm (A) - window for f_obs]
 4060.00                                 [lupp_norm (A) - window for f_obs]
3.906300E-14                             [fobs_norm (in input units)]

## S/N
 4730.00                                 [llow_SN (A) - window for S/N]
 4780.00                                 [lupp_SN (A) - window for S/N]
 103.062                                 [S/N in S/N window]
  88.537                                 [S/N in norm. window]
 171.763                                 [S/N_err in S/N window]
 147.556                                 [S/N_err in norm. window]
  1.0000                                 [fscale_chi2]

## etc...
  2147483636                             [idum_orig]
  3068                                   [NOl_eff]
  1649                                   [Nl_eff]
  1419    NSIGMA                         [Ntot_cliped & clip_method]
  1570940                                [Nglobal_steps]
   7                                     [N_chains]
  20                                     [NEX0s_base = N_base in EX0s-fits]
 0   0   1      214   2.0   3.215E+02    [Clip-Bug, RC-Crash & Burn-In warning-flags, n_censored_weights, wei_nsig_threshold & wei_limit]
    67     66.900     66.884      0.016  [idt_all, wdt_TotTime, wdt_UsrTime & wdt_SysTime (sec)]

## Synthesis Results - Best model ##

 2.79406E+00                             [chi2/Nl_eff]
     1.05808                             [adev (%)]

    98.36274                             [sum-of-x (%)]
 1.26601E-13                             [Flux_tot (units of input spectrum!)]
 2.96106E-09                             [Mini_tot (???)]
 1.44852E-09                             [Mcor_tot (???)]

 -20.20                                  [v0_min  (km/s)]
  59.11                                  [vd_min  (km/s)]
 0.8878                                  [AV_min  (mag)]
 0.0000                                  [YAV_min (mag)]

# j     x_j(%)      Mini_j(%)     Mcor_j(%)     age_j(yr)     Z_j      (L/M)_j    YAV?  Mstars   component_j        a/Fe...       SSP_chi2r SSP_adev(%)   SSP_AV   SSP_x(%)
  1      0.0000     0.0000E+00    0.0000E+00    1.000000E+06  0.00010  8.160E-03    0   1.0000   age020_m22            0.0000     3.9710E+02     9.9922   4.0000    77.8098
  2     12.3581     1.1287E-02    2.3074E-02    3.160000E+06  0.00010  4.759E-02    0   1.0000   age045_m22            0.0000     3.3606E+01     3.1514   2.1235    95.0996
  3      0.0000     0.0000E+00    0.0000E+00    5.010000E+06  0.00010  1.932E-02    0   0.9582   age055_m22            0.0000     3.4225E+02     9.9340   2.4264    81.7656
  4      0.0000     0.0000E+00    0.0000E+00    6.610000E+06  0.00010  9.973E-03    0   0.9297   age061_m22            0.0000     3.8542E+02    10.2203   4.0000    79.8964
  5      0.0000     0.0000E+00    0.0000E+00    8.710000E+06  0.00010  7.690E-03    0   0.9030   age067_m22            0.0000     3.6143E+02     9.9253   4.0000    80.1604
  6      0.0000     0.0000E+00    0.0000E+00    1.000000E+07  0.00010  6.375E-03    0   0.8902   age070_m22            0.0000     3.4660E+02     9.6350   4.0000    80.6357
  7      0.0000     0.0000E+00    0.0000E+00    1.445000E+07  0.00010  4.874E-03    0   0.8589   age078_m22            0.0000     2.4157E+02     8.4160   3.9068    81.5795
  8      0.0000     0.0000E+00    0.0000E+00    2.512000E+07  0.00010  4.103E-03    0   0.8174   age090_m22            0.0000     9.4165E+01     5.5160   3.4952    88.3421
  9      1.5676     1.8648E-02    2.9848E-02    4.000000E+07  0.00010  3.654E-03    0   0.7830   age104_m22            0.0000     4.9679E+01     3.7076   3.1917    93.5689
 10      1.0376     1.4581E-02    2.2645E-02    5.500000E+07  0.00010  3.093E-03    0   0.7597   age110_m22            0.0000     4.9370E+01     3.3875   3.0894    95.2559
 11      2.2556     4.0331E-02    5.8848E-02    1.015200E+08  0.00010  2.431E-03    0   0.7138   age116_m22            0.0000     7.0999E+01     3.5979   2.7347    98.6726
 12      0.0000     0.0000E+00    0.0000E+00    1.609000E+08  0.00010  1.319E-03    0   0.6775   age120_m22            0.0000     7.3525E+01     3.5567   2.2528   101.1928
 13      0.0000     0.0000E+00    0.0000E+00    2.861200E+08  0.00010  1.075E-03    0   0.6412   age125_m22            0.0000     2.8228E+02     7.4304   2.3140   105.2547
 14      0.0000     0.0000E+00    0.0000E+00    5.088000E+08  0.00010  7.183E-04    0   0.6083   age130_m22            0.0000     3.7434E+02     8.7034   2.0888   106.8899
 15      0.0000     0.0000E+00    0.0000E+00    9.047900E+08  0.00010  4.524E-04    0   0.5785   age135_m22            0.0000     3.8385E+02     8.8966   1.8892   108.0892
 16      0.0000     0.0000E+00    0.0000E+00    1.278050E+09  0.00010  3.018E-04    0   0.5588   age138_m22            0.0000     1.6461E+02     5.9263   1.3652   105.7686
 17      0.0000     0.0000E+00    0.0000E+00    1.434000E+09  0.00010  2.691E-04    0   0.5532   age139_m22            0.0000     1.3122E+02     5.3334   1.2131   104.9867
 18      0.0000     0.0000E+00    0.0000E+00    2.500000E+09  0.00010  1.582E-04    0   0.5296   age150_m22            0.0000     1.0005E+02     4.5413   1.0962   105.7946
 19      0.0000     0.0000E+00    0.0000E+00    4.250000E+09  0.00010  1.007E-04    0   0.5110   age158_m22            0.0000     4.4138E+01     3.0973   0.9510   103.6359
 20      0.0000     0.0000E+00    0.0000E+00    6.250000E+09  0.00010  6.869E-05    0   0.4985   age166_m22            0.0000     1.2908E+01     1.7749   0.8985   100.4209
 21      0.0000     0.0000E+00    0.0000E+00    7.500000E+09  0.00010  5.873E-05    0   0.4931   age171_m22            0.0000     8.9555E+00     1.4933   0.8856    99.8753
 22      0.0000     0.0000E+00    0.0000E+00    1.000000E+10  0.00010  4.481E-05    0   0.4854   age181_m22            0.0000     8.5387E+00     1.4833   0.8486    99.4628
 23      0.0000     0.0000E+00    0.0000E+00    1.300000E+10  0.00010  3.489E-05    0   0.4791   age193_m22            0.0000     7.6597E+00     1.4532   0.7947    98.8024
 24      0.0638     9.1354E-02    8.9003E-02    1.500000E+10  0.00010  3.035E-05    0   0.4766   age201_m22            0.0000     6.8975E+00     1.4121   0.7563    98.5791
 25     20.9672     3.6310E+01    3.5145E+01    1.800000E+10  0.00010  2.510E-05    0   0.4735   age213_m22            0.0000     5.6582E+00     1.3461   0.6896    97.8755
 26      0.0000     0.0000E+00    0.0000E+00    1.000000E+06  0.00040  8.458E-03    0   1.0000   age020_m32            0.0000     3.9765E+02     9.9792   4.0000    78.8075
 27      0.0000     0.0000E+00    0.0000E+00    3.160000E+06  0.00040  3.973E-02    0   1.0000   age045_m32            0.0000     1.0832E+02     5.8570   3.3947    88.2470
 28      0.0000     0.0000E+00    0.0000E+00    5.010000E+06  0.00040  1.935E-02    0   0.9532   age055_m32            0.0000     2.7888E+02     9.1509   3.6245    82.1762
 29      0.0000     0.0000E+00    0.0000E+00    6.610000E+06  0.00040  1.204E-02    0   0.9243   age061_m32            0.0000     3.0871E+02     9.4768   3.9416    80.0890
 30      0.0000     0.0000E+00    0.0000E+00    8.710000E+06  0.00040  9.433E-03    0   0.9001   age067_m32            0.0000     2.7404E+02     8.9598   3.9128    81.0075
 31      0.0000     0.0000E+00    0.0000E+00    1.000000E+07  0.00040  8.053E-03    0   0.8877   age070_m32            0.0000     2.6062E+02     8.7515   3.8776    81.4608
 32      0.0000     0.0000E+00    0.0000E+00    1.445000E+07  0.00040  7.027E-03    0   0.8578   age078_m32            0.0000     1.4773E+02     6.8399   3.3482    87.0423
 33      0.0000     0.0000E+00    0.0000E+00    2.512000E+07  0.00040  4.707E-03    0   0.8166   age090_m32            0.0000     7.6325E+01     5.0625   3.0481    91.2708
 34      0.0181     2.1217E-04    3.3947E-04    4.000000E+07  0.00040  3.714E-03    0   0.7827   age104_m32            0.0000     4.2506E+01     3.5248   2.8411    94.9859
 35      0.0151     2.1972E-04    3.4105E-04    5.500000E+07  0.00040  2.982E-03    0   0.7593   age110_m32            0.0000     4.2107E+01     3.1944   2.7776    96.3403
 36      0.4810     9.5550E-03    1.3952E-02    1.015200E+08  0.00040  2.188E-03    0   0.7143   age116_m32            0.0000     1.1848E+02     4.5285   2.5063   101.2442
 37      0.1242     3.1950E-03    4.4777E-03    1.609000E+08  0.00040  1.690E-03    0   0.6856   age120_m32            0.0000     2.0295E+02     6.0379   2.2912   104.4267
 38      0.0000     0.0000E+00    0.0000E+00    2.861200E+08  0.00040  1.152E-03    0   0.6509   age125_m32            0.0000     3.0669E+02     7.7893   2.0696   106.3498
 39      0.0000     0.0000E+00    0.0000E+00    5.088000E+08  0.00040  7.331E-04    0   0.6182   age130_m32            0.0000     3.5033E+02     8.4803   1.9106   106.9529
 40      0.0000     0.0000E+00    0.0000E+00    9.047900E+08  0.00040  3.960E-04    0   0.5890   age135_m32            0.0000     1.8564E+02     6.4902   1.4626   104.7984
 41      0.0000     0.0000E+00    0.0000E+00    1.278050E+09  0.00040  2.854E-04    0   0.5687   age138_m32            0.0000     1.2463E+02     5.2064   1.1642   106.7690
 42      0.0000     0.0000E+00    0.0000E+00    1.434000E+09  0.00040  2.531E-04    0   0.5632   age139_m32            0.0000     1.1897E+02     5.0486   1.1026   106.7519
 43      6.9644     2.0344E+00    2.2399E+00    2.500000E+09  0.00040  1.488E-04    0   0.5386   age150_m32            0.0000     7.7369E+01     4.1609   0.8522   104.6071
 44     13.6951     6.5545E+00    6.9660E+00    4.250000E+09  0.00040  9.082E-05    0   0.5199   age158_m32            0.0000     1.6965E+01     2.1723   0.7655   100.5100
 45     19.8683     1.3575E+01    1.4085E+01    6.250000E+09  0.00040  6.362E-05    0   0.5076   age166_m32            0.0000     7.6801E+00     1.5125   0.7298    96.6371
 46      0.0197     1.6195E-02    1.6643E-02    7.500000E+09  0.00040  5.289E-05    0   0.5027   age171_m32            0.0000     1.1213E+01     1.7086   0.6964    95.2370
 47      0.0000     0.0000E+00    0.0000E+00    1.000000E+10  0.00040  3.972E-05    0   0.4948   age181_m32            0.0000     1.5417E+01     1.9069   0.6375    93.7738
 48      0.0000     0.0000E+00    0.0000E+00    1.300000E+10  0.00040  3.283E-05    0   0.4870   age193_m32            0.0000     9.6074E+00     1.7094   0.5900    96.7393
 49      0.0002     3.3659E-04    3.3398E-04    1.500000E+10  0.00040  2.925E-05    0   0.4854   age201_m32            0.0000     1.1484E+01     1.9222   0.5694    98.4875
 50     15.2906     2.6919E+01    2.6518E+01    1.800000E+10  0.00040  2.469E-05    0   0.4819   age213_m32            0.0000     1.4071E+01     2.1136   0.5288    99.0557
 51      0.0000     0.0000E+00    0.0000E+00    1.000000E+06  0.00400  1.114E-02    0   1.0000   age020_m42            0.0000     3.6000E+02     9.7118   4.0000    77.7704
 52      0.0000     0.0000E+00    0.0000E+00    3.160000E+06  0.00400  4.073E-02    0   0.9999   age045_m42            0.0000     6.1206E+01     4.4665   3.1007    90.8888
 53      0.0000     0.0000E+00    0.0000E+00    5.010000E+06  0.00400  2.534E-02    0   0.9488   age055_m42            0.0000     1.7247E+02     7.2025   3.5071    84.3483
 54      1.7884     3.0095E-03    5.6721E-03    6.610000E+06  0.00400  2.583E-02    0   0.9220   age061_m42            0.0000     4.5781E+01     3.8349   2.9128    92.0029
 55      0.0000     0.0000E+00    0.0000E+00    8.710000E+06  0.00400  1.706E-02    0   0.8983   age067_m42            0.0000     9.2478E+01     5.5004   2.7361    90.0771
 56      0.0000     0.0000E+00    0.0000E+00    1.000000E+07  0.00400  1.271E-02    0   0.8862   age070_m42            0.0000     1.5507E+02     7.1734   2.7206    88.5925
 57      0.0000     0.0000E+00    0.0000E+00    1.445000E+07  0.00400  7.666E-03    0   0.8571   age078_m42            0.0000     2.1138E+02     7.9744   3.1266    85.0654
 58      0.0000     0.0000E+00    0.0000E+00    2.512000E+07  0.00400  5.070E-03    0   0.8174   age090_m42            0.0000     1.2861E+02     6.5505   2.5876    90.2951
 59      0.0000     0.0000E+00    0.0000E+00    4.000000E+07  0.00400  3.505E-03    0   0.7851   age104_m42            0.0000     6.6655E+01     4.7343   2.2720    93.3191
 60      0.0000     0.0000E+00    0.0000E+00    5.500000E+07  0.00400  3.059E-03    0   0.7629   age110_m42            0.0000     3.0507E+01     2.5661   2.3186    98.6076
 61      0.0000     0.0000E+00    0.0000E+00    1.015200E+08  0.00400  2.268E-03    0   0.7207   age116_m42            0.0000     1.7492E+02     5.8101   2.2167   104.7119
 62      0.0000     0.0000E+00    0.0000E+00    1.609000E+08  0.00400  1.720E-03    0   0.6930   age120_m42            0.0000     2.1058E+02     6.5752   2.0760   106.3177
 63      0.0000     0.0000E+00    0.0000E+00    2.861200E+08  0.00400  1.079E-03    0   0.6613   age125_m42            0.0000     2.2121E+02     6.7902   1.7220   106.7988
 64      0.0000     0.0000E+00    0.0000E+00    5.088000E+08  0.00400  6.261E-04    0   0.6313   age130_m42            0.0000     2.5772E+02     7.3374   1.5256   109.8641
 65      0.0000     0.0000E+00    0.0000E+00    9.047900E+08  0.00400  3.535E-04    0   0.6024   age135_m42            0.0000     1.4469E+02     5.8195   1.1419   109.2103
 66      0.0000     0.0000E+00    0.0000E+00    1.278050E+09  0.00400  2.677E-04    0   0.5837   age138_m42            0.0000     1.1098E+02     5.6388   0.5038   104.4467
 67      0.0000     0.0000E+00    0.0000E+00    1.434000E+09  0.00400  1.910E-04    0   0.5716   age139_m42            0.0000     1.0766E+02     5.4952   0.6594   105.8859
 68      0.0000     0.0000E+00    0.0000E+00    2.500000E+09  0.00400  9.818E-05    0   0.5463   age150_m42            0.0000     9.4089E+01     5.0405   0.4190    99.6324
 69      0.0000     0.0000E+00    0.0000E+00    4.250000E+09  0.00400  5.491E-05    0   0.5269   age158_m42            0.0000     1.0597E+02     5.0143   0.3046    96.3865
 70      0.0000     0.0000E+00    0.0000E+00    6.250000E+09  0.00400  3.857E-05    0   0.5151   age166_m42            0.0000     1.4021E+02     5.6087   0.1908    94.5904
 71      0.0000     0.0000E+00    0.0000E+00    7.500000E+09  0.00400  3.243E-05    0   0.5110   age171_m42            0.0000     1.6504E+02     6.0117   0.1205    93.7662
 72      0.0000     0.0000E+00    0.0000E+00    1.000000E+10  0.00400  2.424E-05    0   0.5028   age181_m42            0.0000     1.9992E+02     6.5308   0.0509    92.8046
 73      0.0000     0.0000E+00    0.0000E+00    1.300000E+10  0.00400  1.883E-05    0   0.4927   age193_m42            0.0000     2.2706E+02     6.9041   0.0172    92.2769
 74      0.0000     0.0000E+00    0.0000E+00    1.500000E+10  0.00400  1.685E-05    0   0.4919   age201_m42            0.0000     2.1976E+02     6.8029   0.0191    92.3848
 75      0.0000     0.0000E+00    0.0000E+00    1.800000E+10  0.00400  1.452E-05    0   0.4874   age213_m42            0.0000     2.0617E+02     6.6154   0.0306    92.7699
 76      0.0000     0.0000E+00    0.0000E+00    1.000000E+06  0.00800  1.286E-02    0   1.0000   age020_m52            0.0000     3.1080E+02     9.1532   4.0000    79.0603
 77      0.0000     0.0000E+00    0.0000E+00    3.160000E+06  0.00800  3.147E-02    0   0.9966   age045_m52            0.0000     2.9677E+02     9.1905   3.9569    79.6242
 78      0.0000     0.0000E+00    0.0000E+00    5.010000E+06  0.00800  2.664E-02    0   0.9443   age055_m52            0.0000     2.0933E+02     7.7493   3.6268    83.2273
 79      0.0000     0.0000E+00    0.0000E+00    6.610000E+06  0.00800  2.151E-02    0   0.9177   age061_m52            0.0000     1.2542E+02     6.0220   2.3236    89.8812
 80      0.0000     0.0000E+00    0.0000E+00    8.710000E+06  0.00800  1.628E-02    0   0.8948   age067_m52            0.0000     1.1404E+02     6.0720   2.6881    90.5630
 81      0.0000     0.0000E+00    0.0000E+00    1.000000E+07  0.00800  1.215E-02    0   0.8827   age070_m52            0.0000     1.4682E+02     6.8311   3.0280    88.6295
 82      0.0000     0.0000E+00    0.0000E+00    1.445000E+07  0.00800  8.739E-03    0   0.8552   age078_m52            0.0000     1.1013E+02     5.9553   3.0663    90.0396
 83      0.0000     0.0000E+00    0.0000E+00    2.512000E+07  0.00800  5.676E-03    0   0.8162   age090_m52            0.0000     6.1614E+01     4.4052   2.6579    95.3956
 84      0.0000     0.0000E+00    0.0000E+00    4.000000E+07  0.00800  3.939E-03    0   0.7841   age104_m52            0.0000     4.3775E+01     3.1946   2.4944    98.1601
 85      0.0000     0.0000E+00    0.0000E+00    5.500000E+07  0.00800  3.155E-03    0   0.7627   age110_m52            0.0000     5.4063E+01     3.0146   2.4620   100.1164
 86      0.0000     0.0000E+00    0.0000E+00    1.015200E+08  0.00800  2.206E-03    0   0.7226   age116_m52            0.0000     1.1970E+02     4.7374   2.2756   104.3453
 87      0.0000     0.0000E+00    0.0000E+00    1.609000E+08  0.00800  1.596E-03    0   0.6963   age120_m52            0.0000     1.6127E+02     5.7268   2.0591   106.1754
 88      0.0000     0.0000E+00    0.0000E+00    2.861200E+08  0.00800  1.002E-03    0   0.6665   age125_m52            0.0000     2.9875E+02     8.1293   1.7723   108.9647
 89      0.0000     0.0000E+00    0.0000E+00    5.088000E+08  0.00800  5.759E-04    0   0.6377   age130_m52            0.0000     3.4999E+02     9.0833   1.4397   112.4078
 90      0.0000     0.0000E+00    0.0000E+00    9.047900E+08  0.00800  2.972E-04    0   0.6086   age135_m52            0.0000     2.3751E+02     7.8744   0.9400   109.4186
 91      0.0000     0.0000E+00    0.0000E+00    1.278050E+09  0.00800  2.242E-04    0   0.5907   age138_m52            0.0000     1.6998E+02     6.8082   0.3468   106.7661
 92      0.0000     0.0000E+00    0.0000E+00    1.434000E+09  0.00800  1.645E-04    0   0.5787   age139_m52            0.0000     1.4131E+02     6.2491   0.4900   106.3113
 93      0.0000     0.0000E+00    0.0000E+00    2.500000E+09  0.00800  7.723E-05    0   0.5519   age150_m52            0.0000     1.6618E+02     6.4699   0.1741   101.4436
 94      0.0000     0.0000E+00    0.0000E+00    4.250000E+09  0.00800  4.151E-05    0   0.5320   age158_m52            0.0000     1.7511E+02     6.4435   0.1134    98.4979
 95      0.0000     0.0000E+00    0.0000E+00    6.250000E+09  0.00800  3.010E-05    0   0.5197   age166_m52            0.0000     2.3558E+02     7.2974  -0.0658    96.5736
 96      0.0000     0.0000E+00    0.0000E+00    7.500000E+09  0.00800  2.467E-05    0   0.5139   age171_m52            0.0000     2.5255E+02     7.5237  -0.1021    96.0149
 97      0.0000     0.0000E+00    0.0000E+00    1.000000E+10  0.00800  1.862E-05    0   0.5054   age181_m52            0.0000     3.0802E+02     8.2727  -0.2206    95.2684
