###################################################################
## OUTPUT of StarlightChains_v04.for    [Cid@UFSC - 01/Apr/2007] ##
###################################################################

## Some input info
NGC5927_a_1.cxt                          [arq_obs]
Base.BC03.S                              [arq_base]
NGC5927_a_1.msk                          [arq_masks]
StCv04.C11.config                        [arq_config]
  150                                    [N_base]
    0                                    [N_YAV_components = # of components with extra extinction!]
    0                                    [i_FitPowerLaw (1/0 = Yes/No)]
-9.99                                    [alpha_PowerLaw]
CCM                                      [red_law_option]
 1.458241                                [q_norm = A(l_norm)/A(V)]

## (Re)Sampling Parameters
 3359.00                                 [l_ini (A)]
 6428.00                                 [l_fin (A)]
    1.00                                 [dl    (A)]     (OBS: dl_cushion =    50.00 A)

## Normalization info
 4020.00                                 [l_norm (A) - for base]
 4010.00                                 [llow_norm (A) - window for f_obs]
 4060.00                                 [lupp_norm (A) - window for f_obs]
6.245917E-15                             [fobs_norm (in input units)]

## S/N
 4730.00                                 [llow_SN (A) - window for S/N]
 4780.00                                 [lupp_SN (A) - window for S/N]
  32.311                                 [S/N in S/N window]
  18.790                                 [S/N in norm. window]
  40.662                                 [S/N_err in S/N window]
  23.646                                 [S/N_err in norm. window]
  1.0000                                 [fscale_chi2]

## etc...
  2147483633                             [idum_orig]
  3068                                   [NOl_eff]
  1725                                   [Nl_eff]
  1343    NSIGMA                         [Ntot_cliped & clip_method]
  2114280                                [Nglobal_steps]
   7                                     [N_chains]
  33                                     [NEX0s_base = N_base in EX0s-fits]
 0   0   1      209   2.0   5.155E+02    [Clip-Bug, RC-Crash & Burn-In warning-flags, n_censored_weights, wei_nsig_threshold & wei_limit]
    67     66.410     66.406      0.004  [idt_all, wdt_TotTime, wdt_UsrTime & wdt_SysTime (sec)]

## Synthesis Results - Best model ##

 1.66411E+00                             [chi2/Nl_eff]
     1.81924                             [adev (%)]

   100.79259                             [sum-of-x (%)]
 3.40123E-14                             [Flux_tot (units of input spectrum!)]
 2.18628E-09                             [Mini_tot (???)]
 1.09506E-09                             [Mcor_tot (???)]

   9.59                                  [v0_min  (km/s)]
  54.04                                  [vd_min  (km/s)]
 1.2560                                  [AV_min  (mag)]
 0.0000                                  [YAV_min (mag)]

# j     x_j(%)      Mini_j(%)     Mcor_j(%)     age_j(yr)     Z_j      (L/M)_j    YAV?  Mstars   component_j        a/Fe...       SSP_chi2r SSP_adev(%)   SSP_AV   SSP_x(%)
  1      3.5138     6.6464E-03    1.3270E-02    1.000000E+06  0.00010  8.160E-03    0   1.0000   age020_m22            0.0000     1.4313E+03    36.1554   4.0000    86.9106
  2     15.9279     5.1659E-03    1.0314E-02    3.160000E+06  0.00010  4.759E-02    0   1.0000   age045_m22            0.0000     2.6503E+02     8.0409   3.5204    96.9161
  3      2.2346     1.7853E-03    3.4153E-03    5.010000E+06  0.00010  1.932E-02    0   0.9582   age055_m22            0.0000     3.5523E+02    13.5514   3.8602    86.1373
  4      0.0006     8.8551E-07    1.6436E-06    6.610000E+06  0.00010  9.973E-03    0   0.9297   age061_m22            0.0000     1.3594E+03    35.9978   4.0000    89.0529
  5      0.0000     0.0000E+00    0.0000E+00    8.710000E+06  0.00010  7.690E-03    0   0.9030   age067_m22            0.0000     1.3269E+03    35.7104   4.0000    89.4803
  6      0.0000     0.0000E+00    0.0000E+00    1.000000E+07  0.00010  6.375E-03    0   0.8902   age070_m22            0.0000     1.3161E+03    35.8632   4.0000    89.6471
  7      0.0000     0.0000E+00    0.0000E+00    1.445000E+07  0.00010  4.874E-03    0   0.8589   age078_m22            0.0000     1.0646E+03    31.6127   4.0000    92.3561
  8      0.0000     0.0000E+00    0.0000E+00    2.512000E+07  0.00010  4.103E-03    0   0.8174   age090_m22            0.0000     6.7124E+02    22.3410   4.0000    96.9012
  9      0.0000     0.0000E+00    0.0000E+00    4.000000E+07  0.00010  3.654E-03    0   0.7830   age104_m22            0.0000     5.4909E+02    16.0144   4.0000    98.9791
 10      0.0000     0.0000E+00    0.0000E+00    5.500000E+07  0.00010  3.093E-03    0   0.7597   age110_m22            0.0000     5.1632E+02    14.0699   4.0000    99.4548
 11      0.0000     0.0000E+00    0.0000E+00    1.015200E+08  0.00010  2.431E-03    0   0.7138   age116_m22            0.0000     4.9086E+02     8.4815   4.0000    98.8086
 12      0.0000     0.0000E+00    0.0000E+00    1.609000E+08  0.00010  1.319E-03    0   0.6775   age120_m22            0.0000     4.6808E+02     7.7232   3.6378    99.7296
 13      0.0000     0.0000E+00    0.0000E+00    2.861200E+08  0.00010  1.075E-03    0   0.6412   age125_m22            0.0000     7.2023E+02     9.0214   3.6766   101.7897
 14      0.0000     0.0000E+00    0.0000E+00    5.088000E+08  0.00010  7.183E-04    0   0.6083   age130_m22            0.0000     7.9594E+02     9.9160   3.4213   103.2266
 15      0.0000     0.0000E+00    0.0000E+00    9.047900E+08  0.00010  4.524E-04    0   0.5785   age135_m22            0.0000     7.9363E+02    10.1454   3.2136   104.3792
 16      0.0000     0.0000E+00    0.0000E+00    1.278050E+09  0.00010  3.018E-04    0   0.5588   age138_m22            0.0000     5.2146E+02     8.3941   2.6799   103.5870
 17      0.0000     0.0000E+00    0.0000E+00    1.434000E+09  0.00010  2.691E-04    0   0.5532   age139_m22            0.0000     4.6790E+02     8.0629   2.5232   103.2177
 18      0.0000     0.0000E+00    0.0000E+00    2.500000E+09  0.00010  1.582E-04    0   0.5296   age150_m22            0.0000     4.4282E+02     7.8520   2.4273   104.0056
 19      0.0000     0.0000E+00    0.0000E+00    4.250000E+09  0.00010  1.007E-04    0   0.5110   age158_m22            0.0000     3.3700E+02     7.0722   2.2802   103.0543
 20      0.0000     0.0000E+00    0.0000E+00    6.250000E+09  0.00010  6.869E-05    0   0.4985   age166_m22            0.0000     2.5213E+02     6.4929   2.2327   100.9877
 21      0.0000     0.0000E+00    0.0000E+00    7.500000E+09  0.00010  5.873E-05    0   0.4931   age171_m22            0.0000     2.4487E+02     6.5294   2.2268   100.5666
 22      0.0000     0.0000E+00    0.0000E+00    1.000000E+10  0.00010  4.481E-05    0   0.4854   age181_m22            0.0000     2.3908E+02     6.4534   2.1856   100.2821
 23      0.0000     0.0000E+00    0.0000E+00    1.300000E+10  0.00010  3.489E-05    0   0.4791   age193_m22            0.0000     2.2600E+02     6.2961   2.1249    99.8763
 24      0.0000     0.0000E+00    0.0000E+00    1.500000E+10  0.00010  3.035E-05    0   0.4766   age201_m22            0.0000     2.1812E+02     6.2060   2.0842    99.7802
 25      0.0000     0.0000E+00    0.0000E+00    1.800000E+10  0.00010  2.510E-05    0   0.4735   age213_m22            0.0000     2.0091E+02     6.0260   2.0162    99.3414
 26      1.7713     3.2325E-03    6.4536E-03    1.000000E+06  0.00040  8.458E-03    0   1.0000   age020_m32            0.0000     1.4271E+03    36.5792   4.0000    87.3926
 27      0.0010     3.8978E-07    7.7820E-07    3.160000E+06  0.00040  3.973E-02    0   1.0000   age045_m32            0.0000     6.2052E+02    20.0382   4.0000    96.6258
 28      0.0000     0.0000E+00    0.0000E+00    5.010000E+06  0.00040  1.935E-02    0   0.9532   age055_m32            0.0000     8.7967E+02    26.0642   4.0000    92.0274
 29      0.0000     0.0000E+00    0.0000E+00    6.610000E+06  0.00040  1.204E-02    0   0.9243   age061_m32            0.0000     1.1729E+03    32.7930   4.0000    90.9107
 30      0.1113     1.8205E-04    3.2715E-04    8.710000E+06  0.00040  9.433E-03    0   0.9001   age067_m32            0.0000     1.1165E+03    32.0285   4.0000    91.7421
 31      0.0000     0.0000E+00    0.0000E+00    1.000000E+07  0.00040  8.053E-03    0   0.8877   age070_m32            0.0000     1.0717E+03    31.1978   4.0000    92.1502
 32      0.0000     0.0000E+00    0.0000E+00    1.445000E+07  0.00040  7.027E-03    0   0.8578   age078_m32            0.0000     6.2272E+02    19.4028   4.0000    95.2503
 33      0.0000     0.0000E+00    0.0000E+00    2.512000E+07  0.00040  4.707E-03    0   0.8166   age090_m32            0.0000     4.4860E+02    12.6467   4.0000    96.8286
 34      0.0000     0.0000E+00    0.0000E+00    4.000000E+07  0.00040  3.714E-03    0   0.7827   age104_m32            0.0000     4.1799E+02     9.1380   4.0000    97.7376
 35      0.0000     0.0000E+00    0.0000E+00    5.500000E+07  0.00040  2.982E-03    0   0.7593   age110_m32            0.0000     4.2929E+02     8.5603   4.0000    97.9516
 36      0.0000     0.0000E+00    0.0000E+00    1.015200E+08  0.00040  2.188E-03    0   0.7143   age116_m32            0.0000     5.4668E+02     8.0513   3.9032    99.1439
 37      0.0000     0.0000E+00    0.0000E+00    1.609000E+08  0.00040  1.690E-03    0   0.6856   age120_m32            0.0000     6.4739E+02     8.4172   3.6813   101.1548
 38      0.0000     0.0000E+00    0.0000E+00    2.861200E+08  0.00040  1.152E-03    0   0.6509   age125_m32            0.0000     7.3307E+02     9.2856   3.4213   102.7439
 39      0.0000     0.0000E+00    0.0000E+00    5.088000E+08  0.00040  7.331E-04    0   0.6182   age130_m32            0.0000     7.5692E+02     9.7449   3.2396   103.4782
 40      0.0000     0.0000E+00    0.0000E+00    9.047900E+08  0.00040  3.960E-04    0   0.5890   age135_m32            0.0000     5.2667E+02     8.6648   2.7561   103.0165
 41      0.0000     0.0000E+00    0.0000E+00    1.278050E+09  0.00040  2.854E-04    0   0.5687   age138_m32            0.0000     4.7145E+02     8.0227   2.4871   104.9352
 42      0.0000     0.0000E+00    0.0000E+00    1.434000E+09  0.00040  2.531E-04    0   0.5632   age139_m32            0.0000     4.6261E+02     7.9668   2.4273   104.8876
 43      0.0000     0.0000E+00    0.0000E+00    2.500000E+09  0.00040  1.488E-04    0   0.5386   age150_m32            0.0000     3.7367E+02     7.3653   2.1664   103.5234
 44      0.0000     0.0000E+00    0.0000E+00    4.250000E+09  0.00040  9.082E-05    0   0.5199   age158_m32            0.0000     2.3374E+02     6.1617   2.0783   101.2914
 45      0.0000     0.0000E+00    0.0000E+00    6.250000E+09  0.00040  6.362E-05    0   0.5076   age166_m32            0.0000     1.6177E+02     5.6757   2.0540    98.9105
 46      0.0000     0.0000E+00    0.0000E+00    7.500000E+09  0.00040  5.289E-05    0   0.5027   age171_m32            0.0000     1.4610E+02     5.5159   2.0148    97.8897
 47      0.0000     0.0000E+00    0.0000E+00    1.000000E+10  0.00040  3.972E-05    0   0.4948   age181_m32            0.0000     1.3223E+02     5.3202   1.9454    96.6851
 48      0.0000     0.0000E+00    0.0000E+00    1.300000E+10  0.00040  3.283E-05    0   0.4870   age193_m32            0.0000     1.5987E+02     5.3684   1.8920    98.9590
 49      0.0000     0.0000E+00    0.0000E+00    1.500000E+10  0.00040  2.925E-05    0   0.4854   age201_m32            0.0000     1.8225E+02     5.5184   1.8677   100.2822
 50      0.0000     0.0000E+00    0.0000E+00    1.800000E+10  0.00040  2.469E-05    0   0.4819   age213_m32            0.0000     1.8931E+02     5.5242   1.8243   100.7123
 51      0.2152     2.9813E-04    5.9521E-04    1.000000E+06  0.00400  1.114E-02    0   1.0000   age020_m42            0.0000     1.3348E+03    34.9373   4.0000    87.9312
 52      0.6748     2.5573E-04    5.1051E-04    3.160000E+06  0.00400  4.073E-02    0   0.9999   age045_m42            0.0000     4.0480E+02    12.8279   4.0000    97.3235
 53      0.0000     0.0000E+00    0.0000E+00    5.010000E+06  0.00400  2.534E-02    0   0.9488   age055_m42            0.0000     7.0712E+02    22.3889   4.0000    93.9879
 54      1.5788     9.4341E-04    1.7366E-03    6.610000E+06  0.00400  2.583E-02    0   0.9220   age061_m42            0.0000     3.7819E+02     9.3268   4.0000    96.4277
 55      0.0917     8.2972E-05    1.4881E-04    8.710000E+06  0.00400  1.706E-02    0   0.8983   age067_m42            0.0000     3.3534E+02     8.4420   4.0000    93.8710
 56      0.0439     5.3329E-05    9.4355E-05    1.000000E+07  0.00400  1.271E-02    0   0.8862   age070_m42            0.0000     3.5230E+02     9.3479   4.0000    92.7117
 57      0.0000     0.0000E+00    0.0000E+00    1.445000E+07  0.00400  7.666E-03    0   0.8571   age078_m42            0.0000     4.9452E+02    13.8181   4.0000    93.0229
 58      0.0000     0.0000E+00    0.0000E+00    2.512000E+07  0.00400  5.070E-03    0   0.8174   age090_m42            0.0000     3.1320E+02     9.9952   4.0000    93.1070
 59      0.0000     0.0000E+00    0.0000E+00    4.000000E+07  0.00400  3.505E-03    0   0.7851   age104_m42            0.0000     2.7452E+02     8.2755   3.6671    95.6316
 60      0.0000     0.0000E+00    0.0000E+00    5.500000E+07  0.00400  3.059E-03    0   0.7629   age110_m42            0.0000     3.5613E+02     6.8048   3.6967    98.6959
 61      0.0000     0.0000E+00    0.0000E+00    1.015200E+08  0.00400  2.268E-03    0   0.7207   age116_m42            0.0000     5.7340E+02     7.6654   3.5779   102.3792
 62      0.0000     0.0000E+00    0.0000E+00    1.609000E+08  0.00400  1.720E-03    0   0.6930   age120_m42            0.0000     5.9096E+02     7.9218   3.4213   103.9819
 63      0.0000     0.0000E+00    0.0000E+00    2.861200E+08  0.00400  1.079E-03    0   0.6613   age125_m42            0.0000     5.7819E+02     8.2468   3.0407   104.4408
 64      0.0000     0.0000E+00    0.0000E+00    5.088000E+08  0.00400  6.261E-04    0   0.6313   age130_m42            0.0000     6.1917E+02     8.8313   2.8411   107.1222
 65      0.0000     0.0000E+00    0.0000E+00    9.047900E+08  0.00400  3.535E-04    0   0.6024   age135_m42            0.0000     4.2855E+02     7.6528   2.4309   108.1048
 66      0.0000     0.0000E+00    0.0000E+00    1.278050E+09  0.00400  2.677E-04    0   0.5837   age138_m42            0.0000     1.7230E+02     5.8691   1.7006   106.8062
 67      0.0000     0.0000E+00    0.0000E+00    1.434000E+09  0.00400  1.910E-04    0   0.5716   age139_m42            0.0000     2.3446E+02     6.2362   1.8787   107.4038
 68      0.0000     0.0000E+00    0.0000E+00    2.500000E+09  0.00400  9.818E-05    0   0.5463   age150_m42            0.0000     8.7969E+01     4.2667   1.6097   103.5948
 69      0.0000     0.0000E+00    0.0000E+00    4.250000E+09  0.00400  5.491E-05    0   0.5269   age158_m42            0.0000     4.3560E+01     3.2593   1.4922   101.2658
 70      0.0000     0.0000E+00    0.0000E+00    6.250000E+09  0.00400  3.857E-05    0   0.5151   age166_m42            0.0000     2.8410E+01     3.1465   1.3584   100.1603
 71      0.0000     0.0000E+00    0.0000E+00    7.500000E+09  0.00400  3.243E-05    0   0.5110   age171_m42            0.0000     2.4188E+01     3.2758   1.2729    99.6799
 72      0.0000     0.0000E+00    0.0000E+00    1.000000E+10  0.00400  2.424E-05    0   0.5028   age181_m42            0.0000     2.1467E+01     3.5001   1.1853    99.1236
 73      0.0000     0.0000E+00    0.0000E+00    1.300000E+10  0.00400  1.883E-05    0   0.4927   age193_m42            0.0000     2.0983E+01     3.6374   1.1419    98.8646
 74      2.0333     1.8625E+00    1.8292E+00    1.500000E+10  0.00400  1.685E-05    0   0.4919   age201_m42            0.0000     2.0126E+01     3.5347   1.1478    98.8817
 75      0.5442     5.7845E-01    5.6289E-01    1.800000E+10  0.00400  1.452E-05    0   0.4874   age213_m42            0.0000     1.9024E+01     3.3567   1.1665    99.1388
 76      0.0000     0.0000E+00    0.0000E+00    1.000000E+06  0.00800  1.286E-02    0   1.0000   age020_m52            0.0000     1.2500E+03    34.3786   4.0000    89.4154
 77      0.0000     0.0000E+00    0.0000E+00    3.160000E+06  0.00800  3.147E-02    0   0.9966   age045_m52            0.0000     1.1674E+03    32.7231   4.0000    90.7248
 78      0.0000     0.0000E+00    0.0000E+00    5.010000E+06  0.00800  2.664E-02    0   0.9443   age055_m52            0.0000     8.2236E+02    25.1145   4.0000    93.6054
 79      0.0000     0.0000E+00    0.0000E+00    6.610000E+06  0.00800  2.151E-02    0   0.9177   age061_m52            0.0000     2.4482E+02     9.5857   3.7273    93.3325
 80      0.0000     0.0000E+00    0.0000E+00    8.710000E+06  0.00800  1.628E-02    0   0.8948   age067_m52            0.0000     3.2106E+02     8.7302   4.0000    94.0530
 81      0.0000     0.0000E+00    0.0000E+00    1.000000E+07  0.00800  1.215E-02    0   0.8827   age070_m52            0.0000     4.4341E+02    11.9742   4.0000    94.9858
 82      0.0000     0.0000E+00    0.0000E+00    1.445000E+07  0.00800  8.739E-03    0   0.8552   age078_m52            0.0000     4.6981E+02    12.9568   4.0000    96.1982
 83      0.0000     0.0000E+00    0.0000E+00    2.512000E+07  0.00800  5.676E-03    0   0.8162   age090_m52            0.0000     3.9131E+02     8.1702   4.0000    96.5607
 84      0.0000     0.0000E+00    0.0000E+00    4.000000E+07  0.00800  3.939E-03    0   0.7841   age104_m52            0.0000     4.0058E+02     7.7939   3.9128    97.5198
 85      0.0000     0.0000E+00    0.0000E+00    5.500000E+07  0.00800  3.155E-03    0   0.7627   age110_m52            0.0000     4.3581E+02     7.4540   3.8652    98.9688
 86      0.0000     0.0000E+00    0.0000E+00    1.015200E+08  0.00800  2.206E-03    0   0.7226   age116_m52            0.0000     5.1141E+02     7.3965   3.6460   102.5756
 87      0.0000     0.0000E+00    0.0000E+00    1.609000E+08  0.00800  1.596E-03    0   0.6963   age120_m52            0.0000     5.4456E+02     7.5676   3.4094   104.2338
 88      0.0000     0.0000E+00    0.0000E+00    2.861200E+08  0.00800  1.002E-03    0   0.6665   age125_m52            0.0000     6.4581E+02     8.8736   3.0732   106.5256
 89      0.0000     0.0000E+00    0.0000E+00    5.088000E+08  0.00800  5.759E-04    0   0.6377   age130_m52            0.0000     6.4343E+02     9.5166   2.6954   110.4825
 90      0.0000     0.0000E+00    0.0000E+00    9.047900E+08  0.00800  2.972E-04    0   0.6086   age135_m52            0.0000     3.8981E+02     8.9063   2.1130   109.9030
 91      0.0000     0.0000E+00    0.0000E+00    1.278050E+09  0.00800  2.242E-04    0   0.5907   age138_m52            0.0000     1.5024E+02     6.5678   1.4987   109.4926
 92      0.0000     0.0000E+00    0.0000E+00    1.434000E+09  0.00800  1.645E-04    0   0.5787   age139_m52            0.0000     1.4668E+02     5.9831   1.6616   109.0242
 93      0.0000     0.0000E+00    0.0000E+00    2.500000E+09  0.00800  7.723E-05    0   0.5519   age150_m52            0.0000     5.4738E+01     4.5340   1.3319   105.9810
 94      0.0000     0.0000E+00    0.0000E+00    4.250000E+09  0.00800  4.151E-05    0   0.5320   age158_m52            0.0000     3.4852E+01     4.0840   1.2661   103.6413
 95      0.0018     9.2319E-04    9.5788E-04    6.250000E+09  0.00800  3.010E-05    0   0.5197   age166_m52            0.0000     2.5756E+01     4.3210   1.0597   102.4400
 96      0.0000     0.0000E+00    0.0000E+00    7.500000E+09  0.00800  2.467E-05    0   0.5139   age171_m52            0.0000     2.6416E+01     4.5090   1.0126   102.0901
 97      1.7546     1.4544E+00    1.4676E+00    1.000000E+10  0.00800  1.862E-05    0   0.5054   age181_m52            0.0000     3.3666E+01     5.2285   0.8660   101.7947
