###################################################################
## OUTPUT of StarlightChains_v04.for    [Cid@UFSC - 01/Apr/2007] ##
###################################################################

## Some input info
NGC5946_a_1.cxt                          [arq_obs]
Base.BC03.S                              [arq_base]
NGC5946_a_1.msk                          [arq_masks]
StCv04.C11.config                        [arq_config]
  150                                    [N_base]
    0                                    [N_YAV_components = # of components with extra extinction!]
    0                                    [i_FitPowerLaw (1/0 = Yes/No)]
-9.99                                    [alpha_PowerLaw]
CCM                                      [red_law_option]
 1.458241                                [q_norm = A(l_norm)/A(V)]

## (Re)Sampling Parameters
 3359.00                                 [l_ini (A)]
 6428.00                                 [l_fin (A)]
    1.00                                 [dl    (A)]     (OBS: dl_cushion =    50.00 A)

## Normalization info
 4020.00                                 [l_norm (A) - for base]
 4010.00                                 [llow_norm (A) - window for f_obs]
 4060.00                                 [lupp_norm (A) - window for f_obs]
2.679293E-15                             [fobs_norm (in input units)]

## S/N
 4730.00                                 [llow_SN (A) - window for S/N]
 4780.00                                 [lupp_SN (A) - window for S/N]
  76.219                                 [S/N in S/N window]
  50.437                                 [S/N in norm. window]
 152.898                                 [S/N_err in S/N window]
 101.177                                 [S/N_err in norm. window]
  1.0000                                 [fscale_chi2]

## etc...
  2147483630                             [idum_orig]
  3068                                   [NOl_eff]
   810                                   [Nl_eff]
  2258    NSIGMA                         [Ntot_cliped & clip_method]
  1859830                                [Nglobal_steps]
   7                                     [N_chains]
  25                                     [NEX0s_base = N_base in EX0s-fits]
 0   0   1      136   2.0   2.373E+02    [Clip-Bug, RC-Crash & Burn-In warning-flags, n_censored_weights, wei_nsig_threshold & wei_limit]
    86     86.148     86.135      0.012  [idt_all, wdt_TotTime, wdt_UsrTime & wdt_SysTime (sec)]

## Synthesis Results - Best model ##

 2.47142E+00                             [chi2/Nl_eff]
     1.68306                             [adev (%)]

    97.93842                             [sum-of-x (%)]
 3.80578E-14                             [Flux_tot (units of input spectrum!)]
 1.05789E-09                             [Mini_tot (???)]
 5.17202E-10                             [Mcor_tot (???)]

 -37.49                                  [v0_min  (km/s)]
  77.52                                  [vd_min  (km/s)]
 1.9912                                  [AV_min  (mag)]
 0.0000                                  [YAV_min (mag)]

# j     x_j(%)      Mini_j(%)     Mcor_j(%)     age_j(yr)     Z_j      (L/M)_j    YAV?  Mstars   component_j        a/Fe...       SSP_chi2r SSP_adev(%)   SSP_AV   SSP_x(%)
  1      0.1669     7.5136E-04    1.5368E-03    1.000000E+06  0.00010  8.160E-03    0   1.0000   age020_m22            0.0000     2.3108E+03    35.5246   4.0000    95.5152
  2      1.8010     1.3901E-03    2.8433E-03    3.160000E+06  0.00010  4.759E-02    0   1.0000   age045_m22            0.0000     2.2180E+01     3.6359   3.3075    97.5317
  3      9.0159     1.7142E-02    3.3596E-02    5.010000E+06  0.00010  1.932E-02    0   0.9582   age055_m22            0.0000     1.8801E+02    12.0311   3.5729    84.2955
  4      0.0000     0.0000E+00    0.0000E+00    6.610000E+06  0.00010  9.973E-03    0   0.9297   age061_m22            0.0000     2.1847E+03    34.0952   4.0000    98.3308
  5      0.0000     0.0000E+00    0.0000E+00    8.710000E+06  0.00010  7.690E-03    0   0.9030   age067_m22            0.0000     2.1395E+03    33.6218   4.0000    98.8409
  6      0.0000     0.0000E+00    0.0000E+00    1.000000E+07  0.00010  6.375E-03    0   0.8902   age070_m22            0.0000     2.1594E+03    33.5280   4.0000    99.1385
  7      0.0000     0.0000E+00    0.0000E+00    1.445000E+07  0.00010  4.874E-03    0   0.8589   age078_m22            0.0000     1.5722E+03    29.0362   4.0000   101.5172
  8      0.0000     0.0000E+00    0.0000E+00    2.512000E+07  0.00010  4.103E-03    0   0.8174   age090_m22            0.0000     5.9324E+02    18.6104   4.0000   104.4522
  9      0.0000     0.0000E+00    0.0000E+00    4.000000E+07  0.00010  3.654E-03    0   0.7830   age104_m22            0.0000     2.2008E+02    10.1549   4.0000   104.6089
 10      0.0000     0.0000E+00    0.0000E+00    5.500000E+07  0.00010  3.093E-03    0   0.7597   age110_m22            0.0000     1.5933E+02     7.8887   4.0000   104.1574
 11      0.0000     0.0000E+00    0.0000E+00    1.015200E+08  0.00010  2.431E-03    0   0.7138   age116_m22            0.0000     1.0597E+02     7.6702   3.9402   100.2061
 12      0.0000     0.0000E+00    0.0000E+00    1.609000E+08  0.00010  1.319E-03    0   0.6775   age120_m22            0.0000     1.1223E+02     7.9672   3.4619   102.3978
 13      0.0000     0.0000E+00    0.0000E+00    2.861200E+08  0.00010  1.075E-03    0   0.6412   age125_m22            0.0000     3.3957E+02    14.3957   3.5528   105.5858
 14      0.0000     0.0000E+00    0.0000E+00    5.088000E+08  0.00010  7.183E-04    0   0.6083   age130_m22            0.0000     4.2856E+02    16.2753   3.3386   106.8814
 15      0.0000     0.0000E+00    0.0000E+00    9.047900E+08  0.00010  4.524E-04    0   0.5785   age135_m22            0.0000     4.3845E+02    16.5636   3.1456   107.8405
 16      0.0000     0.0000E+00    0.0000E+00    1.278050E+09  0.00010  3.018E-04    0   0.5588   age138_m22            0.0000     2.1530E+02    11.7402   2.6009   106.2546
 17      0.0000     0.0000E+00    0.0000E+00    1.434000E+09  0.00010  2.691E-04    0   0.5532   age139_m22            0.0000     1.7834E+02    10.7333   2.4451   105.6293
 18      0.0000     0.0000E+00    0.0000E+00    2.500000E+09  0.00010  1.582E-04    0   0.5296   age150_m22            0.0000     1.4844E+02     9.8577   2.3268   106.3560
 19      0.0000     0.0000E+00    0.0000E+00    4.250000E+09  0.00010  1.007E-04    0   0.5110   age158_m22            0.0000     8.0628E+01     7.2933   2.1729   104.6561
 20      0.0000     0.0000E+00    0.0000E+00    6.250000E+09  0.00010  6.869E-05    0   0.4985   age166_m22            0.0000     3.3342E+01     4.6809   2.1094   101.9129
 21      0.1060     6.6322E-02    6.6892E-02    7.500000E+09  0.00010  5.873E-05    0   0.4931   age171_m22            0.0000     2.6236E+01     4.1627   2.0938   101.3980
 22      0.2672     2.1904E-01    2.1747E-01    1.000000E+10  0.00010  4.481E-05    0   0.4854   age181_m22            0.0000     2.5063E+01     4.1078   2.0554   101.0536
 23      1.2652     1.3320E+00    1.3053E+00    1.300000E+10  0.00010  3.489E-05    0   0.4791   age193_m22            0.0000     2.2249E+01     3.9255   2.0007   100.4875
 24      1.5246     1.8452E+00    1.7987E+00    1.500000E+10  0.00010  3.035E-05    0   0.4766   age201_m22            0.0000     2.0117E+01     3.7661   1.9609   100.3438
 25      7.1508     1.0465E+01    1.0135E+01    1.800000E+10  0.00010  2.510E-05    0   0.4735   age213_m22            0.0000     1.5255E+01     3.3577   1.8920    99.7754
 26      0.0000     0.0000E+00    0.0000E+00    1.000000E+06  0.00040  8.458E-03    0   1.0000   age020_m32            0.0000     2.3464E+03    35.4086   4.0000    96.2747
 27      0.0000     0.0000E+00    0.0000E+00    3.160000E+06  0.00040  3.973E-02    0   1.0000   age045_m32            0.0000     4.4445E+02    16.6095   4.0000   102.7215
 28      0.0000     0.0000E+00    0.0000E+00    5.010000E+06  0.00040  1.935E-02    0   0.9532   age055_m32            0.0000     9.4919E+02    24.2488   4.0000    98.8704
 29      0.0000     0.0000E+00    0.0000E+00    6.610000E+06  0.00040  1.204E-02    0   0.9243   age061_m32            0.0000     1.7202E+03    30.7224   4.0000    99.9326
 30      0.0000     0.0000E+00    0.0000E+00    8.710000E+06  0.00040  9.433E-03    0   0.9001   age067_m32            0.0000     1.6095E+03    29.7053   4.0000   100.8536
 31      0.0000     0.0000E+00    0.0000E+00    1.000000E+07  0.00040  8.053E-03    0   0.8877   age070_m32            0.0000     1.5055E+03    28.8519   4.0000   101.1110
 32      0.0000     0.0000E+00    0.0000E+00    1.445000E+07  0.00040  7.027E-03    0   0.8578   age078_m32            0.0000     4.0340E+02    16.5230   4.0000   100.2325
 33      0.0000     0.0000E+00    0.0000E+00    2.512000E+07  0.00040  4.707E-03    0   0.8166   age090_m32            0.0000     1.0153E+02     8.8223   4.0000    98.7139
 34      0.0000     0.0000E+00    0.0000E+00    4.000000E+07  0.00040  3.714E-03    0   0.7827   age104_m32            0.0000     4.3072E+01     4.8877   4.0000    97.6376
 35      0.6706     8.2607E-03    1.2830E-02    5.500000E+07  0.00040  2.982E-03    0   0.7593   age110_m32            0.0000     5.4970E+01     5.4276   3.9689    98.1739
 36      0.0000     0.0000E+00    0.0000E+00    1.015200E+08  0.00040  2.188E-03    0   0.7143   age116_m32            0.0000     1.6860E+02     9.8128   3.7214   102.5085
 37      0.0000     0.0000E+00    0.0000E+00    1.609000E+08  0.00040  1.690E-03    0   0.6856   age120_m32            0.0000     2.6330E+02    12.6145   3.5218   105.0725
 38      0.0000     0.0000E+00    0.0000E+00    2.861200E+08  0.00040  1.152E-03    0   0.6509   age125_m32            0.0000     3.6567E+02    14.9888   3.3171   106.4255
 39      0.0000     0.0000E+00    0.0000E+00    5.088000E+08  0.00040  7.331E-04    0   0.6182   age130_m32            0.0000     4.0656E+02    15.8696   3.1639   106.9129
 40      0.0000     0.0000E+00    0.0000E+00    9.047900E+08  0.00040  3.960E-04    0   0.5890   age135_m32            0.0000     2.3276E+02    12.1994   2.7022   105.4051
 41      0.0000     0.0000E+00    0.0000E+00    1.278050E+09  0.00040  2.854E-04    0   0.5687   age138_m32            0.0000     1.7669E+02    10.7788   2.4021   107.2160
 42      0.0000     0.0000E+00    0.0000E+00    1.434000E+09  0.00040  2.531E-04    0   0.5632   age139_m32            0.0000     1.7119E+02    10.6310   2.3414   107.1468
 43      0.0000     0.0000E+00    0.0000E+00    2.500000E+09  0.00040  1.488E-04    0   0.5386   age150_m32            0.0000     1.2232E+02     9.0575   2.0865   105.3059
 44      2.0117     8.1365E-01    8.6524E-01    4.250000E+09  0.00040  9.082E-05    0   0.5199   age158_m32            0.0000     3.8186E+01     5.1918   1.9792   102.0884
 45     14.8539     8.5763E+00    8.9043E+00    6.250000E+09  0.00040  6.362E-05    0   0.5076   age166_m32            0.0000     6.0491E+00     2.4116   1.9276    98.8018
 46     12.6860     8.8105E+00    9.0592E+00    7.500000E+09  0.00040  5.289E-05    0   0.5027   age171_m32            0.0000     4.9181E+00     2.2694   1.8906    97.5824
 47      2.8727     2.6567E+00    2.6887E+00    1.000000E+10  0.00040  3.972E-05    0   0.4948   age181_m32            0.0000     5.9400E+00     2.3924   1.8293    96.2616
 48      7.0845     7.9266E+00    7.8958E+00    1.300000E+10  0.00040  3.283E-05    0   0.4870   age193_m32            0.0000     1.1967E+01     3.1996   1.7909    98.9813
 49     11.1541     1.4007E+01    1.3907E+01    1.500000E+10  0.00040  2.925E-05    0   0.4854   age201_m32            0.0000     2.1027E+01     4.0603   1.7754   100.5687
 50     19.4832     2.8986E+01    2.8571E+01    1.800000E+10  0.00040  2.469E-05    0   0.4819   age213_m32            0.0000     2.6030E+01     4.4758   1.7367   101.1028
 51      0.0000     0.0000E+00    0.0000E+00    1.000000E+06  0.00400  1.114E-02    0   1.0000   age020_m42            0.0000     2.1262E+03    33.9143   4.0000    96.4784
 52      0.0000     0.0000E+00    0.0000E+00    3.160000E+06  0.00400  4.073E-02    0   0.9999   age045_m42            0.0000     1.2906E+02     9.0649   4.0000    99.9403
 53      0.0000     0.0000E+00    0.0000E+00    5.010000E+06  0.00400  2.534E-02    0   0.9488   age055_m42            0.0000     6.5988E+02    20.1708   4.0000   100.1839
 54      0.0000     0.0000E+00    0.0000E+00    6.610000E+06  0.00400  2.583E-02    0   0.9220   age061_m42            0.0000     4.3714E+01     5.4277   4.0000    96.7767
 55      1.1332     2.4400E-03    4.4833E-03    8.710000E+06  0.00400  1.706E-02    0   0.8983   age067_m42            0.0000     4.7598E+01     6.5939   3.8995    92.7877
 56      0.5294     1.5299E-03    2.7731E-03    1.000000E+07  0.00400  1.271E-02    0   0.8862   age070_m42            0.0000     8.3997E+01     8.7230   3.8747    91.3512
 57      0.0000     0.0000E+00    0.0000E+00    1.445000E+07  0.00400  7.666E-03    0   0.8571   age078_m42            0.0000     2.2406E+02    13.9410   4.0000    93.8932
 58      0.0000     0.0000E+00    0.0000E+00    2.512000E+07  0.00400  5.070E-03    0   0.8174   age090_m42            0.0000     6.8637E+01     7.9484   3.7465    93.0463
 59      0.0000     0.0000E+00    0.0000E+00    4.000000E+07  0.00400  3.505E-03    0   0.7851   age104_m42            0.0000     3.6105E+01     5.8063   3.4368    96.2734
 60      0.0000     0.0000E+00    0.0000E+00    5.500000E+07  0.00400  3.059E-03    0   0.7629   age110_m42            0.0000     4.9978E+01     5.3709   3.5108   100.9130
 61      0.0000     0.0000E+00    0.0000E+00    1.015200E+08  0.00400  2.268E-03    0   0.7207   age116_m42            0.0000     2.2802E+02    11.8199   3.4450   105.8813
 62      0.0000     0.0000E+00    0.0000E+00    1.609000E+08  0.00400  1.720E-03    0   0.6930   age120_m42            0.0000     2.6432E+02    12.7567   3.3126   107.2480
 63      0.0000     0.0000E+00    0.0000E+00    2.861200E+08  0.00400  1.079E-03    0   0.6613   age125_m42            0.0000     2.7203E+02    13.0440   2.9594   107.4889
 64      0.0000     0.0000E+00    0.0000E+00    5.088000E+08  0.00400  6.261E-04    0   0.6313   age130_m42            0.0000     3.1863E+02    14.2840   2.7753   109.9415
 65      0.0000     0.0000E+00    0.0000E+00    9.047900E+08  0.00400  3.535E-04    0   0.6024   age135_m42            0.0000     1.9671E+02    11.4444   2.3835   109.8866
 66      0.0000     0.0000E+00    0.0000E+00    1.278050E+09  0.00400  2.677E-04    0   0.5837   age138_m42            0.0000     1.0596E+02     8.8901   1.7124   107.2468
 67      0.0000     0.0000E+00    0.0000E+00    1.434000E+09  0.00400  1.910E-04    0   0.5716   age139_m42            0.0000     1.1942E+02     9.1630   1.8796   108.2186
 68      0.0000     0.0000E+00    0.0000E+00    2.500000E+09  0.00400  9.818E-05    0   0.5463   age150_m42            0.0000     6.6286E+01     6.9539   1.6173   103.1706
 69      0.0000     0.0000E+00    0.0000E+00    4.250000E+09  0.00400  5.491E-05    0   0.5269   age158_m42            0.0000     6.2078E+01     6.3898   1.4908   100.3580
 70      0.0000     0.0000E+00    0.0000E+00    6.250000E+09  0.00400  3.857E-05    0   0.5151   age166_m42            0.0000     8.0592E+01     6.9455   1.3717    98.9629
 71      0.0000     0.0000E+00    0.0000E+00    7.500000E+09  0.00400  3.243E-05    0   0.5110   age171_m42            0.0000     9.5958E+01     7.4205   1.2980    98.3662
 72      0.0000     0.0000E+00    0.0000E+00    1.000000E+10  0.00400  2.424E-05    0   0.5028   age181_m42            0.0000     1.1835E+02     8.1159   1.2255    97.6287
 73      0.0000     0.0000E+00    0.0000E+00    1.300000E+10  0.00400  1.883E-05    0   0.4927   age193_m42            0.0000     1.3634E+02     8.6967   1.1893    97.2529
 74      0.0000     0.0000E+00    0.0000E+00    1.500000E+10  0.00400  1.685E-05    0   0.4919   age201_m42            0.0000     1.3165E+02     8.5386   1.1921    97.3075
 75      0.0000     0.0000E+00    0.0000E+00    1.800000E+10  0.00400  1.452E-05    0   0.4874   age213_m42            0.0000     1.2266E+02     8.2558   1.2031    97.6612
 76      0.0000     0.0000E+00    0.0000E+00    1.000000E+06  0.00800  1.286E-02    0   1.0000   age020_m52            0.0000     1.9973E+03    32.5563   4.0000    98.5372
 77      0.0000     0.0000E+00    0.0000E+00    3.160000E+06  0.00800  3.147E-02    0   0.9966   age045_m52            0.0000     1.7452E+03    30.8476   4.0000    99.7588
 78      0.0029     3.9935E-06    7.7134E-06    5.010000E+06  0.00800  2.664E-02    0   0.9443   age055_m52            0.0000     8.9686E+02    23.2568   4.0000   100.6840
 79      0.0000     0.0000E+00    0.0000E+00    6.610000E+06  0.00800  2.151E-02    0   0.9177   age061_m52            0.0000     6.4333E+01     7.7106   3.4774    93.0551
 80      0.0000     0.0000E+00    0.0000E+00    8.710000E+06  0.00800  1.628E-02    0   0.8948   age067_m52            0.0000     5.8066E+01     7.4771   3.8456    93.4365
 81      0.0000     0.0000E+00    0.0000E+00    1.000000E+07  0.00800  1.215E-02    0   0.8827   age070_m52            0.0000     1.2088E+02    10.8073   4.0000    95.7179
 82      0.0000     0.0000E+00    0.0000E+00    1.445000E+07  0.00800  8.739E-03    0   0.8552   age078_m52            0.0000     1.2337E+02    10.4145   4.0000    98.1222
 83      0.0000     0.0000E+00    0.0000E+00    2.512000E+07  0.00800  5.676E-03    0   0.8162   age090_m52            0.0000     4.5938E+01     5.5397   3.8337    97.8159
 84      0.0041     3.8057E-05    6.1035E-05    4.000000E+07  0.00800  3.939E-03    0   0.7841   age104_m52            0.0000     5.7027E+01     5.5728   3.6861   100.1645
 85      0.0000     0.0000E+00    0.0000E+00    5.500000E+07  0.00800  3.155E-03    0   0.7627   age110_m52            0.0000     8.5746E+01     6.7242   3.6642   101.8655
 86      0.0000     0.0000E+00    0.0000E+00    1.015200E+08  0.00800  2.206E-03    0   0.7226   age116_m52            0.0000     1.6909E+02     9.9175   3.4966   105.7442
 87      0.0000     0.0000E+00    0.0000E+00    1.609000E+08  0.00800  1.596E-03    0   0.6963   age120_m52            0.0000     2.1270E+02    11.4133   3.2897   107.2605
 88      0.0000     0.0000E+00    0.0000E+00    2.861200E+08  0.00800  1.002E-03    0   0.6665   age125_m52            0.0000     3.4243E+02    14.7990   3.0207   109.6228
 89      0.0000     0.0000E+00    0.0000E+00    5.088000E+08  0.00800  5.759E-04    0   0.6377   age130_m52            0.0000     3.8137E+02    15.7670   2.6986   113.0415
 90      0.0000     0.0000E+00    0.0000E+00    9.047900E+08  0.00800  2.972E-04    0   0.6086   age135_m52            0.0000     2.4165E+02    12.4939   2.1774   111.2346
 91      0.0000     0.0000E+00    0.0000E+00    1.278050E+09  0.00800  2.242E-04    0   0.5907   age138_m52            0.0000     1.3250E+02     9.6017   1.5603   110.0846
 92      0.0000     0.0000E+00    0.0000E+00    1.434000E+09  0.00800  1.645E-04    0   0.5787   age139_m52            0.0000     1.1215E+02     8.8451   1.7051   109.5523
 93      0.0011     5.4535E-04    6.1562E-04    2.500000E+09  0.00800  7.723E-05    0   0.5519   age150_m52            0.0000     1.0481E+02     8.1551   1.3762   105.5637
 94      0.0000     0.0000E+00    0.0000E+00    4.250000E+09  0.00800  4.151E-05    0   0.5320   age158_m52            0.0000     1.0713E+02     8.0354   1.3082   102.8368
 95      0.0000     0.0000E+00    0.0000E+00    6.250000E+09  0.00800  3.010E-05    0   0.5197   age166_m52            0.0000     1.4464E+02     9.0197   1.1244   101.3179
 96      0.0000     0.0000E+00    0.0000E+00    7.500000E+09  0.00800  2.467E-05    0   0.5139   age171_m52            0.0000     1.5565E+02     9.3045   1.0862   100.8769
 97      0.0000     0.0000E+00    0.0000E+00    1.000000E+10  0.00800  1.862E-05    0   0.5054   age181_m52            0.0000     1.9291E+02    10.2300   0.9660   100.4207
