###################################################################
## OUTPUT of StarlightChains_v04.for    [Cid@UFSC - 01/Apr/2007] ##
###################################################################

## Some input info
NGC5286_a_1.cxt                          [arq_obs]
Base.BC03.S                              [arq_base]
NGC5286_a_1.msk                          [arq_masks]
StCv04.C11.config                        [arq_config]
  150                                    [N_base]
    0                                    [N_YAV_components = # of components with extra extinction!]
    0                                    [i_FitPowerLaw (1/0 = Yes/No)]
-9.99                                    [alpha_PowerLaw]
CCM                                      [red_law_option]
 1.458241                                [q_norm = A(l_norm)/A(V)]

## (Re)Sampling Parameters
 3359.00                                 [l_ini (A)]
 6428.00                                 [l_fin (A)]
    1.00                                 [dl    (A)]     (OBS: dl_cushion =    50.00 A)

## Normalization info
 4020.00                                 [l_norm (A) - for base]
 4010.00                                 [llow_norm (A) - window for f_obs]
 4060.00                                 [lupp_norm (A) - window for f_obs]
3.810619E-14                             [fobs_norm (in input units)]

## S/N
 4730.00                                 [llow_SN (A) - window for S/N]
 4780.00                                 [lupp_SN (A) - window for S/N]
 122.361                                 [S/N in S/N window]
 104.972                                 [S/N in norm. window]
 167.801                                 [S/N_err in S/N window]
 143.955                                 [S/N_err in norm. window]
  1.0000                                 [fscale_chi2]

## etc...
  2147483638                             [idum_orig]
  3069                                   [NOl_eff]
  1507                                   [Nl_eff]
  1562    NSIGMA                         [Ntot_cliped & clip_method]
  1314180                                [Nglobal_steps]
   7                                     [N_chains]
  15                                     [NEX0s_base = N_base in EX0s-fits]
 0   0   1      194   2.0   3.182E+02    [Clip-Bug, RC-Crash & Burn-In warning-flags, n_censored_weights, wei_nsig_threshold & wei_limit]
    73     73.470     73.466      0.004  [idt_all, wdt_TotTime, wdt_UsrTime & wdt_SysTime (sec)]

## Synthesis Results - Best model ##

 2.56697E+00                             [chi2/Nl_eff]
     1.11260                             [adev (%)]

    99.62725                             [sum-of-x (%)]
 1.19034E-13                             [Flux_tot (units of input spectrum!)]
 1.78053E-09                             [Mini_tot (???)]
 8.88730E-10                             [Mcor_tot (???)]

 -23.73                                  [v0_min  (km/s)]
  42.07                                  [vd_min  (km/s)]
 0.8508                                  [AV_min  (mag)]
 0.0000                                  [YAV_min (mag)]

# j     x_j(%)      Mini_j(%)     Mcor_j(%)     age_j(yr)     Z_j      (L/M)_j    YAV?  Mstars   component_j        a/Fe...       SSP_chi2r SSP_adev(%)   SSP_AV   SSP_x(%)
  1      0.0000     0.0000E+00    0.0000E+00    1.000000E+06  0.00010  8.160E-03    0   1.0000   age020_m22            0.0000     4.6079E+02    11.9813   4.0000    77.5586
  2     12.8661     1.8142E-02    3.6346E-02    3.160000E+06  0.00010  4.759E-02    0   1.0000   age045_m22            0.0000     4.6269E+01     4.0586   2.0842    95.6620
  3      0.0000     0.0000E+00    0.0000E+00    5.010000E+06  0.00010  1.932E-02    0   0.9582   age055_m22            0.0000     4.1684E+02    11.9330   2.3985    82.1822
  4      0.0000     0.0000E+00    0.0000E+00    6.610000E+06  0.00010  9.973E-03    0   0.9297   age061_m22            0.0000     4.5665E+02    12.3226   4.0000    79.7037
  5      0.0000     0.0000E+00    0.0000E+00    8.710000E+06  0.00010  7.690E-03    0   0.9030   age067_m22            0.0000     4.2927E+02    11.9724   4.0000    79.9752
  6      0.0000     0.0000E+00    0.0000E+00    1.000000E+07  0.00010  6.375E-03    0   0.8902   age070_m22            0.0000     4.1010E+02    11.6475   4.0000    80.4394
  7      0.0000     0.0000E+00    0.0000E+00    1.445000E+07  0.00010  4.874E-03    0   0.8589   age078_m22            0.0000     2.9292E+02    10.0673   3.8747    82.1232
  8      0.0000     0.0000E+00    0.0000E+00    2.512000E+07  0.00010  4.103E-03    0   0.8174   age090_m22            0.0000     1.1447E+02     6.6726   3.4582    88.8621
  9      0.2134     3.9190E-03    6.1477E-03    4.000000E+07  0.00010  3.654E-03    0   0.7830   age104_m22            0.0000     5.0486E+01     4.1964   3.1486    94.1506
 10      0.0851     1.8468E-03    2.8109E-03    5.500000E+07  0.00010  3.093E-03    0   0.7597   age110_m22            0.0000     4.4856E+01     3.6122   3.0451    95.8201
 11      0.8753     2.4160E-02    3.4551E-02    1.015200E+08  0.00010  2.431E-03    0   0.7138   age116_m22            0.0000     5.9895E+01     3.5485   2.6895    99.1347
 12      0.0000     0.0000E+00    0.0000E+00    1.609000E+08  0.00010  1.319E-03    0   0.6775   age120_m22            0.0000     6.0049E+01     3.3962   2.2135   101.3454
 13      0.0000     0.0000E+00    0.0000E+00    2.861200E+08  0.00010  1.075E-03    0   0.6412   age125_m22            0.0000     2.4510E+02     7.1613   2.2756   105.2257
 14      0.0000     0.0000E+00    0.0000E+00    5.088000E+08  0.00010  7.183E-04    0   0.6083   age130_m22            0.0000     3.2758E+02     8.5100   2.0495   106.8187
 15      0.0000     0.0000E+00    0.0000E+00    9.047900E+08  0.00010  4.524E-04    0   0.5785   age135_m22            0.0000     3.3639E+02     8.7066   1.8485   107.9984
 16      0.0000     0.0000E+00    0.0000E+00    1.278050E+09  0.00010  3.018E-04    0   0.5588   age138_m22            0.0000     1.3576E+02     5.5155   1.3200   105.9233
 17      0.0000     0.0000E+00    0.0000E+00    1.434000E+09  0.00010  2.691E-04    0   0.5532   age139_m22            0.0000     1.0550E+02     4.8814   1.1665   105.2135
 18      0.0000     0.0000E+00    0.0000E+00    2.500000E+09  0.00010  1.582E-04    0   0.5296   age150_m22            0.0000     7.9866E+01     4.1025   1.0504   106.0016
 19      0.0000     0.0000E+00    0.0000E+00    4.250000E+09  0.00010  1.007E-04    0   0.5110   age158_m22            0.0000     3.1029E+01     2.6848   0.9042   103.9628
 20      0.0000     0.0000E+00    0.0000E+00    6.250000E+09  0.00010  6.869E-05    0   0.4985   age166_m22            0.0000     6.6836E+00     1.4410   0.8514   100.8700
 21      0.0000     0.0000E+00    0.0000E+00    7.500000E+09  0.00010  5.873E-05    0   0.4931   age171_m22            0.0000     4.8597E+00     1.2610   0.8387   100.3465
 22      0.0000     0.0000E+00    0.0000E+00    1.000000E+10  0.00010  4.481E-05    0   0.4854   age181_m22            0.0000     4.5246E+00     1.2523   0.8015    99.9456
 23      0.0352     6.7701E-02    6.4984E-02    1.300000E+10  0.00010  3.489E-05    0   0.4791   age193_m22            0.0000     4.0122E+00     1.2359   0.7464    99.3200
 24      0.0000     0.0000E+00    0.0000E+00    1.500000E+10  0.00010  3.035E-05    0   0.4766   age201_m22            0.0000     3.7818E+00     1.2315   0.7083    99.0883
 25      7.4262     1.9853E+01    1.8834E+01    1.800000E+10  0.00010  2.510E-05    0   0.4735   age213_m22            0.0000     3.9580E+00     1.2819   0.6419    98.3879
 26      0.0000     0.0000E+00    0.0000E+00    1.000000E+06  0.00040  8.458E-03    0   1.0000   age020_m32            0.0000     4.6110E+02    11.9920   4.0000    78.5441
 27      0.0000     0.0000E+00    0.0000E+00    3.160000E+06  0.00040  3.973E-02    0   1.0000   age045_m32            0.0000     1.3346E+02     7.1244   3.3600    88.7479
 28      0.0000     0.0000E+00    0.0000E+00    5.010000E+06  0.00040  1.935E-02    0   0.9532   age055_m32            0.0000     3.3943E+02    10.9743   3.5935    82.6639
 29      0.0000     0.0000E+00    0.0000E+00    6.610000E+06  0.00040  1.204E-02    0   0.9243   age061_m32            0.0000     3.7368E+02    11.3230   3.9114    80.5935
 30      0.0000     0.0000E+00    0.0000E+00    8.710000E+06  0.00040  9.433E-03    0   0.9001   age067_m32            0.0000     3.3246E+02    10.7226   3.8823    81.5074
 31      0.0000     0.0000E+00    0.0000E+00    1.000000E+07  0.00040  8.053E-03    0   0.8877   age070_m32            0.0000     3.1646E+02    10.4825   3.8456    81.9825
 32      0.0000     0.0000E+00    0.0000E+00    1.445000E+07  0.00040  7.027E-03    0   0.8578   age078_m32            0.0000     1.8113E+02     8.2829   3.3112    87.5493
 33      0.0000     0.0000E+00    0.0000E+00    2.512000E+07  0.00040  4.707E-03    0   0.8166   age090_m32            0.0000     9.3512E+01     6.1829   3.0074    91.7817
 34      0.0121     2.1892E-04    3.4329E-04    4.000000E+07  0.00040  3.714E-03    0   0.7827   age104_m32            0.0000     4.6322E+01     4.1544   2.7968    95.5275
 35      0.0000     0.0000E+00    0.0000E+00    5.500000E+07  0.00040  2.982E-03    0   0.7593   age110_m32            0.0000     4.0924E+01     3.5925   2.7333    96.8294
 36      0.0000     0.0000E+00    0.0000E+00    1.015200E+08  0.00040  2.188E-03    0   0.7143   age116_m32            0.0000     9.8508E+01     4.3104   2.4620   101.5543
 37      0.0000     0.0000E+00    0.0000E+00    1.609000E+08  0.00040  1.690E-03    0   0.6856   age120_m32            0.0000     1.7684E+02     5.7642   2.2505   104.5768
 38      0.0000     0.0000E+00    0.0000E+00    2.861200E+08  0.00040  1.152E-03    0   0.6509   age125_m32            0.0000     2.6711E+02     7.5664   2.0326   106.2708
 39      0.0000     0.0000E+00    0.0000E+00    5.088000E+08  0.00040  7.331E-04    0   0.6182   age130_m32            0.0000     3.0568E+02     8.2787   1.8714   106.8741
 40      0.0000     0.0000E+00    0.0000E+00    9.047900E+08  0.00040  3.960E-04    0   0.5890   age135_m32            0.0000     1.5214E+02     6.0924   1.4169   104.9604
 41      0.0000     0.0000E+00    0.0000E+00    1.278050E+09  0.00040  2.854E-04    0   0.5687   age138_m32            0.0000     1.0139E+02     4.7969   1.1196   106.9004
 42      0.0000     0.0000E+00    0.0000E+00    1.434000E+09  0.00040  2.531E-04    0   0.5632   age139_m32            0.0000     9.7046E+01     4.6514   1.0583   106.8961
 43      6.7485     3.0433E+00    3.2839E+00    2.500000E+09  0.00040  1.488E-04    0   0.5386   age150_m32            0.0000     5.9970E+01     3.7501   0.8053   104.9575
 44     45.0563     3.3290E+01    3.4675E+01    4.250000E+09  0.00040  9.082E-05    0   0.5199   age158_m32            0.0000     8.9969E+00     1.7446   0.7162   101.0487
 45     15.2571     1.6092E+01    1.6365E+01    6.250000E+09  0.00040  6.362E-05    0   0.5076   age166_m32            0.0000     1.0457E+01     1.8235   0.6818    97.2224
 46      0.4408     5.5926E-01    5.6325E-01    7.500000E+09  0.00040  5.289E-05    0   0.5027   age171_m32            0.0000     1.5890E+01     2.0948   0.6479    95.8521
 47      0.0000     0.0000E+00    0.0000E+00    1.000000E+10  0.00040  3.972E-05    0   0.4948   age181_m32            0.0000     2.1060E+01     2.3033   0.5881    94.4033
 48      0.0000     0.0000E+00    0.0000E+00    1.300000E+10  0.00040  3.283E-05    0   0.4870   age193_m32            0.0000     8.9077E+00     1.7872   0.5414    97.3042
 49      1.3192     3.0263E+00    2.9430E+00    1.500000E+10  0.00040  2.925E-05    0   0.4854   age201_m32            0.0000     7.5432E+00     1.7408   0.5213    99.0100
 50      8.8371     2.4018E+01    2.3188E+01    1.800000E+10  0.00040  2.469E-05    0   0.4819   age213_m32            0.0000     8.9959E+00     1.8712   0.4813    99.5544
 51      0.0000     0.0000E+00    0.0000E+00    1.000000E+06  0.00400  1.114E-02    0   1.0000   age020_m42            0.0000     4.2622E+02    11.6933   4.0000    77.5580
 52      0.0000     0.0000E+00    0.0000E+00    3.160000E+06  0.00400  4.073E-02    0   0.9999   age045_m42            0.0000     7.8764E+01     5.5097   3.0652    91.4323
 53      0.0000     0.0000E+00    0.0000E+00    5.010000E+06  0.00400  2.534E-02    0   0.9488   age055_m42            0.0000     2.1329E+02     8.6768   3.4738    84.8361
 54      0.4498     1.1686E-03    2.1585E-03    6.610000E+06  0.00400  2.583E-02    0   0.9220   age061_m42            0.0000     5.5855E+01     4.6803   2.8713    92.5959
 55      0.0000     0.0000E+00    0.0000E+00    8.710000E+06  0.00400  1.706E-02    0   0.8983   age067_m42            0.0000     1.1735E+02     6.7982   2.6954    90.6565
 56      0.0000     0.0000E+00    0.0000E+00    1.000000E+07  0.00400  1.271E-02    0   0.8862   age070_m42            0.0000     1.9036E+02     8.6981   2.6822    89.1405
 57      0.0000     0.0000E+00    0.0000E+00    1.445000E+07  0.00400  7.666E-03    0   0.8571   age078_m42            0.0000     2.5425E+02     9.5899   3.0883    85.6078
 58      0.0050     6.6834E-05    1.0945E-04    2.512000E+07  0.00400  5.070E-03    0   0.8174   age090_m42            0.0000     1.6019E+02     8.0145   2.5506    90.7684
 59      0.0000     0.0000E+00    0.0000E+00    4.000000E+07  0.00400  3.505E-03    0   0.7851   age104_m42            0.0000     9.0507E+01     6.0193   2.2373    93.6307
 60      0.0000     0.0000E+00    0.0000E+00    5.500000E+07  0.00400  3.059E-03    0   0.7629   age110_m42            0.0000     2.8477E+01     2.8904   2.2802    98.8884
 61      0.0000     0.0000E+00    0.0000E+00    1.015200E+08  0.00400  2.268E-03    0   0.7207   age116_m42            0.0000     1.5088E+02     5.5727   2.1737   104.9237
 62      0.0000     0.0000E+00    0.0000E+00    1.609000E+08  0.00400  1.720E-03    0   0.6930   age120_m42            0.0000     1.8299E+02     6.3538   2.0377   106.3911
 63      0.0000     0.0000E+00    0.0000E+00    2.861200E+08  0.00400  1.079E-03    0   0.6613   age125_m42            0.0000     1.8879E+02     6.4967   1.6864   106.7307
 64      0.0000     0.0000E+00    0.0000E+00    5.088000E+08  0.00400  6.261E-04    0   0.6313   age130_m42            0.0000     2.2877E+02     7.1385   1.4872   109.7969
 65      0.0000     0.0000E+00    0.0000E+00    9.047900E+08  0.00400  3.535E-04    0   0.6024   age135_m42            0.0000     1.2633E+02     5.5782   1.0970   109.4154
 66      0.0000     0.0000E+00    0.0000E+00    1.278050E+09  0.00400  2.677E-04    0   0.5837   age138_m42            0.0000     1.0057E+02     5.6497   0.4446   105.2409
 67      0.0000     0.0000E+00    0.0000E+00    1.434000E+09  0.00400  1.910E-04    0   0.5716   age139_m42            0.0000     9.4228E+01     5.4189   0.6055   106.5090
 68      0.0000     0.0000E+00    0.0000E+00    2.500000E+09  0.00400  9.818E-05    0   0.5463   age150_m42            0.0000     9.0456E+01     5.2372   0.3605   100.5368
 69      0.0000     0.0000E+00    0.0000E+00    4.250000E+09  0.00400  5.491E-05    0   0.5269   age158_m42            0.0000     1.0982E+02     5.4641   0.2459    97.3836
 70      0.0000     0.0000E+00    0.0000E+00    6.250000E+09  0.00400  3.857E-05    0   0.5151   age166_m42            0.0000     1.4742E+02     6.1641   0.1303    95.6500
 71      0.0000     0.0000E+00    0.0000E+00    7.500000E+09  0.00400  3.243E-05    0   0.5110   age171_m42            0.0000     1.7362E+02     6.6076   0.0588    94.8703
 72      0.0000     0.0000E+00    0.0000E+00    1.000000E+10  0.00400  2.424E-05    0   0.5028   age181_m42            0.0000     2.0998E+02     7.1673  -0.0123    93.9690
 73      0.0000     0.0000E+00    0.0000E+00    1.300000E+10  0.00400  1.883E-05    0   0.4927   age193_m42            0.0000     2.3841E+02     7.5810  -0.0467    93.4838
 74      0.0000     0.0000E+00    0.0000E+00    1.500000E+10  0.00400  1.685E-05    0   0.4919   age201_m42            0.0000     2.3081E+02     7.4725  -0.0427    93.5507
 75      0.0000     0.0000E+00    0.0000E+00    1.800000E+10  0.00400  1.452E-05    0   0.4874   age213_m42            0.0000     2.1687E+02     7.2805  -0.0301    93.9216
 76      0.0000     0.0000E+00    0.0000E+00    1.000000E+06  0.00800  1.286E-02    0   1.0000   age020_m52            0.0000     3.7560E+02    11.0894   4.0000    78.8699
 77      0.0000     0.0000E+00    0.0000E+00    3.160000E+06  0.00800  3.147E-02    0   0.9966   age045_m52            0.0000     3.6064E+02    10.9973   3.9283    80.0650
 78      0.0000     0.0000E+00    0.0000E+00    5.010000E+06  0.00800  2.664E-02    0   0.9443   age055_m52            0.0000     2.5609E+02     9.3427   3.5957    83.6135
 79      0.0000     0.0000E+00    0.0000E+00    6.610000E+06  0.00800  2.151E-02    0   0.9177   age061_m52            0.0000     1.6299E+02     7.5007   2.2889    90.2611
 80      0.0000     0.0000E+00    0.0000E+00    8.710000E+06  0.00800  1.628E-02    0   0.8948   age067_m52            0.0000     1.4418E+02     7.5060   2.6548    90.9344
 81      0.0000     0.0000E+00    0.0000E+00    1.000000E+07  0.00800  1.215E-02    0   0.8827   age070_m52            0.0000     1.8141E+02     8.3440   2.9978    88.9657
 82      0.0000     0.0000E+00    0.0000E+00    1.445000E+07  0.00800  8.739E-03    0   0.8552   age078_m52            0.0000     1.3629E+02     7.2891   3.0356    90.3747
 83      0.0000     0.0000E+00    0.0000E+00    2.512000E+07  0.00800  5.676E-03    0   0.8162   age090_m52            0.0000     7.1494E+01     5.3846   2.6237    95.8085
 84      0.0000     0.0000E+00    0.0000E+00    4.000000E+07  0.00800  3.939E-03    0   0.7841   age104_m52            0.0000     4.4695E+01     3.8112   2.4597    98.5085
 85      0.0000     0.0000E+00    0.0000E+00    5.500000E+07  0.00800  3.155E-03    0   0.7627   age110_m52            0.0000     4.6520E+01     3.1857   2.4241   100.4122
 86      0.0000     0.0000E+00    0.0000E+00    1.015200E+08  0.00800  2.206E-03    0   0.7226   age116_m52            0.0000     1.0078E+02     4.5289   2.2336   104.5135
 87      0.0000     0.0000E+00    0.0000E+00    1.609000E+08  0.00800  1.596E-03    0   0.6963   age120_m52            0.0000     1.3888E+02     5.4972   2.0193   106.2203
 88      0.0000     0.0000E+00    0.0000E+00    2.861200E+08  0.00800  1.002E-03    0   0.6665   age125_m52            0.0000     2.6334E+02     7.9878   1.7334   108.8586
 89      0.0000     0.0000E+00    0.0000E+00    5.088000E+08  0.00800  5.759E-04    0   0.6377   age130_m52            0.0000     3.1420E+02     9.0207   1.3982   112.2957
 90      0.0000     0.0000E+00    0.0000E+00    9.047900E+08  0.00800  2.972E-04    0   0.6086   age135_m52            0.0000     2.0726E+02     7.6581   0.8830   109.9246
 91      0.0000     0.0000E+00    0.0000E+00    1.278050E+09  0.00800  2.242E-04    0   0.5907   age138_m52            0.0000     1.6020E+02     6.9401   0.2828   107.6972
 92      0.0000     0.0000E+00    0.0000E+00    1.434000E+09  0.00800  1.645E-04    0   0.5787   age139_m52            0.0000     1.3190E+02     6.3671   0.4302   107.1505
 93      0.0000     0.0000E+00    0.0000E+00    2.500000E+09  0.00800  7.723E-05    0   0.5519   age150_m52            0.0000     1.6909E+02     6.8617   0.1108   102.5135
 94      0.0000     0.0000E+00    0.0000E+00    4.250000E+09  0.00800  4.151E-05    0   0.5320   age158_m52            0.0000     1.8070E+02     6.9241   0.0502    99.6202
 95      0.0000     0.0000E+00    0.0000E+00    6.250000E+09  0.00800  3.010E-05    0   0.5197   age166_m52            0.0000     2.4653E+02     7.8708  -0.1311    97.7793
 96      0.0000     0.0000E+00    0.0000E+00    7.500000E+09  0.00800  2.467E-05    0   0.5139   age171_m52            0.0000     2.6480E+02     8.1174  -0.1693    97.2682
 97      0.0000     0.0000E+00    0.0000E+00    1.000000E+10  0.00800  1.862E-05    0   0.5054   age181_m52            0.0000     3.2469E+02     8.9133  -0.2903    96.5816
