###################################################################
## OUTPUT of StarlightChains_v04.for    [Cid@UFSC - 01/Apr/2007] ##
###################################################################

## Some input info
NGC6652_b_1.cxt                          [arq_obs]
Base.BC03.S                              [arq_base]
NGC6652_b_1.msk                          [arq_masks]
StCv04.C11.config                        [arq_config]
  150                                    [N_base]
    0                                    [N_YAV_components = # of components with extra extinction!]
    0                                    [i_FitPowerLaw (1/0 = Yes/No)]
-9.99                                    [alpha_PowerLaw]
CCM                                      [red_law_option]
 1.458241                                [q_norm = A(l_norm)/A(V)]

## (Re)Sampling Parameters
 3359.00                                 [l_ini (A)]
 6428.00                                 [l_fin (A)]
    1.00                                 [dl    (A)]     (OBS: dl_cushion =    50.00 A)

## Normalization info
 4020.00                                 [l_norm (A) - for base]
 4010.00                                 [llow_norm (A) - window for f_obs]
 4060.00                                 [lupp_norm (A) - window for f_obs]
1.611308E-14                             [fobs_norm (in input units)]

## S/N
 4730.00                                 [llow_SN (A) - window for S/N]
 4780.00                                 [lupp_SN (A) - window for S/N]
  60.034                                 [S/N in S/N window]
  49.598                                 [S/N in norm. window]
  73.857                                 [S/N_err in S/N window]
  61.019                                 [S/N_err in norm. window]
  1.0000                                 [fscale_chi2]

## etc...
  2147483591                             [idum_orig]
  3066                                   [NOl_eff]
  2021                                   [Nl_eff]
  1045    NSIGMA                         [Ntot_cliped & clip_method]
  1231370                                [Nglobal_steps]
   7                                     [N_chains]
  17                                     [NEX0s_base = N_base in EX0s-fits]
 0   0   1      173   2.0   7.711E+02    [Clip-Bug, RC-Crash & Burn-In warning-flags, n_censored_weights, wei_nsig_threshold & wei_limit]
    50     49.856     49.852      0.004  [idt_all, wdt_TotTime, wdt_UsrTime & wdt_SysTime (sec)]

## Synthesis Results - Best model ##

 2.24835E+00                             [chi2/Nl_eff]
     1.81988                             [adev (%)]

   101.20047                             [sum-of-x (%)]
 1.62124E-14                             [Flux_tot (units of input spectrum!)]
 4.78943E-10                             [Mini_tot (???)]
 2.43639E-10                             [Mcor_tot (???)]

  30.19                                  [v0_min  (km/s)]
  47.71                                  [vd_min  (km/s)]
-0.0043                                  [AV_min  (mag)]
 0.0000                                  [YAV_min (mag)]

# j     x_j(%)      Mini_j(%)     Mcor_j(%)     age_j(yr)     Z_j      (L/M)_j    YAV?  Mstars   component_j        a/Fe...       SSP_chi2r SSP_adev(%)   SSP_AV   SSP_x(%)
  1      0.0000     0.0000E+00    0.0000E+00    1.000000E+06  0.00010  8.160E-03    0   1.0000   age020_m22            0.0000     2.7655E+02    15.7449   4.0000    68.4868
  2      0.0000     0.0000E+00    0.0000E+00    3.160000E+06  0.00010  4.759E-02    0   1.0000   age045_m22            0.0000     6.0376E+01     8.5946   2.0518    91.9018
  3      0.0000     0.0000E+00    0.0000E+00    5.010000E+06  0.00010  1.932E-02    0   0.9582   age055_m22            0.0000     2.1491E+02    16.3028   2.5890    71.7061
  4      0.0000     0.0000E+00    0.0000E+00    6.610000E+06  0.00010  9.973E-03    0   0.9297   age061_m22            0.0000     2.6391E+02    15.5291   4.0000    70.5654
  5      0.0000     0.0000E+00    0.0000E+00    8.710000E+06  0.00010  7.690E-03    0   0.9030   age067_m22            0.0000     2.4992E+02    15.1525   4.0000    71.1239
  6      0.0000     0.0000E+00    0.0000E+00    1.000000E+07  0.00010  6.375E-03    0   0.8902   age070_m22            0.0000     2.4239E+02    14.8640   4.0000    71.5855
  7      0.0000     0.0000E+00    0.0000E+00    1.445000E+07  0.00010  4.874E-03    0   0.8589   age078_m22            0.0000     1.6898E+02    14.1736   4.0000    73.7022
  8      0.0000     0.0000E+00    0.0000E+00    2.512000E+07  0.00010  4.103E-03    0   0.8174   age090_m22            0.0000     9.4412E+01    11.1030   3.5122    83.0628
  9      0.0000     0.0000E+00    0.0000E+00    4.000000E+07  0.00010  3.654E-03    0   0.7830   age104_m22            0.0000     6.2672E+01     8.6792   3.0791    92.3020
 10      0.0000     0.0000E+00    0.0000E+00    5.500000E+07  0.00010  3.093E-03    0   0.7597   age110_m22            0.0000     5.9099E+01     7.8800   2.9312    95.5040
 11      0.0000     0.0000E+00    0.0000E+00    1.015200E+08  0.00010  2.431E-03    0   0.7138   age116_m22            0.0000     6.8614E+01     7.6170   2.5136   101.0462
 12      0.0000     0.0000E+00    0.0000E+00    1.609000E+08  0.00010  1.319E-03    0   0.6775   age120_m22            0.0000     6.1431E+01     7.3066   2.0532   102.8682
 13      0.0000     0.0000E+00    0.0000E+00    2.861200E+08  0.00010  1.075E-03    0   0.6412   age125_m22            0.0000     1.5232E+02     9.7852   1.9024   114.6752
 14      0.0000     0.0000E+00    0.0000E+00    5.088000E+08  0.00010  7.183E-04    0   0.6083   age130_m22            0.0000     1.9233E+02    11.0840   1.6074   118.9984
 15      0.0000     0.0000E+00    0.0000E+00    9.047900E+08  0.00010  4.524E-04    0   0.5785   age135_m22            0.0000     1.9717E+02    11.2787   1.3968   120.7976
 16      0.0000     0.0000E+00    0.0000E+00    1.278050E+09  0.00010  3.018E-04    0   0.5588   age138_m22            0.0000     8.6362E+01     7.7709   1.0185   112.8080
 17      0.0000     0.0000E+00    0.0000E+00    1.434000E+09  0.00010  2.691E-04    0   0.5532   age139_m22            0.0000     7.0007E+01     7.1603   0.8915   111.0523
 18      0.0000     0.0000E+00    0.0000E+00    2.500000E+09  0.00010  1.582E-04    0   0.5296   age150_m22            0.0000     6.1830E+01     6.9351   0.8043   110.8155
 19      0.0000     0.0000E+00    0.0000E+00    4.250000E+09  0.00010  1.007E-04    0   0.5110   age158_m22            0.0000     3.6471E+01     5.7830   0.7258   106.1745
 20      0.0004     1.9083E-04    1.8700E-04    6.250000E+09  0.00010  6.869E-05    0   0.4985   age166_m22            0.0000     2.5163E+01     5.1882   0.7413   100.5674
 21      0.0000     0.0000E+00    0.0000E+00    7.500000E+09  0.00010  5.873E-05    0   0.4931   age171_m22            0.0000     2.5970E+01     5.3859   0.7430    99.4916
 22      0.0000     0.0000E+00    0.0000E+00    1.000000E+10  0.00010  4.481E-05    0   0.4854   age181_m22            0.0000     2.5220E+01     5.3297   0.7060    99.0827
 23      0.0002     1.4479E-04    1.3637E-04    1.300000E+10  0.00010  3.489E-05    0   0.4791   age193_m22            0.0000     2.3861E+01     5.2066   0.6540    98.3486
 24      0.0000     0.0000E+00    0.0000E+00    1.500000E+10  0.00010  3.035E-05    0   0.4766   age201_m22            0.0000     2.3332E+01     5.1726   0.6190    97.9939
 25      0.0000     0.0000E+00    0.0000E+00    1.800000E+10  0.00010  2.510E-05    0   0.4735   age213_m22            0.0000     2.2706E+01     5.1534   0.5626    96.9191
 26      0.0000     0.0000E+00    0.0000E+00    1.000000E+06  0.00040  8.458E-03    0   1.0000   age020_m32            0.0000     2.7769E+02    15.7830   4.0000    69.1463
 27      0.0000     0.0000E+00    0.0000E+00    3.160000E+06  0.00040  3.973E-02    0   1.0000   age045_m32            0.0000     1.0590E+02    11.6588   3.4249    82.4345
 28      0.0000     0.0000E+00    0.0000E+00    5.010000E+06  0.00040  1.935E-02    0   0.9532   age055_m32            0.0000     1.8703E+02    15.3268   3.7679    73.2007
 29      0.0000     0.0000E+00    0.0000E+00    6.610000E+06  0.00040  1.204E-02    0   0.9243   age061_m32            0.0000     2.0577E+02    14.8964   4.0000    71.9364
 30      0.0000     0.0000E+00    0.0000E+00    8.710000E+06  0.00040  9.433E-03    0   0.9001   age067_m32            0.0000     1.8630E+02    14.6253   4.0000    72.8731
 31      0.0000     0.0000E+00    0.0000E+00    1.000000E+07  0.00040  8.053E-03    0   0.8877   age070_m32            0.0000     1.7872E+02    14.7507   4.0000    73.0733
 32      0.0000     0.0000E+00    0.0000E+00    1.445000E+07  0.00040  7.027E-03    0   0.8578   age078_m32            0.0000     1.2388E+02    12.6749   3.4139    80.2012
 33      0.0000     0.0000E+00    0.0000E+00    2.512000E+07  0.00040  4.707E-03    0   0.8166   age090_m32            0.0000     8.5010E+01    10.6656   3.0444    86.4143
 34      0.0000     0.0000E+00    0.0000E+00    4.000000E+07  0.00040  3.714E-03    0   0.7827   age104_m32            0.0000     6.2109E+01     8.7970   2.7457    93.0540
 35      0.0000     0.0000E+00    0.0000E+00    5.500000E+07  0.00040  2.982E-03    0   0.7593   age110_m32            0.0000     5.9241E+01     8.1748   2.6452    95.6637
 36      0.0000     0.0000E+00    0.0000E+00    1.015200E+08  0.00040  2.188E-03    0   0.7143   age116_m32            0.0000     8.5841E+01     7.8816   2.2226   105.8645
 37      0.0000     0.0000E+00    0.0000E+00    1.609000E+08  0.00040  1.690E-03    0   0.6856   age120_m32            0.0000     1.2883E+02     8.9922   1.9194   112.2828
 38      0.0000     0.0000E+00    0.0000E+00    2.861200E+08  0.00040  1.152E-03    0   0.6509   age125_m32            0.0000     1.6326E+02    10.0967   1.6303   116.7909
 39      0.0000     0.0000E+00    0.0000E+00    5.088000E+08  0.00040  7.331E-04    0   0.6182   age130_m32            0.0000     1.8052E+02    10.7291   1.4352   118.8155
 40      0.0000     0.0000E+00    0.0000E+00    9.047900E+08  0.00040  3.960E-04    0   0.5890   age135_m32            0.0000     8.8214E+01     7.8498   1.1016   112.4733
 41      0.0000     0.0000E+00    0.0000E+00    1.278050E+09  0.00040  2.854E-04    0   0.5687   age138_m32            0.0000     7.1510E+01     7.1994   0.8441   112.9009
 42      0.0000     0.0000E+00    0.0000E+00    1.434000E+09  0.00040  2.531E-04    0   0.5632   age139_m32            0.0000     6.9674E+01     7.1497   0.7842   112.7690
 43     33.6434     7.5627E+00    8.0072E+00    2.500000E+09  0.00040  1.488E-04    0   0.5386   age150_m32            0.0000     4.7660E+01     6.1741   0.5643   109.3279
 44      7.3451     2.7052E+00    2.7647E+00    4.250000E+09  0.00040  9.082E-05    0   0.5199   age158_m32            0.0000     2.0935E+01     4.6844   0.5809   101.4266
 45      0.0000     0.0000E+00    0.0000E+00    6.250000E+09  0.00040  6.362E-05    0   0.5076   age166_m32            0.0000     2.4955E+01     5.4039   0.6317    94.5874
 46      0.0000     0.0000E+00    0.0000E+00    7.500000E+09  0.00040  5.289E-05    0   0.5027   age171_m32            0.0000     2.6522E+01     5.5285   0.6106    92.8358
 47      0.0000     0.0000E+00    0.0000E+00    1.000000E+10  0.00040  3.972E-05    0   0.4948   age181_m32            0.0000     2.6645E+01     5.4523   0.5581    91.2678
 48      0.0000     0.0000E+00    0.0000E+00    1.300000E+10  0.00040  3.283E-05    0   0.4870   age193_m32            0.0000     1.8846E+01     4.6139   0.4666    95.6158
 49      0.0000     0.0000E+00    0.0000E+00    1.500000E+10  0.00040  2.925E-05    0   0.4854   age201_m32            0.0000     1.7090E+01     4.3642   0.4187    98.2575
 50      0.0000     0.0000E+00    0.0000E+00    1.800000E+10  0.00040  2.469E-05    0   0.4819   age213_m32            0.0000     1.6541E+01     4.2743   0.3652    99.2343
 51      0.0000     0.0000E+00    0.0000E+00    1.000000E+06  0.00400  1.114E-02    0   1.0000   age020_m42            0.0000     2.5127E+02    15.0913   4.0000    69.2293
 52      0.0000     0.0000E+00    0.0000E+00    3.160000E+06  0.00400  4.073E-02    0   0.9999   age045_m42            0.0000     7.9482E+01     9.9948   3.0709    86.5980
 53      0.0000     0.0000E+00    0.0000E+00    5.010000E+06  0.00400  2.534E-02    0   0.9488   age055_m42            0.0000     1.3897E+02    13.2074   3.5912    77.0568
 54      0.0000     0.0000E+00    0.0000E+00    6.610000E+06  0.00400  2.583E-02    0   0.9220   age061_m42            0.0000     6.6857E+01     9.2759   2.8411    89.1591
 55      0.0000     0.0000E+00    0.0000E+00    8.710000E+06  0.00400  1.706E-02    0   0.8983   age067_m42            0.0000     9.4780E+01    11.3252   2.7429    84.5433
 56      0.0000     0.0000E+00    0.0000E+00    1.000000E+07  0.00400  1.271E-02    0   0.8862   age070_m42            0.0000     1.2291E+02    12.9075   2.7731    81.4643
 57      0.0000     0.0000E+00    0.0000E+00    1.445000E+07  0.00400  7.666E-03    0   0.8571   age078_m42            0.0000     1.5105E+02    13.9587   3.2278    76.9685
 58      0.0000     0.0000E+00    0.0000E+00    2.512000E+07  0.00400  5.070E-03    0   0.8174   age090_m42            0.0000     1.1225E+02    12.2693   2.6365    83.1321
 59      0.0000     0.0000E+00    0.0000E+00    4.000000E+07  0.00400  3.505E-03    0   0.7851   age104_m42            0.0000     8.4237E+01    10.3883   2.2838    87.1717
 60      0.0000     0.0000E+00    0.0000E+00    5.500000E+07  0.00400  3.059E-03    0   0.7629   age110_m42            0.0000     4.9419E+01     7.1778   2.1825    97.5668
 61      0.0000     0.0000E+00    0.0000E+00    1.015200E+08  0.00400  2.268E-03    0   0.7207   age116_m42            0.0000     1.0447E+02     8.0414   1.8595   111.8351
 62      0.0000     0.0000E+00    0.0000E+00    1.609000E+08  0.00400  1.720E-03    0   0.6930   age120_m42            0.0000     1.1550E+02     8.3376   1.6845   114.8867
 63      0.0000     0.0000E+00    0.0000E+00    2.861200E+08  0.00400  1.079E-03    0   0.6613   age125_m42            0.0000     1.0581E+02     8.2802   1.3452   114.7972
 64      0.0000     0.0000E+00    0.0000E+00    5.088000E+08  0.00400  6.261E-04    0   0.6313   age130_m42            0.0000     1.2990E+02     9.0717   1.1035   119.7715
 65      0.0000     0.0000E+00    0.0000E+00    9.047900E+08  0.00400  3.535E-04    0   0.6024   age135_m42            0.0000     6.6506E+01     6.7953   0.7947   116.1853
 66      0.0000     0.0000E+00    0.0000E+00    1.278050E+09  0.00400  2.677E-04    0   0.5837   age138_m42            0.0000     1.1950E+01     3.5138   0.2352   108.1692
 67      0.0000     0.0000E+00    0.0000E+00    1.434000E+09  0.00400  1.910E-04    0   0.5716   age139_m42            0.0000     2.1097E+01     4.2065   0.3661   110.5998
 68      5.0705     1.7275E+00    1.8551E+00    2.500000E+09  0.00400  9.818E-05    0   0.5463   age150_m42            0.0000     3.3366E+00     1.8822   0.2212   100.8865
 69      0.0000     0.0000E+00    0.0000E+00    4.250000E+09  0.00400  5.491E-05    0   0.5269   age158_m42            0.0000     8.0810E+00     2.6976   0.1527    96.0445
 70      2.4195     2.0982E+00    2.1246E+00    6.250000E+09  0.00400  3.857E-05    0   0.5151   age166_m42            0.0000     1.1503E+01     3.0779   0.0439    94.1553
 71      4.3308     4.4669E+00    4.4870E+00    7.500000E+09  0.00400  3.243E-05    0   0.5110   age171_m42            0.0000     1.3626E+01     3.2811  -0.0294    93.4439
 72     10.6245     1.4661E+01    1.4491E+01    1.000000E+10  0.00400  2.424E-05    0   0.5028   age181_m42            0.0000     1.7981E+01     3.6770  -0.0994    92.5200
 73      0.0000     0.0000E+00    0.0000E+00    1.300000E+10  0.00400  1.883E-05    0   0.4927   age193_m42            0.0000     2.3471E+01     4.1156  -0.1280    91.8133
 74      0.0000     0.0000E+00    0.0000E+00    1.500000E+10  0.00400  1.685E-05    0   0.4919   age201_m42            0.0000     2.2666E+01     4.0781  -0.1241    91.8419
 75      0.0000     0.0000E+00    0.0000E+00    1.800000E+10  0.00400  1.452E-05    0   0.4874   age213_m42            0.0000     2.1323E+01     4.0083  -0.1117    92.1327
 76      0.0000     0.0000E+00    0.0000E+00    1.000000E+06  0.00800  1.286E-02    0   1.0000   age020_m52            0.0000     2.2578E+02    14.3075   4.0000    70.9242
 77      0.0000     0.0000E+00    0.0000E+00    3.160000E+06  0.00800  3.147E-02    0   0.9966   age045_m52            0.0000     2.0464E+02    14.5124   4.0000    71.7249
 78      0.0000     0.0000E+00    0.0000E+00    5.010000E+06  0.00800  2.664E-02    0   0.9443   age055_m52            0.0000     1.5843E+02    13.8619   3.7451    75.1546
 79      0.0000     0.0000E+00    0.0000E+00    6.610000E+06  0.00800  2.151E-02    0   0.9177   age061_m52            0.0000     1.1489E+02    11.9258   2.3925    82.2067
 80      0.0000     0.0000E+00    0.0000E+00    8.710000E+06  0.00800  1.628E-02    0   0.8948   age067_m52            0.0000     1.0950E+02    11.9090   2.7370    83.5723
 81      0.0000     0.0000E+00    0.0000E+00    1.000000E+07  0.00800  1.215E-02    0   0.8827   age070_m52            0.0000     1.2674E+02    12.7367   3.1025    81.0765
 82      0.0000     0.0000E+00    0.0000E+00    1.445000E+07  0.00800  8.739E-03    0   0.8552   age078_m52            0.0000     1.0861E+02    11.8361   3.1065    83.5961
 83      0.0000     0.0000E+00    0.0000E+00    2.512000E+07  0.00800  5.676E-03    0   0.8162   age090_m52            0.0000     7.8111E+01    10.0395   2.6045    91.5565
 84      0.0000     0.0000E+00    0.0000E+00    4.000000E+07  0.00800  3.939E-03    0   0.7841   age104_m52            0.0000     6.4338E+01     8.4686   2.3793    96.3848
 85      0.0000     0.0000E+00    0.0000E+00    5.500000E+07  0.00800  3.155E-03    0   0.7627   age110_m52            0.0000     6.1080E+01     7.5277   2.2912   100.3998
 86      0.0000     0.0000E+00    0.0000E+00    1.015200E+08  0.00800  2.206E-03    0   0.7226   age116_m52            0.0000     7.7601E+01     7.2830   1.9851   109.0716
 87      0.0000     0.0000E+00    0.0000E+00    1.609000E+08  0.00800  1.596E-03    0   0.6963   age120_m52            0.0000     8.8165E+01     7.6141   1.7280   112.4909
 88      0.0000     0.0000E+00    0.0000E+00    2.861200E+08  0.00800  1.002E-03    0   0.6665   age125_m52            0.0000     1.3497E+02     9.4405   1.3288   119.5251
 89      0.0000     0.0000E+00    0.0000E+00    5.088000E+08  0.00800  5.759E-04    0   0.6377   age130_m52            0.0000     1.4367E+02    10.1398   0.9446   125.1353
 90      0.0000     0.0000E+00    0.0000E+00    9.047900E+08  0.00800  2.972E-04    0   0.6086   age135_m52            0.0000     5.7589E+01     6.9596   0.5440   118.1898
 91      0.0000     0.0000E+00    0.0000E+00    1.278050E+09  0.00800  2.242E-04    0   0.5907   age138_m52            0.0000     1.0748E+01     3.4229   0.0699   110.7711
 92      0.0000     0.0000E+00    0.0000E+00    1.434000E+09  0.00800  1.645E-04    0   0.5787   age139_m52            0.0000     8.2230E+00     3.0333   0.2324   109.6280
 93      0.0000     0.0000E+00    0.0000E+00    2.500000E+09  0.00800  7.723E-05    0   0.5519   age150_m52            0.0000     5.7891E+00     2.3880  -0.0256   102.6712
 94      0.0000     0.0000E+00    0.0000E+00    4.250000E+09  0.00800  4.151E-05    0   0.5320   age158_m52            0.0000     8.1854E+00     2.7217  -0.0691    99.1805
 95      0.0000     0.0000E+00    0.0000E+00    6.250000E+09  0.00800  3.010E-05    0   0.5197   age166_m52            0.0000     1.4939E+01     3.4629  -0.2439    97.1659
 96      0.0003     3.9992E-04    4.0401E-04    7.500000E+09  0.00800  2.467E-05    0   0.5139   age171_m52            0.0000     1.6912E+01     3.6377  -0.2832    96.7163
 97     18.8638     3.3887E+01    3.3667E+01    1.000000E+10  0.00800  1.862E-05    0   0.5054   age181_m52            0.0000     2.3005E+01     4.1501  -0.4136    96.3811
