###################################################################
## OUTPUT of StarlightChains_v04.for    [Cid@UFSC - 01/Apr/2007] ##
###################################################################

## Some input info
NGC6624_a_1.cxt                          [arq_obs]
Base.BC03.S                              [arq_base]
NGC6624_a_1.msk                          [arq_masks]
StCv04.C11.config                        [arq_config]
  150                                    [N_base]
    0                                    [N_YAV_components = # of components with extra extinction!]
    0                                    [i_FitPowerLaw (1/0 = Yes/No)]
-9.99                                    [alpha_PowerLaw]
CCM                                      [red_law_option]
 1.458241                                [q_norm = A(l_norm)/A(V)]

## (Re)Sampling Parameters
 3359.00                                 [l_ini (A)]
 6428.00                                 [l_fin (A)]
    1.00                                 [dl    (A)]     (OBS: dl_cushion =    50.00 A)

## Normalization info
 4020.00                                 [l_norm (A) - for base]
 4010.00                                 [llow_norm (A) - window for f_obs]
 4060.00                                 [lupp_norm (A) - window for f_obs]
1.685692E-14                             [fobs_norm (in input units)]

## S/N
 4730.00                                 [llow_SN (A) - window for S/N]
 4780.00                                 [lupp_SN (A) - window for S/N]
  42.348                                 [S/N in S/N window]
  28.608                                 [S/N in norm. window]
  94.289                                 [S/N_err in S/N window]
  63.698                                 [S/N_err in norm. window]
  1.0000                                 [fscale_chi2]

## etc...
  2147483597                             [idum_orig]
  3069                                   [NOl_eff]
  1111                                   [Nl_eff]
  1958    NSIGMA                         [Ntot_cliped & clip_method]
  2333100                                [Nglobal_steps]
   7                                     [N_chains]
  27                                     [NEX0s_base = N_base in EX0s-fits]
 0   0   1      375   2.0   1.181E+03    [Clip-Bug, RC-Crash & Burn-In warning-flags, n_censored_weights, wei_nsig_threshold & wei_limit]
    82     82.107     82.087      0.020  [idt_all, wdt_TotTime, wdt_UsrTime & wdt_SysTime (sec)]

## Synthesis Results - Best model ##

 2.68591E+00                             [chi2/Nl_eff]
     1.38326                             [adev (%)]

   101.85337                             [sum-of-x (%)]
 3.23391E-14                             [Flux_tot (units of input spectrum!)]
 1.50841E-09                             [Mini_tot (???)]
 7.66974E-10                             [Mcor_tot (???)]

  -3.65                                  [v0_min  (km/s)]
  78.06                                  [vd_min  (km/s)]
 0.4714                                  [AV_min  (mag)]
 0.0000                                  [YAV_min (mag)]

# j     x_j(%)      Mini_j(%)     Mcor_j(%)     age_j(yr)     Z_j      (L/M)_j    YAV?  Mstars   component_j        a/Fe...       SSP_chi2r SSP_adev(%)   SSP_AV   SSP_x(%)
  1      0.0000     0.0000E+00    0.0000E+00    1.000000E+06  0.00010  8.160E-03    0   1.0000   age020_m22            0.0000     1.5489E+03    33.0851   4.0000    68.9970
  2      3.4868     1.5422E-03    3.0330E-03    3.160000E+06  0.00010  4.759E-02    0   1.0000   age045_m22            0.0000     4.5133E+02    10.8023   3.0097    84.8847
  3      0.0000     0.0000E+00    0.0000E+00    5.010000E+06  0.00010  1.932E-02    0   0.9582   age055_m22            0.0000     4.7122E+02    16.4825   3.3075    72.8826
  4      0.0000     0.0000E+00    0.0000E+00    6.610000E+06  0.00010  9.973E-03    0   0.9297   age061_m22            0.0000     1.4726E+03    32.2868   4.0000    71.3329
  5      0.0000     0.0000E+00    0.0000E+00    8.710000E+06  0.00010  7.690E-03    0   0.9030   age067_m22            0.0000     1.4460E+03    31.9519   4.0000    71.7908
  6      0.0000     0.0000E+00    0.0000E+00    1.000000E+07  0.00010  6.375E-03    0   0.8902   age070_m22            0.0000     1.4520E+03    31.9748   4.0000    72.0529
  7      0.0000     0.0000E+00    0.0000E+00    1.445000E+07  0.00010  4.874E-03    0   0.8589   age078_m22            0.0000     1.1448E+03    27.8710   4.0000    74.7620
  8      0.0000     0.0000E+00    0.0000E+00    2.512000E+07  0.00010  4.103E-03    0   0.8174   age090_m22            0.0000     7.5368E+02    18.8625   4.0000    79.5976
  9      0.0000     0.0000E+00    0.0000E+00    4.000000E+07  0.00010  3.654E-03    0   0.7830   age104_m22            0.0000     8.0577E+02    13.4742   4.0000    81.8335
 10      0.0000     0.0000E+00    0.0000E+00    5.500000E+07  0.00010  3.093E-03    0   0.7597   age110_m22            0.0000     8.5910E+02    12.0676   4.0000    82.7729
 11      0.0000     0.0000E+00    0.0000E+00    1.015200E+08  0.00010  2.431E-03    0   0.7138   age116_m22            0.0000     1.0203E+03    11.6191   3.6996    84.9049
 12      0.0000     0.0000E+00    0.0000E+00    1.609000E+08  0.00010  1.319E-03    0   0.6775   age120_m22            0.0000     9.8289E+02    10.6780   3.1858    88.3920
 13      0.0000     0.0000E+00    0.0000E+00    2.861200E+08  0.00010  1.075E-03    0   0.6412   age125_m22            0.0000     1.5609E+03    10.1914   3.2326    92.7159
 14      0.0000     0.0000E+00    0.0000E+00    5.088000E+08  0.00010  7.183E-04    0   0.6083   age130_m22            0.0000     1.6985E+03     9.8695   2.9631    96.0285
 15      0.0000     0.0000E+00    0.0000E+00    9.047900E+08  0.00010  4.524E-04    0   0.5785   age135_m22            0.0000     1.6697E+03     9.6740   2.7406    98.0434
 16      0.0000     0.0000E+00    0.0000E+00    1.278050E+09  0.00010  3.018E-04    0   0.5588   age138_m22            0.0000     1.0593E+03     8.6542   2.1989    96.7653
 17      0.0000     0.0000E+00    0.0000E+00    1.434000E+09  0.00010  2.691E-04    0   0.5532   age139_m22            0.0000     9.4016E+02     8.4017   2.0377    96.5025
 18      0.0000     0.0000E+00    0.0000E+00    2.500000E+09  0.00010  1.582E-04    0   0.5296   age150_m22            0.0000     8.8647E+02     8.6789   1.9349    96.5107
 19      0.0000     0.0000E+00    0.0000E+00    4.250000E+09  0.00010  1.007E-04    0   0.5110   age158_m22            0.0000     6.5184E+02     8.2063   1.7768    95.1784
 20      0.0000     0.0000E+00    0.0000E+00    6.250000E+09  0.00010  6.869E-05    0   0.4985   age166_m22            0.0000     4.7016E+02     8.0385   1.7156    92.7701
 21      0.0000     0.0000E+00    0.0000E+00    7.500000E+09  0.00010  5.873E-05    0   0.4931   age171_m22            0.0000     4.5528E+02     8.3150   1.7088    91.9728
 22      0.8526     4.0053E-01    3.8236E-01    1.000000E+10  0.00010  4.481E-05    0   0.4854   age181_m22            0.0000     4.4337E+02     8.2333   1.6690    91.7590
 23      0.0000     0.0000E+00    0.0000E+00    1.300000E+10  0.00010  3.489E-05    0   0.4791   age193_m22            0.0000     4.1723E+02     8.0487   1.6077    91.4982
 24      0.0000     0.0000E+00    0.0000E+00    1.500000E+10  0.00010  3.035E-05    0   0.4766   age201_m22            0.0000     4.0368E+02     7.9961   1.5676    91.3796
 25      0.0000     0.0000E+00    0.0000E+00    1.800000E+10  0.00010  2.510E-05    0   0.4735   age213_m22            0.0000     3.7165E+02     7.9070   1.4982    90.9240
 26      0.0000     0.0000E+00    0.0000E+00    1.000000E+06  0.00040  8.458E-03    0   1.0000   age020_m32            0.0000     1.5603E+03    33.2164   4.0000    69.6115
 27      0.0000     0.0000E+00    0.0000E+00    3.160000E+06  0.00040  3.973E-02    0   1.0000   age045_m32            0.0000     6.4942E+02    16.9983   4.0000    79.0918
 28      0.0000     0.0000E+00    0.0000E+00    5.010000E+06  0.00040  1.935E-02    0   0.9532   age055_m32            0.0000     8.3273E+02    23.0137   4.0000    74.3675
 29      0.0000     0.0000E+00    0.0000E+00    6.610000E+06  0.00040  1.204E-02    0   0.9243   age061_m32            0.0000     1.2328E+03    29.2799   4.0000    73.1020
 30      0.0000     0.0000E+00    0.0000E+00    8.710000E+06  0.00040  9.433E-03    0   0.9001   age067_m32            0.0000     1.1805E+03    28.5034   4.0000    73.9162
 31      0.0000     0.0000E+00    0.0000E+00    1.000000E+07  0.00040  8.053E-03    0   0.8877   age070_m32            0.0000     1.1266E+03    27.6975   4.0000    74.3516
 32      0.0000     0.0000E+00    0.0000E+00    1.445000E+07  0.00040  7.027E-03    0   0.8578   age078_m32            0.0000     6.3200E+02    16.9716   4.0000    77.5172
 33      0.0000     0.0000E+00    0.0000E+00    2.512000E+07  0.00040  4.707E-03    0   0.8166   age090_m32            0.0000     6.1341E+02    13.5992   3.9771    79.5249
 34      0.0000     0.0000E+00    0.0000E+00    4.000000E+07  0.00040  3.714E-03    0   0.7827   age104_m32            0.0000     7.4966E+02    12.5742   3.7871    82.1952
 35      0.0000     0.0000E+00    0.0000E+00    5.500000E+07  0.00040  2.982E-03    0   0.7593   age110_m32            0.0000     8.2412E+02    12.1704   3.7273    83.2939
 36      0.0000     0.0000E+00    0.0000E+00    1.015200E+08  0.00040  2.188E-03    0   0.7143   age116_m32            0.0000     1.1747E+03    10.9658   3.4582    87.7143
 37      0.0000     0.0000E+00    0.0000E+00    1.609000E+08  0.00040  1.690E-03    0   0.6856   age120_m32            0.0000     1.4179E+03    10.5694   3.2414    90.6311
 38      0.0000     0.0000E+00    0.0000E+00    2.861200E+08  0.00040  1.152E-03    0   0.6509   age125_m32            0.0000     1.5717E+03     9.7972   2.9617    94.7598
 39      0.0000     0.0000E+00    0.0000E+00    5.088000E+08  0.00040  7.331E-04    0   0.6182   age130_m32            0.0000     1.6048E+03     9.5312   2.7694    96.7218
 40      0.0000     0.0000E+00    0.0000E+00    9.047900E+08  0.00040  3.960E-04    0   0.5890   age135_m32            0.0000     1.0647E+03     8.4104   2.2742    96.9123
 41      0.0000     0.0000E+00    0.0000E+00    1.278050E+09  0.00040  2.854E-04    0   0.5687   age138_m32            0.0000     9.3791E+02     8.4848   1.9947    97.7698
 42      0.0000     0.0000E+00    0.0000E+00    1.434000E+09  0.00040  2.531E-04    0   0.5632   age139_m32            0.0000     9.2261E+02     8.4806   1.9335    97.7078
 43      1.2672     1.7926E-01    1.8989E-01    2.500000E+09  0.00040  1.488E-04    0   0.5386   age150_m32            0.0000     7.2787E+02     7.8353   1.6667    96.6305
 44      4.6159     1.0698E+00    1.0939E+00    4.250000E+09  0.00040  9.082E-05    0   0.5199   age158_m32            0.0000     4.2888E+02     7.3370   1.5611    93.8882
 45      2.7353     9.0500E-01    9.0346E-01    6.250000E+09  0.00040  6.362E-05    0   0.5076   age166_m32            0.0000     2.8228E+02     7.7389   1.5224    90.5662
 46      2.1040     8.3734E-01    8.2784E-01    7.500000E+09  0.00040  5.289E-05    0   0.5027   age171_m32            0.0000     2.5208E+02     7.6405   1.4804    89.6942
 47      4.5082     2.3891E+00    2.3249E+00    1.000000E+10  0.00040  3.972E-05    0   0.4948   age181_m32            0.0000     2.2812E+02     7.4063   1.4101    88.8927
 48      0.0000     0.0000E+00    0.0000E+00    1.300000E+10  0.00040  3.283E-05    0   0.4870   age193_m32            0.0000     2.8817E+02     7.0793   1.3666    91.4144
 49      0.0000     0.0000E+00    0.0000E+00    1.500000E+10  0.00040  2.925E-05    0   0.4854   age201_m32            0.0000     3.3593E+02     6.9752   1.3502    92.8438
 50      0.0000     0.0000E+00    0.0000E+00    1.800000E+10  0.00040  2.469E-05    0   0.4819   age213_m32            0.0000     3.5318E+02     6.8922   1.3096    93.3937
 51      0.0000     0.0000E+00    0.0000E+00    1.000000E+06  0.00400  1.114E-02    0   1.0000   age020_m42            0.0000     1.4327E+03    31.6728   4.0000    70.2326
 52      0.0000     0.0000E+00    0.0000E+00    3.160000E+06  0.00400  4.073E-02    0   0.9999   age045_m42            0.0000     5.0445E+02    12.0020   4.0000    80.6114
 53      0.0000     0.0000E+00    0.0000E+00    5.010000E+06  0.00400  2.534E-02    0   0.9488   age055_m42            0.0000     6.6864E+02    19.3994   4.0000    76.5666
 54      0.0000     0.0000E+00    0.0000E+00    6.610000E+06  0.00400  2.583E-02    0   0.9220   age061_m42            0.0000     6.0164E+02    12.2007   3.8374    80.6053
 55      0.0000     0.0000E+00    0.0000E+00    8.710000E+06  0.00400  1.706E-02    0   0.8983   age067_m42            0.0000     5.3668E+02    13.9897   3.6624    78.6338
 56      0.0000     0.0000E+00    0.0000E+00    1.000000E+07  0.00400  1.271E-02    0   0.8862   age070_m42            0.0000     5.3530E+02    15.4697   3.6517    77.0195
 57      0.0000     0.0000E+00    0.0000E+00    1.445000E+07  0.00400  7.666E-03    0   0.8571   age078_m42            0.0000     5.0924E+02    15.7507   4.0000    75.1329
 58      0.0000     0.0000E+00    0.0000E+00    2.512000E+07  0.00400  5.070E-03    0   0.8174   age090_m42            0.0000     5.2266E+02    14.9081   3.5085    79.0002
 59      0.0000     0.0000E+00    0.0000E+00    4.000000E+07  0.00400  3.505E-03    0   0.7851   age104_m42            0.0000     5.0856E+02    13.2525   3.1752    82.5942
 60      0.0000     0.0000E+00    0.0000E+00    5.500000E+07  0.00400  3.059E-03    0   0.7629   age110_m42            0.0000     7.5673E+02    11.1229   3.2384    86.7535
 61      0.0000     0.0000E+00    0.0000E+00    1.015200E+08  0.00400  2.268E-03    0   0.7207   age116_m42            0.0000     1.2849E+03     9.9482   3.1486    91.7844
 62      0.0000     0.0000E+00    0.0000E+00    1.609000E+08  0.00400  1.720E-03    0   0.6930   age120_m42            0.0000     1.2883E+03     9.1207   2.9800    94.5294
 63      0.0000     0.0000E+00    0.0000E+00    2.861200E+08  0.00400  1.079E-03    0   0.6613   age125_m42            0.0000     1.2629E+03     8.6884   2.5853    96.6210
 64      0.0000     0.0000E+00    0.0000E+00    5.088000E+08  0.00400  6.261E-04    0   0.6313   age130_m42            0.0000     1.3373E+03     8.7746   2.3798    99.6752
 65      0.0000     0.0000E+00    0.0000E+00    9.047900E+08  0.00400  3.535E-04    0   0.6024   age135_m42            0.0000     8.8003E+02     7.5646   1.9490   101.3907
 66      0.0000     0.0000E+00    0.0000E+00    1.278050E+09  0.00400  2.677E-04    0   0.5837   age138_m42            0.0000     3.0101E+02     4.5575   1.1885   103.4845
 67      0.0000     0.0000E+00    0.0000E+00    1.434000E+09  0.00400  1.910E-04    0   0.5716   age139_m42            0.0000     4.3053E+02     5.1297   1.3748   103.2037
 68      0.0022     4.8030E-04    5.1603E-04    2.500000E+09  0.00400  9.818E-05    0   0.5463   age150_m42            0.0000     1.1287E+02     3.0718   1.0730   100.6005
 69      0.0000     0.0000E+00    0.0000E+00    4.250000E+09  0.00400  5.491E-05    0   0.5269   age158_m42            0.0000     4.6340E+01     2.8109   0.9451    98.2594
 70      0.0000     0.0000E+00    0.0000E+00    6.250000E+09  0.00400  3.857E-05    0   0.5151   age166_m42            0.0000     2.0987E+01     2.2601   0.8057    97.8545
 71      0.0000     0.0000E+00    0.0000E+00    7.500000E+09  0.00400  3.243E-05    0   0.5110   age171_m42            0.0000     1.3014E+01     2.0896   0.7176    97.9544
 72      0.0041     3.5957E-03    3.5556E-03    1.000000E+10  0.00400  2.424E-05    0   0.5028   age181_m42            0.0000     1.0733E+01     2.1275   0.6239    98.2011
 73      0.0000     0.0000E+00    0.0000E+00    1.300000E+10  0.00400  1.883E-05    0   0.4927   age193_m42            0.0000     1.8833E+01     2.3348   0.5750    98.4648
 74      0.0000     0.0000E+00    0.0000E+00    1.500000E+10  0.00400  1.685E-05    0   0.4919   age201_m42            0.0000     1.6803E+01     2.3277   0.5843    98.2502
 75      0.0000     0.0000E+00    0.0000E+00    1.800000E+10  0.00400  1.452E-05    0   0.4874   age213_m42            0.0000     1.4459E+01     2.3507   0.6075    98.0962
 76      0.0000     0.0000E+00    0.0000E+00    1.000000E+06  0.00800  1.286E-02    0   1.0000   age020_m52            0.0000     1.3696E+03    30.7961   4.0000    71.9332
 77      0.0000     0.0000E+00    0.0000E+00    3.160000E+06  0.00800  3.147E-02    0   0.9966   age045_m52            0.0000     1.2399E+03    29.2789   4.0000    73.0547
 78      0.0000     0.0000E+00    0.0000E+00    5.010000E+06  0.00800  2.664E-02    0   0.9443   age055_m52            0.0000     8.0619E+02    22.2001   4.0000    75.9029
 79      0.0000     0.0000E+00    0.0000E+00    6.610000E+06  0.00800  2.151E-02    0   0.9177   age061_m52            0.0000     4.0451E+02    13.6044   3.2041    80.4943
 80      0.0000     0.0000E+00    0.0000E+00    8.710000E+06  0.00800  1.628E-02    0   0.8948   age067_m52            0.0000     5.3468E+02    14.4951   3.6113    79.2358
 81      0.0000     0.0000E+00    0.0000E+00    1.000000E+07  0.00800  1.215E-02    0   0.8827   age070_m52            0.0000     5.6130E+02    15.2061   3.9569    77.2802
 82      0.0000     0.0000E+00    0.0000E+00    1.445000E+07  0.00800  8.739E-03    0   0.8552   age078_m52            0.0000     6.0073E+02    14.5985   4.0000    78.1716
 83      0.0000     0.0000E+00    0.0000E+00    2.512000E+07  0.00800  5.676E-03    0   0.8162   age090_m52            0.0000     7.4804E+02    13.8819   3.6268    81.6093
 84      0.0000     0.0000E+00    0.0000E+00    4.000000E+07  0.00800  3.939E-03    0   0.7841   age104_m52            0.0000     8.2933E+02    12.4917   3.4523    84.5148
 85      0.0000     0.0000E+00    0.0000E+00    5.500000E+07  0.00800  3.155E-03    0   0.7627   age110_m52            0.0000     9.2523E+02    11.5161   3.4139    86.5990
 86      0.0000     0.0000E+00    0.0000E+00    1.015200E+08  0.00800  2.206E-03    0   0.7226   age116_m52            0.0000     1.1057E+03    10.0133   3.2059    91.4577
 87      0.0000     0.0000E+00    0.0000E+00    1.609000E+08  0.00800  1.596E-03    0   0.6963   age120_m52            0.0000     1.1750E+03     9.3668   2.9631    94.2351
 88      0.0000     0.0000E+00    0.0000E+00    2.861200E+08  0.00800  1.002E-03    0   0.6665   age125_m52            0.0000     1.3795E+03     8.5141   2.6091    99.7938
 89      0.0000     0.0000E+00    0.0000E+00    5.088000E+08  0.00800  5.759E-04    0   0.6377   age130_m52            0.0000     1.2770E+03     7.8948   2.1921   106.9419
 90      0.0000     0.0000E+00    0.0000E+00    9.047900E+08  0.00800  2.972E-04    0   0.6086   age135_m52            0.0000     6.2387E+02     6.2144   1.5763   110.0759
 91      0.0000     0.0000E+00    0.0000E+00    1.278050E+09  0.00800  2.242E-04    0   0.5907   age138_m52            0.0000     1.8562E+02     3.7771   0.9519   109.8464
 92      0.0000     0.0000E+00    0.0000E+00    1.434000E+09  0.00800  1.645E-04    0   0.5787   age139_m52            0.0000     1.9902E+02     3.7081   1.1213   108.0577
 93      0.0000     0.0000E+00    0.0000E+00    2.500000E+09  0.00800  7.723E-05    0   0.5519   age150_m52            0.0000     3.9776E+01     2.1636   0.7673   105.5515
 94      0.1530     7.7569E-02    8.1159E-02    4.250000E+09  0.00800  4.151E-05    0   0.5320   age158_m52            0.0000     1.3301E+01     1.6822   0.6982   103.1059
 95      3.1011     2.1686E+00    2.2165E+00    6.250000E+09  0.00800  3.010E-05    0   0.5197   age166_m52            0.0000     4.9027E+00     1.6943   0.4810   103.2320
 96      1.7542     1.4967E+00    1.5127E+00    7.500000E+09  0.00800  2.467E-05    0   0.5139   age171_m52            0.0000     7.8611E+00     1.8561   0.4321   103.2749
 97     69.0757     7.8087E+01    7.7616E+01    1.000000E+10  0.00800  1.862E-05    0   0.5054   age181_m52            0.0000     2.5938E+01     2.5404   0.2787   104.2801
