###################################################################
## OUTPUT of StarlightChains_v04.for    [Cid@UFSC - 01/Apr/2007] ##
###################################################################

## Some input info
NGC6333_a_1.cxt                          [arq_obs]
Base.BC03.S                              [arq_base]
NGC6333_a_1.msk                          [arq_masks]
StCv04.C11.config                        [arq_config]
  150                                    [N_base]
    0                                    [N_YAV_components = # of components with extra extinction!]
    0                                    [i_FitPowerLaw (1/0 = Yes/No)]
-9.99                                    [alpha_PowerLaw]
CCM                                      [red_law_option]
 1.458241                                [q_norm = A(l_norm)/A(V)]

## (Re)Sampling Parameters
 3359.00                                 [l_ini (A)]
 6428.00                                 [l_fin (A)]
    1.00                                 [dl    (A)]     (OBS: dl_cushion =    50.00 A)

## Normalization info
 4020.00                                 [l_norm (A) - for base]
 4010.00                                 [llow_norm (A) - window for f_obs]
 4060.00                                 [lupp_norm (A) - window for f_obs]
1.502426E-14                             [fobs_norm (in input units)]

## S/N
 4730.00                                 [llow_SN (A) - window for S/N]
 4780.00                                 [lupp_SN (A) - window for S/N]
 125.098                                 [S/N in S/N window]
 101.861                                 [S/N in norm. window]
  69.725                                 [S/N_err in S/N window]
  56.774                                 [S/N_err in norm. window]
  1.0000                                 [fscale_chi2]

## etc...
  2147483616                             [idum_orig]
  3065                                   [NOl_eff]
  2284                                   [Nl_eff]
   781    NSIGMA                         [Ntot_cliped & clip_method]
  1752730                                [Nglobal_steps]
   7                                     [N_chains]
  25                                     [NEX0s_base = N_base in EX0s-fits]
 0   0   1      286   2.0   8.723E+02    [Clip-Bug, RC-Crash & Burn-In warning-flags, n_censored_weights, wei_nsig_threshold & wei_limit]
    66     65.977     65.977      0.000  [idt_all, wdt_TotTime, wdt_UsrTime & wdt_SysTime (sec)]

## Synthesis Results - Best model ##

 1.83758E+00                             [chi2/Nl_eff]
     1.45030                             [adev (%)]

   100.28949                             [sum-of-x (%)]
 8.94148E-14                             [Flux_tot (units of input spectrum!)]
 1.67551E-09                             [Mini_tot (???)]
 8.18537E-10                             [Mcor_tot (???)]

 -19.53                                  [v0_min  (km/s)]
  89.15                                  [vd_min  (km/s)]
 1.3258                                  [AV_min  (mag)]
 0.0000                                  [YAV_min (mag)]

# j     x_j(%)      Mini_j(%)     Mcor_j(%)     age_j(yr)     Z_j      (L/M)_j    YAV?  Mstars   component_j        a/Fe...       SSP_chi2r SSP_adev(%)   SSP_AV   SSP_x(%)
  1      0.0000     7.7791E-09    1.5924E-08    1.000000E+06  0.00010  8.160E-03    0   1.0000   age020_m22            0.0000     4.6800E+02    22.6725   4.0000    68.0224
  2     21.1008     2.3593E-02    4.8295E-02    3.160000E+06  0.00010  4.759E-02    0   1.0000   age045_m22            0.0000     1.4079E+01     2.5780   2.3917    94.8899
  3      1.6403     4.5177E-03    8.8610E-03    5.010000E+06  0.00010  1.932E-02    0   0.9582   age055_m22            0.0000     1.4493E+02    11.4188   2.9681    73.0880
  4      0.0000     0.0000E+00    0.0000E+00    6.610000E+06  0.00010  9.973E-03    0   0.9297   age061_m22            0.0000     4.3001E+02    21.6355   4.0000    70.7250
  5      0.0000     0.0000E+00    0.0000E+00    8.710000E+06  0.00010  7.690E-03    0   0.9030   age067_m22            0.0000     4.0855E+02    21.0294   4.0000    71.3843
  6      0.0000     0.0000E+00    0.0000E+00    1.000000E+07  0.00010  6.375E-03    0   0.8902   age070_m22            0.0000     4.0590E+02    20.9472   4.0000    71.7424
  7      0.0000     0.0000E+00    0.0000E+00    1.445000E+07  0.00010  4.874E-03    0   0.8589   age078_m22            0.0000     2.1906E+02    14.7608   4.0000    75.8382
  8      0.0000     0.0000E+00    0.0000E+00    2.512000E+07  0.00010  4.103E-03    0   0.8174   age090_m22            0.0000     3.8327E+01     5.3375   3.8602    84.9793
  9      2.5739     3.7483E-02    6.0077E-02    4.000000E+07  0.00010  3.654E-03    0   0.7830   age104_m22            0.0000     2.2437E+01     3.0221   3.4117    95.0463
 10      2.3119     3.9773E-02    6.1850E-02    5.500000E+07  0.00010  3.093E-03    0   0.7597   age110_m22            0.0000     2.7810E+01     3.2254   3.2491    98.9311
 11      3.3189     7.2646E-02    1.0615E-01    1.015200E+08  0.00010  2.431E-03    0   0.7138   age116_m22            0.0000     5.3716E+01     5.1165   2.8027   105.9383
 12      0.0000     0.0000E+00    0.0000E+00    1.609000E+08  0.00010  1.319E-03    0   0.6775   age120_m22            0.0000     4.9143E+01     5.7592   2.3076   109.4168
 13      0.0000     0.0000E+00    0.0000E+00    2.861200E+08  0.00010  1.075E-03    0   0.6412   age125_m22            0.0000     2.1403E+02    12.7798   2.0577   126.1212
 14      0.0000     0.0000E+00    0.0000E+00    5.088000E+08  0.00010  7.183E-04    0   0.6083   age130_m22            0.0000     2.8049E+02    14.9285   1.7229   132.5856
 15      0.0000     0.0000E+00    0.0000E+00    9.047900E+08  0.00010  4.524E-04    0   0.5785   age135_m22            0.0000     2.8683E+02    15.2863   1.5046   134.8536
 16      0.0000     0.0000E+00    0.0000E+00    1.278050E+09  0.00010  3.018E-04    0   0.5588   age138_m22            0.0000     1.0759E+02     9.9469   1.2283   122.0177
 17      0.0000     0.0000E+00    0.0000E+00    1.434000E+09  0.00010  2.691E-04    0   0.5532   age139_m22            0.0000     8.2912E+01     8.8711   1.1222   119.2917
 18      0.0000     0.0000E+00    0.0000E+00    2.500000E+09  0.00010  1.582E-04    0   0.5296   age150_m22            0.0000     6.5470E+01     7.7667   1.0518   118.3300
 19      0.0000     0.0000E+00    0.0000E+00    4.250000E+09  0.00010  1.007E-04    0   0.5110   age158_m22            0.0000     2.8397E+01     5.3326   1.0030   112.1237
 20      0.0000     0.0000E+00    0.0000E+00    6.250000E+09  0.00010  6.869E-05    0   0.4985   age166_m22            0.0000     9.3612E+00     3.0594   1.0454   105.0698
 21      0.5990     5.4272E-01    5.4780E-01    7.500000E+09  0.00010  5.873E-05    0   0.4931   age171_m22            0.0000     7.1506E+00     2.5745   1.0538   103.6896
 22      0.4432     5.2629E-01    5.2292E-01    1.000000E+10  0.00010  4.481E-05    0   0.4854   age181_m22            0.0000     7.0076E+00     2.5760   1.0171   103.2555
 23      0.2125     3.2402E-01    3.1777E-01    1.300000E+10  0.00010  3.489E-05    0   0.4791   age193_m22            0.0000     6.7116E+00     2.5438   0.9669   102.4479
 24      0.5142     9.0157E-01    8.7955E-01    1.500000E+10  0.00010  3.035E-05    0   0.4766   age201_m22            0.0000     6.4891E+00     2.4847   0.9330   102.0621
 25     24.8532     5.2688E+01    5.1067E+01    1.800000E+10  0.00010  2.510E-05    0   0.4735   age213_m22            0.0000     6.2950E+00     2.3450   0.8793   100.8710
 26      0.0000     0.0000E+00    0.0000E+00    1.000000E+06  0.00040  8.458E-03    0   1.0000   age020_m32            0.0000     4.7575E+02    22.8756   4.0000    68.6451
 27      0.0000     0.0000E+00    0.0000E+00    3.160000E+06  0.00040  3.973E-02    0   1.0000   age045_m32            0.0000     4.3654E+01     5.7400   3.7702    84.5424
 28      0.0000     0.0000E+00    0.0000E+00    5.010000E+06  0.00040  1.935E-02    0   0.9532   age055_m32            0.0000     1.2949E+02    10.3099   4.0000    75.2255
 29      0.0000     0.0000E+00    0.0000E+00    6.610000E+06  0.00040  1.204E-02    0   0.9243   age061_m32            0.0000     2.8267E+02    17.0695   4.0000    73.5495
 30      0.0000     0.0000E+00    0.0000E+00    8.710000E+06  0.00040  9.433E-03    0   0.9001   age067_m32            0.0000     2.4035E+02    15.5897   4.0000    74.9063
 31      0.0000     0.0000E+00    0.0000E+00    1.000000E+07  0.00040  8.053E-03    0   0.8877   age070_m32            0.0000     2.1253E+02    14.4790   4.0000    75.5124
 32      0.0000     0.0000E+00    0.0000E+00    1.445000E+07  0.00040  7.027E-03    0   0.8578   age078_m32            0.0000     5.8523E+01     6.9143   3.7679    81.9344
 33      0.0000     0.0000E+00    0.0000E+00    2.512000E+07  0.00040  4.707E-03    0   0.8166   age090_m32            0.0000     2.8408E+01     4.5131   3.3902    88.6227
 34      0.4695     6.7263E-03    1.0777E-02    4.000000E+07  0.00040  3.714E-03    0   0.7827   age104_m32            0.0000     1.7228E+01     2.7687   3.0791    95.9651
 35      0.8366     1.4928E-02    2.3202E-02    5.500000E+07  0.00040  2.982E-03    0   0.7593   age110_m32            0.0000     2.1520E+01     2.8446   2.9631    99.2042
 36      0.0000     0.0000E+00    0.0000E+00    1.015200E+08  0.00040  2.188E-03    0   0.7143   age116_m32            0.0000     9.3302E+01     7.7645   2.4679   112.8567
 37      0.0000     0.0000E+00    0.0000E+00    1.609000E+08  0.00040  1.690E-03    0   0.6856   age120_m32            0.0000     1.6941E+02    10.7913   2.1190   121.6747
 38      0.0000     0.0000E+00    0.0000E+00    2.861200E+08  0.00040  1.152E-03    0   0.6509   age125_m32            0.0000     2.3089E+02    13.4346   1.7740   129.0033
 39      0.0000     0.0000E+00    0.0000E+00    5.088000E+08  0.00040  7.331E-04    0   0.6182   age130_m32            0.0000     2.6049E+02    14.5484   1.5589   132.0727
 40      0.0000     0.0000E+00    0.0000E+00    9.047900E+08  0.00040  3.960E-04    0   0.5890   age135_m32            0.0000     1.1391E+02    10.4609   1.3059   121.6895
 41      0.0000     0.0000E+00    0.0000E+00    1.278050E+09  0.00040  2.854E-04    0   0.5687   age138_m32            0.0000     8.2396E+01     8.7625   1.0775   121.1289
 42      0.0000     0.0000E+00    0.0000E+00    1.434000E+09  0.00040  2.531E-04    0   0.5632   age139_m32            0.0000     8.0002E+01     8.5760   1.0213   120.8751
 43     14.7524     5.2755E+00    5.8162E+00    2.500000E+09  0.00040  1.488E-04    0   0.5386   age150_m32            0.0000     5.2668E+01     7.0422   0.8294   116.0516
 44     14.2753     8.3639E+00    8.9010E+00    4.250000E+09  0.00040  9.082E-05    0   0.5199   age158_m32            0.0000     1.2537E+01     3.5720   0.8884   106.0156
 45      4.4469     3.7194E+00    3.8646E+00    6.250000E+09  0.00040  6.362E-05    0   0.5076   age166_m32            0.0000     9.1936E+00     2.2583   0.9643    97.9144
 46      1.3104     1.3184E+00    1.3566E+00    7.500000E+09  0.00040  5.289E-05    0   0.5027   age171_m32            0.0000     1.2108E+01     2.4651   0.9454    95.9985
 47      0.0383     5.1330E-02    5.1989E-02    1.000000E+10  0.00040  3.972E-05    0   0.4948   age181_m32            0.0000     1.5046E+01     2.7421   0.8915    94.3863
 48      0.0000     0.0000E+00    0.0000E+00    1.300000E+10  0.00040  3.283E-05    0   0.4870   age193_m32            0.0000     9.9989E+00     2.7247   0.7870    99.4651
 49      0.0000     0.0000E+00    0.0000E+00    1.500000E+10  0.00040  2.925E-05    0   0.4854   age201_m32            0.0000     1.0411E+01     3.0808   0.7303   102.5946
 50      4.1934     9.0377E+00    8.9150E+00    1.800000E+10  0.00040  2.469E-05    0   0.4819   age213_m32            0.0000     1.1782E+01     3.3451   0.6738   103.7831
 51      0.0000     0.0000E+00    0.0000E+00    1.000000E+06  0.00400  1.114E-02    0   1.0000   age020_m42            0.0000     4.1322E+02    21.0600   4.0000    69.3142
 52      0.0000     0.0000E+00    0.0000E+00    3.160000E+06  0.00400  4.073E-02    0   0.9999   age045_m42            0.0000     2.6458E+01     4.0619   3.4117    89.1834
 53      0.0000     0.0000E+00    0.0000E+00    5.010000E+06  0.00400  2.534E-02    0   0.9488   age055_m42            0.0000     7.5518E+01     7.7730   3.9521    78.5785
 54      0.6697     1.3795E-03    2.6036E-03    6.610000E+06  0.00400  2.583E-02    0   0.9220   age061_m42            0.0000     1.9443E+01     3.0764   3.1858    91.6202
 55      0.1487     4.6375E-04    8.5274E-04    8.710000E+06  0.00400  1.706E-02    0   0.8983   age067_m42            0.0000     3.5101E+01     5.2449   3.1079    86.4175
 56      0.0001     4.8416E-07    8.7827E-07    1.000000E+07  0.00400  1.271E-02    0   0.8862   age070_m42            0.0000     5.7739E+01     7.2696   3.1504    83.0334
 57      0.0000     0.0000E+00    0.0000E+00    1.445000E+07  0.00400  7.666E-03    0   0.8571   age078_m42            0.0000     9.0061E+01     8.7322   3.6090    78.1224
 58      0.0000     0.0000E+00    0.0000E+00    2.512000E+07  0.00400  5.070E-03    0   0.8174   age090_m42            0.0000     5.2224E+01     6.6824   3.0037    85.2020
 59      0.0000     0.0000E+00    0.0000E+00    4.000000E+07  0.00400  3.505E-03    0   0.7851   age104_m42            0.0000     3.4435E+01     4.4852   2.6178    90.6677
 60      0.0000     0.0000E+00    0.0000E+00    5.500000E+07  0.00400  3.059E-03    0   0.7629   age110_m42            0.0000     2.1294E+01     3.1607   2.4738   102.9289
 61      0.0000     0.0000E+00    0.0000E+00    1.015200E+08  0.00400  2.268E-03    0   0.7207   age116_m42            0.0000     1.3978E+02    10.3020   2.0664   121.2343
 62      0.0000     0.0000E+00    0.0000E+00    1.609000E+08  0.00400  1.720E-03    0   0.6930   age120_m42            0.0000     1.5949E+02    11.4743   1.8668   125.4657
 63      0.0000     0.0000E+00    0.0000E+00    2.861200E+08  0.00400  1.079E-03    0   0.6613   age125_m42            0.0000     1.5686E+02    11.6011   1.5106   126.3067
 64      0.0000     0.0000E+00    0.0000E+00    5.088000E+08  0.00400  6.261E-04    0   0.6313   age130_m42            0.0000     1.9731E+02    12.8261   1.2520   132.4656
 65      0.0000     0.0000E+00    0.0000E+00    9.047900E+08  0.00400  3.535E-04    0   0.6024   age135_m42            0.0000     1.0695E+02     9.8251   1.0030   126.1500
 66      0.0000     0.0000E+00    0.0000E+00    1.278050E+09  0.00400  2.677E-04    0   0.5837   age138_m42            0.0000     7.1947E+01     7.6704   0.4838   116.1170
 67      0.0000     0.0000E+00    0.0000E+00    1.434000E+09  0.00400  1.910E-04    0   0.5716   age139_m42            0.0000     6.5899E+01     7.9697   0.6115   118.7612
 68      0.0000     0.0000E+00    0.0000E+00    2.500000E+09  0.00400  9.818E-05    0   0.5463   age150_m42            0.0000     5.2130E+01     6.1307   0.5110   106.5801
 69      0.0000     0.0000E+00    0.0000E+00    4.250000E+09  0.00400  5.491E-05    0   0.5269   age158_m42            0.0000     6.4294E+01     5.7447   0.4562   101.0029
 70      0.0000     0.0000E+00    0.0000E+00    6.250000E+09  0.00400  3.857E-05    0   0.5151   age166_m42            0.0000     8.0289E+01     6.3247   0.3494    98.9300
 71      0.0000     0.0000E+00    0.0000E+00    7.500000E+09  0.00400  3.243E-05    0   0.5110   age171_m42            0.0000     9.2217E+01     6.7308   0.2772    98.1784
 72      0.0000     0.0000E+00    0.0000E+00    1.000000E+10  0.00400  2.424E-05    0   0.5028   age181_m42            0.0000     1.1347E+02     7.2346   0.2064    97.2626
 73      0.0000     0.0000E+00    0.0000E+00    1.300000E+10  0.00400  1.883E-05    0   0.4927   age193_m42            0.0000     1.3512E+02     7.5686   0.1742    96.6617
 74      0.0000     0.0000E+00    0.0000E+00    1.500000E+10  0.00400  1.685E-05    0   0.4919   age201_m42            0.0000     1.2951E+02     7.4460   0.1803    96.6489
 75      0.0000     0.0000E+00    0.0000E+00    1.800000E+10  0.00400  1.452E-05    0   0.4874   age213_m42            0.0000     1.2011E+02     7.2365   0.1945    96.9237
 76      0.0000     0.0000E+00    0.0000E+00    1.000000E+06  0.00800  1.286E-02    0   1.0000   age020_m52            0.0000     3.6105E+02    19.4038   4.0000    71.6629
 77      0.0000     0.0000E+00    0.0000E+00    3.160000E+06  0.00800  3.147E-02    0   0.9966   age045_m52            0.0000     2.8859E+02    17.1215   4.0000    73.3616
 78      0.0000     0.0000E+00    0.0000E+00    5.010000E+06  0.00800  2.664E-02    0   0.9443   age055_m52            0.0000     1.0286E+02     8.4831   4.0000    77.4064
 79      0.0000     0.0000E+00    0.0000E+00    6.610000E+06  0.00800  2.151E-02    0   0.9177   age061_m52            0.0000     6.0195E+01     6.6112   2.7443    84.7388
 80      0.0000     0.0000E+00    0.0000E+00    8.710000E+06  0.00800  1.628E-02    0   0.8948   age067_m52            0.0000     4.8780E+01     5.9620   3.0864    86.1962
 81      0.0000     0.0000E+00    0.0000E+00    1.000000E+07  0.00800  1.215E-02    0   0.8827   age070_m52            0.0000     6.3192E+01     6.8336   3.4523    83.4977
 82      0.0000     0.0000E+00    0.0000E+00    1.445000E+07  0.00800  8.739E-03    0   0.8552   age078_m52            0.0000     4.6690E+01     5.5267   3.4487    86.3029
 83      0.0012     1.1472E-05    1.9166E-05    2.512000E+07  0.00800  5.676E-03    0   0.8162   age090_m52            0.0000     2.7980E+01     3.2513   2.9320    95.2952
 84      0.0000     0.0000E+00    0.0000E+00    4.000000E+07  0.00800  3.939E-03    0   0.7841   age104_m52            0.0000     3.0165E+01     2.6797   2.6785   101.3898
 85      0.0000     0.0000E+00    0.0000E+00    5.500000E+07  0.00800  3.155E-03    0   0.7627   age110_m52            0.0000     4.2986E+01     4.3320   2.5670   106.3860
 86      0.0000     0.0000E+00    0.0000E+00    1.015200E+08  0.00800  2.206E-03    0   0.7226   age116_m52            0.0000     9.3035E+01     8.3764   2.2158   117.3248
 87      0.0000     0.0000E+00    0.0000E+00    1.609000E+08  0.00800  1.596E-03    0   0.6963   age120_m52            0.0000     1.1921E+02     9.9183   1.9349   122.0004
 88      0.0000     0.0000E+00    0.0000E+00    2.861200E+08  0.00800  1.002E-03    0   0.6665   age125_m52            0.0000     2.1352E+02    13.7053   1.4716   132.5529
 89      0.0000     0.0000E+00    0.0000E+00    5.088000E+08  0.00800  5.759E-04    0   0.6377   age130_m52            0.0000     2.3434E+02    14.7951   1.0770   139.3871
 90      0.0000     0.0000E+00    0.0000E+00    9.047900E+08  0.00800  2.972E-04    0   0.6086   age135_m52            0.0000     1.2308E+02    11.2278   0.7472   128.7002
 91      0.0000     0.0000E+00    0.0000E+00    1.278050E+09  0.00800  2.242E-04    0   0.5907   age138_m52            0.0000     9.4456E+01     8.6906   0.3280   118.6590
 92      0.0000     0.0000E+00    0.0000E+00    1.434000E+09  0.00800  1.645E-04    0   0.5787   age139_m52            0.0000     8.1403E+01     7.9536   0.4935   117.2424
 93      0.0000     0.0000E+00    0.0000E+00    2.500000E+09  0.00800  7.723E-05    0   0.5519   age150_m52            0.0000     9.8815E+01     7.4047   0.2615   108.7343
 94      0.0000     0.0000E+00    0.0000E+00    4.250000E+09  0.00800  4.151E-05    0   0.5320   age158_m52            0.0000     1.0101E+02     7.2164   0.2341   104.3748
 95      0.0000     0.0000E+00    0.0000E+00    6.250000E+09  0.00800  3.010E-05    0   0.5197   age166_m52            0.0000     1.3532E+02     7.9800   0.0618   102.1642
 96      0.0000     0.0000E+00    0.0000E+00    7.500000E+09  0.00800  2.467E-05    0   0.5139   age171_m52            0.0000     1.4558E+02     8.3208   0.0000   101.8892
 97      0.0000     0.0000E+00    0.0000E+00    1.000000E+10  0.00800  1.862E-05    0   0.5054   age181_m52            0.0000     1.7623E+02     9.0082  -0.1126   101.5088
