###################################################################
## OUTPUT of StarlightChains_v04.for    [Cid@UFSC - 01/Apr/2007] ##
###################################################################

## Some input info
NGC6528_a_1.cxt                          [arq_obs]
Base.BC03.S                              [arq_base]
NGC6528_a_1.msk                          [arq_masks]
StCv04.C11.config                        [arq_config]
  150                                    [N_base]
    0                                    [N_YAV_components = # of components with extra extinction!]
    0                                    [i_FitPowerLaw (1/0 = Yes/No)]
-9.99                                    [alpha_PowerLaw]
CCM                                      [red_law_option]
 1.458241                                [q_norm = A(l_norm)/A(V)]

## (Re)Sampling Parameters
 3359.00                                 [l_ini (A)]
 6428.00                                 [l_fin (A)]
    1.00                                 [dl    (A)]     (OBS: dl_cushion =    50.00 A)

## Normalization info
 4020.00                                 [l_norm (A) - for base]
 4010.00                                 [llow_norm (A) - window for f_obs]
 4060.00                                 [lupp_norm (A) - window for f_obs]
3.287291E-15                             [fobs_norm (in input units)]

## S/N
 4730.00                                 [llow_SN (A) - window for S/N]
 4780.00                                 [lupp_SN (A) - window for S/N]
  27.037                                 [S/N in S/N window]
  13.551                                 [S/N in norm. window]
 247.699                                 [S/N_err in S/N window]
 124.147                                 [S/N_err in norm. window]
  1.0000                                 [fscale_chi2]

## etc...
  2147483606                             [idum_orig]
  3069                                   [NOl_eff]
   693                                   [Nl_eff]
  2376    NSIGMA                         [Ntot_cliped & clip_method]
  1459500                                [Nglobal_steps]
   7                                     [N_chains]
  21                                     [NEX0s_base = N_base in EX0s-fits]
 0   0   1      104   2.0   2.944E+02    [Clip-Bug, RC-Crash & Burn-In warning-flags, n_censored_weights, wei_nsig_threshold & wei_limit]
    58     57.704     57.700      0.004  [idt_all, wdt_TotTime, wdt_UsrTime & wdt_SysTime (sec)]

## Synthesis Results - Best model ##

 2.80246E+00                             [chi2/Nl_eff]
     2.38260                             [adev (%)]

   104.48507                             [sum-of-x (%)]
 2.06808E-14                             [Flux_tot (units of input spectrum!)]
 1.64182E-09                             [Mini_tot (???)]
 8.28282E-10                             [Mcor_tot (???)]

  -6.42                                  [v0_min  (km/s)]
 112.43                                  [vd_min  (km/s)]
 1.3367                                  [AV_min  (mag)]
 0.0000                                  [YAV_min (mag)]

# j     x_j(%)      Mini_j(%)     Mcor_j(%)     age_j(yr)     Z_j      (L/M)_j    YAV?  Mstars   component_j        a/Fe...       SSP_chi2r SSP_adev(%)   SSP_AV   SSP_x(%)
  1      2.4327     3.5941E-03    7.1242E-03    1.000000E+06  0.00010  8.160E-03    0   1.0000   age020_m22            0.0000     4.4964E+03    54.3116   4.0000    97.5667
  2      0.0000     0.0000E+00    0.0000E+00    3.160000E+06  0.00010  4.759E-02    0   1.0000   age045_m22            0.0000     5.1597E+02    15.0796   4.0000   101.0657
  3      5.5139     3.4406E-03    6.5349E-03    5.010000E+06  0.00010  1.932E-02    0   0.9582   age055_m22            0.0000     9.5953E+02    25.8465   4.0000    95.0918
  4      0.0000     0.0000E+00    0.0000E+00    6.610000E+06  0.00010  9.973E-03    0   0.9297   age061_m22            0.0000     4.5220E+03    53.3720   4.0000   100.8552
  5      0.0000     0.0000E+00    0.0000E+00    8.710000E+06  0.00010  7.690E-03    0   0.9030   age067_m22            0.0000     4.4443E+03    52.9015   4.0000   101.3469
  6      0.0000     0.0000E+00    0.0000E+00    1.000000E+07  0.00010  6.375E-03    0   0.8902   age070_m22            0.0000     4.4353E+03    52.6970   4.0000   101.5282
  7      0.0000     0.0000E+00    0.0000E+00    1.445000E+07  0.00010  4.874E-03    0   0.8589   age078_m22            0.0000     3.7038E+03    48.6126   4.0000   104.5837
  8      0.0000     0.0000E+00    0.0000E+00    2.512000E+07  0.00010  4.103E-03    0   0.8174   age090_m22            0.0000     2.4177E+03    38.8442   4.0000   109.7908
  9      0.0000     0.0000E+00    0.0000E+00    4.000000E+07  0.00010  3.654E-03    0   0.7830   age104_m22            0.0000     1.7738E+03    30.5734   4.0000   112.0106
 10      0.0000     0.0000E+00    0.0000E+00    5.500000E+07  0.00010  3.093E-03    0   0.7597   age110_m22            0.0000     1.5632E+03    27.5446   4.0000   112.5003
 11      0.0000     0.0000E+00    0.0000E+00    1.015200E+08  0.00010  2.431E-03    0   0.7138   age116_m22            0.0000     1.1591E+03    21.4777   4.0000   111.3036
 12      0.0000     0.0000E+00    0.0000E+00    1.609000E+08  0.00010  1.319E-03    0   0.6775   age120_m22            0.0000     7.6720E+02    17.2010   4.0000   106.7978
 13      0.0000     0.0000E+00    0.0000E+00    2.861200E+08  0.00010  1.075E-03    0   0.6412   age125_m22            0.0000     9.9908E+02    20.1254   4.0000   110.2808
 14      0.0000     0.0000E+00    0.0000E+00    5.088000E+08  0.00010  7.183E-04    0   0.6083   age130_m22            0.0000     9.9270E+02    20.9744   4.0000   107.7256
 15      0.0000     0.0000E+00    0.0000E+00    9.047900E+08  0.00010  4.524E-04    0   0.5785   age135_m22            0.0000     9.7566E+02    21.1688   3.8728   107.5640
 16      0.0000     0.0000E+00    0.0000E+00    1.278050E+09  0.00010  3.018E-04    0   0.5588   age138_m22            0.0000     6.6984E+02    17.7883   3.3687   105.9079
 17      0.0000     0.0000E+00    0.0000E+00    1.434000E+09  0.00010  2.691E-04    0   0.5532   age139_m22            0.0000     6.0763E+02    17.0402   3.2136   105.4261
 18      0.7520     5.7307E-02    6.0159E-02    2.500000E+09  0.00010  1.582E-04    0   0.5296   age150_m22            0.0000     5.9526E+02    17.1285   3.1273   106.0943
 19      0.0000     0.0000E+00    0.0000E+00    4.250000E+09  0.00010  1.007E-04    0   0.5110   age158_m22            0.0000     4.9086E+02    15.3979   2.9741   104.7601
 20      0.0000     0.0000E+00    0.0000E+00    6.250000E+09  0.00010  6.869E-05    0   0.4985   age166_m22            0.0000     4.1282E+02    13.9199   2.9151   102.3921
 21      0.0000     0.0000E+00    0.0000E+00    7.500000E+09  0.00010  5.873E-05    0   0.4931   age171_m22            0.0000     4.1261E+02    13.9930   2.9165   101.8367
 22      0.0000     0.0000E+00    0.0000E+00    1.000000E+10  0.00010  4.481E-05    0   0.4854   age181_m22            0.0000     4.0441E+02    13.8426   2.8744   101.5051
 23      0.0000     0.0000E+00    0.0000E+00    1.300000E+10  0.00010  3.489E-05    0   0.4791   age193_m22            0.0000     3.8633E+02    13.4749   2.8092   101.0443
 24      0.0000     0.0000E+00    0.0000E+00    1.500000E+10  0.00010  3.035E-05    0   0.4766   age201_m22            0.0000     3.7666E+02    13.2943   2.7680   100.8895
 25      0.6182     2.9693E-01    2.7869E-01    1.800000E+10  0.00010  2.510E-05    0   0.4735   age213_m22            0.0000     3.5679E+02    12.8976   2.6954   100.3700
 26      1.3785     1.9648E-03    3.8947E-03    1.000000E+06  0.00040  8.458E-03    0   1.0000   age020_m32            0.0000     4.5599E+03    54.2572   4.0000    98.3589
 27      0.0000     0.0000E+00    0.0000E+00    3.160000E+06  0.00040  3.973E-02    0   1.0000   age045_m32            0.0000     2.2410E+03    37.5036   4.0000   109.2844
 28      0.0000     0.0000E+00    0.0000E+00    5.010000E+06  0.00040  1.935E-02    0   0.9532   age055_m32            0.0000     3.1493E+03    45.1162   4.0000   104.2224
 29      0.0000     0.0000E+00    0.0000E+00    6.610000E+06  0.00040  1.204E-02    0   0.9243   age061_m32            0.0000     3.9814E+03    50.4825   4.0000   103.0042
 30      0.0000     0.0000E+00    0.0000E+00    8.710000E+06  0.00040  9.433E-03    0   0.9001   age067_m32            0.0000     3.8251E+03    49.4916   4.0000   103.9693
 31      0.0000     0.0000E+00    0.0000E+00    1.000000E+07  0.00040  8.053E-03    0   0.8877   age070_m32            0.0000     3.6951E+03    48.7216   4.0000   104.4184
 32      0.0000     0.0000E+00    0.0000E+00    1.445000E+07  0.00040  7.027E-03    0   0.8578   age078_m32            0.0000     2.2901E+03    37.9744   4.0000   107.5736
 33      0.0000     0.0000E+00    0.0000E+00    2.512000E+07  0.00040  4.707E-03    0   0.8166   age090_m32            0.0000     1.6139E+03    30.4398   4.0000   109.0495
 34      0.0000     0.0000E+00    0.0000E+00    4.000000E+07  0.00040  3.714E-03    0   0.7827   age104_m32            0.0000     1.2718E+03    24.6246   4.0000   109.9044
 35      0.0000     0.0000E+00    0.0000E+00    5.500000E+07  0.00040  2.982E-03    0   0.7593   age110_m32            0.0000     1.1850E+03    22.8370   4.0000   110.1835
 36      0.0000     0.0000E+00    0.0000E+00    1.015200E+08  0.00040  2.188E-03    0   0.7143   age116_m32            0.0000     9.7457E+02    19.3036   4.0000   110.2249
 37      0.0000     0.0000E+00    0.0000E+00    1.609000E+08  0.00040  1.690E-03    0   0.6856   age120_m32            0.0000     9.4409E+02    19.7349   4.0000   109.4515
 38      0.0000     0.0000E+00    0.0000E+00    2.861200E+08  0.00040  1.152E-03    0   0.6509   age125_m32            0.0000     9.3156E+02    20.4251   4.0000   107.1208
 39      0.0000     0.0000E+00    0.0000E+00    5.088000E+08  0.00040  7.331E-04    0   0.6182   age130_m32            0.0000     9.3568E+02    20.6946   3.8972   106.4644
 40      0.0000     0.0000E+00    0.0000E+00    9.047900E+08  0.00040  3.960E-04    0   0.5890   age135_m32            0.0000     6.6583E+02    17.4276   3.4153   105.6869
 41      0.0000     0.0000E+00    0.0000E+00    1.278050E+09  0.00040  2.854E-04    0   0.5687   age138_m32            0.0000     6.2092E+02    17.3346   3.1716   107.2388
 42      0.0000     0.0000E+00    0.0000E+00    1.434000E+09  0.00040  2.531E-04    0   0.5632   age139_m32            0.0000     6.1037E+02    17.3076   3.1190   107.1076
 43      0.0000     0.0000E+00    0.0000E+00    2.500000E+09  0.00040  1.488E-04    0   0.5386   age150_m32            0.0000     5.0929E+02    15.9318   2.8558   105.5254
 44      0.0000     0.0000E+00    0.0000E+00    4.250000E+09  0.00040  9.082E-05    0   0.5199   age158_m32            0.0000     3.7226E+02    13.2540   2.7525   102.7479
 45      0.6343     1.2020E-01    1.2094E-01    6.250000E+09  0.00040  6.362E-05    0   0.5076   age166_m32            0.0000     3.1456E+02    11.8266   2.7214    99.8226
 46      2.1925     4.9976E-01    4.9799E-01    7.500000E+09  0.00040  5.289E-05    0   0.5027   age171_m32            0.0000     2.9627E+02    11.4042   2.6748    98.7256
 47      6.4913     1.9702E+00    1.9323E+00    1.000000E+10  0.00040  3.972E-05    0   0.4948   age181_m32            0.0000     2.7606E+02    10.9625   2.5949    97.5186
 48      0.0000     0.0000E+00    0.0000E+00    1.300000E+10  0.00040  3.283E-05    0   0.4870   age193_m32            0.0000     2.9407E+02    11.4483   2.5492    99.9669
 49      0.0000     0.0000E+00    0.0000E+00    1.500000E+10  0.00040  2.925E-05    0   0.4854   age201_m32            0.0000     3.1215E+02    11.9188   2.5314   101.3842
 50      0.0000     0.0000E+00    0.0000E+00    1.800000E+10  0.00040  2.469E-05    0   0.4819   age213_m32            0.0000     3.1424E+02    12.0211   2.4894   101.8399
 51      0.5502     5.9544E-04    1.1803E-03    1.000000E+06  0.00400  1.114E-02    0   1.0000   age020_m42            0.0000     4.2881E+03    52.9623   4.0000    98.9185
 52      0.0000     0.0000E+00    0.0000E+00    3.160000E+06  0.00400  4.073E-02    0   0.9999   age045_m42            0.0000     1.5089E+03    29.7628   4.0000   109.4634
 53      0.0000     0.0000E+00    0.0000E+00    5.010000E+06  0.00400  2.534E-02    0   0.9488   age055_m42            0.0000     2.5431E+03    40.8692   4.0000   106.0356
 54      0.0000     0.0000E+00    0.0000E+00    6.610000E+06  0.00400  2.583E-02    0   0.9220   age061_m42            0.0000     1.2660E+03    25.8626   4.0000   108.0522
 55      0.0000     0.0000E+00    0.0000E+00    8.710000E+06  0.00400  1.706E-02    0   0.8983   age067_m42            0.0000     1.1370E+03    24.9130   4.0000   104.7608
 56      0.0000     0.0000E+00    0.0000E+00    1.000000E+07  0.00400  1.271E-02    0   0.8862   age070_m42            0.0000     1.2172E+03    26.4696   4.0000   103.5471
 57      0.0000     0.0000E+00    0.0000E+00    1.445000E+07  0.00400  7.666E-03    0   0.8571   age078_m42            0.0000     1.8857E+03    34.8916   4.0000   104.0904
 58      0.0000     0.0000E+00    0.0000E+00    2.512000E+07  0.00400  5.070E-03    0   0.8174   age090_m42            0.0000     9.7819E+02    23.7530   4.0000   103.7156
 59      0.0000     0.0000E+00    0.0000E+00    4.000000E+07  0.00400  3.505E-03    0   0.7851   age104_m42            0.0000     5.8097E+02    18.2826   4.0000   101.9152
 60      0.0000     0.0000E+00    0.0000E+00    5.500000E+07  0.00400  3.059E-03    0   0.7629   age110_m42            0.0000     6.5002E+02    16.0753   4.0000   105.9103
 61      0.0000     0.0000E+00    0.0000E+00    1.015200E+08  0.00400  2.268E-03    0   0.7207   age116_m42            0.0000     8.1001E+02    18.4498   4.0000   108.4424
 62      0.0000     0.0000E+00    0.0000E+00    1.609000E+08  0.00400  1.720E-03    0   0.6930   age120_m42            0.0000     7.8146E+02    18.7029   4.0000   107.4287
 63      0.0000     0.0000E+00    0.0000E+00    2.861200E+08  0.00400  1.079E-03    0   0.6613   age125_m42            0.0000     7.4305E+02    18.5812   3.7310   106.4784
 64      0.0000     0.0000E+00    0.0000E+00    5.088000E+08  0.00400  6.261E-04    0   0.6313   age130_m42            0.0000     7.8378E+02    19.4145   3.5418   109.3215
 65      0.0000     0.0000E+00    0.0000E+00    9.047900E+08  0.00400  3.535E-04    0   0.6024   age135_m42            0.0000     5.6182E+02    16.4084   3.1237   110.0052
 66      0.0000     0.0000E+00    0.0000E+00    1.278050E+09  0.00400  2.677E-04    0   0.5837   age138_m42            0.0000     2.2288E+02    10.4473   2.3386   108.2212
 67      0.0000     0.0000E+00    0.0000E+00    1.434000E+09  0.00400  1.910E-04    0   0.5716   age139_m42            0.0000     3.0205E+02    11.7910   2.5218   108.9745
 68      0.0000     0.0000E+00    0.0000E+00    2.500000E+09  0.00400  9.818E-05    0   0.5463   age150_m42            0.0000     1.3237E+02     7.1600   2.1989   104.9566
 69      0.0000     0.0000E+00    0.0000E+00    4.250000E+09  0.00400  5.491E-05    0   0.5269   age158_m42            0.0000     8.3120E+01     5.6625   2.0732   102.3358
 70      0.0000     0.0000E+00    0.0000E+00    6.250000E+09  0.00400  3.857E-05    0   0.5151   age166_m42            0.0000     5.6003E+01     4.7023   1.9157   101.2125
 71      0.0000     0.0000E+00    0.0000E+00    7.500000E+09  0.00400  3.243E-05    0   0.5110   age171_m42            0.0000     4.3898E+01     4.2664   1.8197   100.7454
 72      0.0393     1.9564E-02    1.9498E-02    1.000000E+10  0.00400  2.424E-05    0   0.5028   age181_m42            0.0000     3.2016E+01     3.8521   1.7206   100.2470
 73      0.0000     0.0000E+00    0.0000E+00    1.300000E+10  0.00400  1.883E-05    0   0.4927   age193_m42            0.0000     2.6140E+01     3.7065   1.6718   100.0290
 74      0.0058     4.1445E-03    4.0411E-03    1.500000E+10  0.00400  1.685E-05    0   0.4919   age201_m42            0.0000     2.7247E+01     3.6933   1.6831    99.9893
 75      0.0000     0.0000E+00    0.0000E+00    1.800000E+10  0.00400  1.452E-05    0   0.4874   age213_m42            0.0000     2.9756E+01     3.7380   1.7102   100.1536
 76      0.0000     0.0000E+00    0.0000E+00    1.000000E+06  0.00800  1.286E-02    0   1.0000   age020_m52            0.0000     4.1178E+03    51.9167   4.0000   101.1654
 77      0.0000     0.0000E+00    0.0000E+00    3.160000E+06  0.00800  3.147E-02    0   0.9966   age045_m52            0.0000     3.9007E+03    50.5531   4.0000   102.8127
 78      0.0000     0.0000E+00    0.0000E+00    5.010000E+06  0.00800  2.664E-02    0   0.9443   age055_m52            0.0000     2.8525E+03    43.8304   4.0000   105.7398
 79      0.0000     0.0000E+00    0.0000E+00    6.610000E+06  0.00800  2.151E-02    0   0.9177   age061_m52            0.0000     6.0571E+02    19.9600   4.0000   100.2123
 80      0.0000     0.0000E+00    0.0000E+00    8.710000E+06  0.00800  1.628E-02    0   0.8948   age067_m52            0.0000     1.0725E+03    24.9299   4.0000   105.1577
 81      0.0000     0.0000E+00    0.0000E+00    1.000000E+07  0.00800  1.215E-02    0   0.8827   age070_m52            0.0000     1.6374E+03    32.2913   4.0000   106.8248
 82      0.0000     0.0000E+00    0.0000E+00    1.445000E+07  0.00800  8.739E-03    0   0.8552   age078_m52            0.0000     1.6716E+03    32.1477   4.0000   108.3673
 83      0.0000     0.0000E+00    0.0000E+00    2.512000E+07  0.00800  5.676E-03    0   0.8162   age090_m52            0.0000     1.1034E+03    22.9479   4.0000   108.6106
 84      0.0000     0.0000E+00    0.0000E+00    4.000000E+07  0.00800  3.939E-03    0   0.7841   age104_m52            0.0000     8.9851E+02    18.9946   4.0000   108.5778
 85      0.0000     0.0000E+00    0.0000E+00    5.500000E+07  0.00800  3.155E-03    0   0.7627   age110_m52            0.0000     8.6907E+02    17.8038   4.0000   109.4155
 86      0.0000     0.0000E+00    0.0000E+00    1.015200E+08  0.00800  2.206E-03    0   0.7226   age116_m52            0.0000     7.8571E+02    17.3060   4.0000   109.5458
 87      0.0000     0.0000E+00    0.0000E+00    1.609000E+08  0.00800  1.596E-03    0   0.6963   age120_m52            0.0000     7.4839E+02    18.1996   4.0000   107.3395
 88      0.0000     0.0000E+00    0.0000E+00    2.861200E+08  0.00800  1.002E-03    0   0.6665   age125_m52            0.0000     7.9954E+02    19.1814   3.7369   108.7884
 89      0.0000     0.0000E+00    0.0000E+00    5.088000E+08  0.00800  5.759E-04    0   0.6377   age130_m52            0.0000     7.4371E+02    18.1489   3.3244   113.4272
 90      0.0000     0.0000E+00    0.0000E+00    9.047900E+08  0.00800  2.972E-04    0   0.6086   age135_m52            0.0000     4.2577E+02    13.0838   2.7110   113.3060
 91      0.0000     0.0000E+00    0.0000E+00    1.278050E+09  0.00800  2.242E-04    0   0.5907   age138_m52            0.0000     1.6351E+02     8.4411   2.0938   111.7484
 92      0.0000     0.0000E+00    0.0000E+00    1.434000E+09  0.00800  1.645E-04    0   0.5787   age139_m52            0.0000     1.7441E+02     8.5506   2.2587   111.1208
 93      0.0000     0.0000E+00    0.0000E+00    2.500000E+09  0.00800  7.723E-05    0   0.5519   age150_m52            0.0000     7.0556E+01     5.5932   1.8818   107.7832
 94      0.0000     0.0000E+00    0.0000E+00    4.250000E+09  0.00800  4.151E-05    0   0.5320   age158_m52            0.0000     5.0562E+01     4.7546   1.8065   105.3495
 95      0.0000     0.0000E+00    0.0000E+00    6.250000E+09  0.00800  3.010E-05    0   0.5197   age166_m52            0.0000     2.4327E+01     3.9229   1.5744   104.2271
 96      0.0000     0.0000E+00    0.0000E+00    7.500000E+09  0.00800  2.467E-05    0   0.5139   age171_m52            0.0000     2.0409E+01     3.8235   1.5210   103.9121
 97      2.4774     1.6040E+00    1.6069E+00    1.000000E+10  0.00800  1.862E-05    0   0.5054   age181_m52            0.0000     1.4197E+01     3.8768   1.3547   103.7654
