###################################################################
## OUTPUT of StarlightChains_v04.for    [Cid@UFSC - 01/Apr/2007] ##
###################################################################

## Some input info
NGC6544_a_1.cxt                          [arq_obs]
Base.BC03.S                              [arq_base]
NGC6544_a_1.msk                          [arq_masks]
StCv04.C11.config                        [arq_config]
  150                                    [N_base]
    0                                    [N_YAV_components = # of components with extra extinction!]
    0                                    [i_FitPowerLaw (1/0 = Yes/No)]
-9.99                                    [alpha_PowerLaw]
CCM                                      [red_law_option]
 1.458241                                [q_norm = A(l_norm)/A(V)]

## (Re)Sampling Parameters
 3359.00                                 [l_ini (A)]
 6428.00                                 [l_fin (A)]
    1.00                                 [dl    (A)]     (OBS: dl_cushion =    50.00 A)

## Normalization info
 4020.00                                 [l_norm (A) - for base]
 4010.00                                 [llow_norm (A) - window for f_obs]
 4060.00                                 [lupp_norm (A) - window for f_obs]
2.994762E-15                             [fobs_norm (in input units)]

## S/N
 4730.00                                 [llow_SN (A) - window for S/N]
 4780.00                                 [lupp_SN (A) - window for S/N]
  55.157                                 [S/N in S/N window]
  29.824                                 [S/N in norm. window]
 209.596                                 [S/N_err in S/N window]
 113.332                                 [S/N_err in norm. window]
  1.0000                                 [fscale_chi2]

## etc...
  2147483600                             [idum_orig]
  3067                                   [NOl_eff]
  1258                                   [Nl_eff]
  1809    NSIGMA                         [Ntot_cliped & clip_method]
  2756320                                [Nglobal_steps]
   7                                     [N_chains]
  43                                     [NEX0s_base = N_base in EX0s-fits]
 0   0   1       75   2.0   2.769E+02    [Clip-Bug, RC-Crash & Burn-In warning-flags, n_censored_weights, wei_nsig_threshold & wei_limit]
   127    127.213    127.193      0.020  [idt_all, wdt_TotTime, wdt_UsrTime & wdt_SysTime (sec)]

## Synthesis Results - Best model ##

 3.14809E+00                             [chi2/Nl_eff]
     2.47693                             [adev (%)]

    97.43520                             [sum-of-x (%)]
 1.98156E-13                             [Flux_tot (units of input spectrum!)]
 7.12681E-09                             [Mini_tot (???)]
 3.51859E-09                             [Mcor_tot (???)]

 -19.86                                  [v0_min  (km/s)]
  33.86                                  [vd_min  (km/s)]
 3.1406                                  [AV_min  (mag)]
 0.0000                                  [YAV_min (mag)]

# j     x_j(%)      Mini_j(%)     Mcor_j(%)     age_j(yr)     Z_j      (L/M)_j    YAV?  Mstars   component_j        a/Fe...       SSP_chi2r SSP_adev(%)   SSP_AV   SSP_x(%)
  1      0.1307     4.5699E-04    9.2561E-04    1.000000E+06  0.00010  8.160E-03    0   1.0000   age020_m22            0.0000     2.7780E+03    40.8943   4.0000   110.0623
  2      0.3389     2.0320E-04    4.1157E-04    3.160000E+06  0.00010  4.759E-02    0   1.0000   age045_m22            0.0000     8.4961E+01     7.0816   4.0000   102.0620
  3      5.6911     8.4058E-03    1.6314E-02    5.010000E+06  0.00010  1.932E-02    0   0.9582   age055_m22            0.0000     1.1078E+02     8.8804   4.0000    97.2870
  4      3.0175     8.6341E-03    1.6259E-02    6.610000E+06  0.00010  9.973E-03    0   0.9297   age061_m22            0.0000     2.7903E+03    40.4002   4.0000   112.9606
  5      4.1648     1.5455E-02    2.8267E-02    8.710000E+06  0.00010  7.690E-03    0   0.9030   age067_m22            0.0000     2.7458E+03    40.1520   4.0000   113.4017
  6      3.1127     1.3933E-02    2.5122E-02    1.000000E+07  0.00010  6.375E-03    0   0.8902   age070_m22            0.0000     2.7509E+03    40.1958   4.0000   113.5834
  7      1.5339     8.9809E-03    1.5624E-02    1.445000E+07  0.00010  4.874E-03    0   0.8589   age078_m22            0.0000     2.2422E+03    36.9423   4.0000   115.9570
  8      0.4964     3.4524E-03    5.7158E-03    2.512000E+07  0.00010  4.103E-03    0   0.8174   age090_m22            0.0000     1.3708E+03    29.3936   4.0000   119.2423
  9      1.3755     1.0742E-02    1.7037E-02    4.000000E+07  0.00010  3.654E-03    0   0.7830   age104_m22            0.0000     9.6561E+02    23.5415   4.0000   120.0223
 10      0.9538     8.7999E-03    1.3541E-02    5.500000E+07  0.00010  3.093E-03    0   0.7597   age110_m22            0.0000     8.5608E+02    21.6100   4.0000   119.7892
 11      0.0000     0.0000E+00    0.0000E+00    1.015200E+08  0.00010  2.431E-03    0   0.7138   age116_m22            0.0000     5.6092E+02    18.1587   4.0000   116.5834
 12      0.0000     0.0000E+00    0.0000E+00    1.609000E+08  0.00010  1.319E-03    0   0.6775   age120_m22            0.0000     2.8283E+02    13.2873   4.0000   108.9305
 13      0.0000     0.0000E+00    0.0000E+00    2.861200E+08  0.00010  1.075E-03    0   0.6412   age125_m22            0.0000     5.3349E+02    18.0510   4.0000   112.5257
 14      0.0000     0.0000E+00    0.0000E+00    5.088000E+08  0.00010  7.183E-04    0   0.6083   age130_m22            0.0000     5.4306E+02    17.0439   4.0000   108.5340
 15      0.0000     0.0000E+00    0.0000E+00    9.047900E+08  0.00010  4.524E-04    0   0.5785   age135_m22            0.0000     5.3837E+02    15.7960   3.9667   105.7105
 16      0.0000     0.0000E+00    0.0000E+00    1.278050E+09  0.00010  3.018E-04    0   0.5588   age138_m22            0.0000     3.5276E+02    13.3315   3.4176   105.2029
 17      0.0000     0.0000E+00    0.0000E+00    1.434000E+09  0.00010  2.691E-04    0   0.5532   age139_m22            0.0000     3.1866E+02    12.8613   3.2536   104.9743
 18      0.0000     0.0000E+00    0.0000E+00    2.500000E+09  0.00010  1.582E-04    0   0.5296   age150_m22            0.0000     2.8777E+02    12.1505   3.1420   106.0527
 19      0.0026     7.4121E-04    7.6717E-04    4.250000E+09  0.00010  1.007E-04    0   0.5110   age158_m22            0.0000     2.1212E+02    10.8957   2.9622   105.4191
 20      0.0000     0.0000E+00    0.0000E+00    6.250000E+09  0.00010  6.869E-05    0   0.4985   age166_m22            0.0000     1.4655E+02     9.6029   2.8713   103.8017
 21      0.0642     3.1183E-02    3.1144E-02    7.500000E+09  0.00010  5.873E-05    0   0.4931   age171_m22            0.0000     1.3390E+02     9.2079   2.8566   103.4837
 22      0.0000     0.0000E+00    0.0000E+00    1.000000E+10  0.00010  4.481E-05    0   0.4854   age181_m22            0.0000     1.3303E+02     9.2291   2.8174   103.0957
 23      0.0003     2.8349E-04    2.7510E-04    1.300000E+10  0.00010  3.489E-05    0   0.4791   age193_m22            0.0000     1.2954E+02     9.2123   2.7575   102.5786
 24      4.0776     3.8339E+00    3.7011E+00    1.500000E+10  0.00010  3.035E-05    0   0.4766   age201_m22            0.0000     1.2612E+02     9.1422   2.7169   102.4510
 25     11.2034     1.2737E+01    1.2216E+01    1.800000E+10  0.00010  2.510E-05    0   0.4735   age213_m22            0.0000     1.1701E+02     8.9408   2.6438   102.0036
 26      0.6869     2.3175E-03    4.6941E-03    1.000000E+06  0.00040  8.458E-03    0   1.0000   age020_m32            0.0000     2.8335E+03    41.0744   4.0000   110.7852
 27      0.4409     3.1670E-04    6.4148E-04    3.160000E+06  0.00040  3.973E-02    0   1.0000   age045_m32            0.0000     1.1892E+03    27.5547   4.0000   118.3028
 28      2.5934     3.8246E-03    7.3842E-03    5.010000E+06  0.00040  1.935E-02    0   0.9532   age055_m32            0.0000     1.7162E+03    32.6196   4.0000   114.5005
 29      4.1226     9.7710E-03    1.8293E-02    6.610000E+06  0.00040  1.204E-02    0   0.9243   age061_m32            0.0000     2.3981E+03    37.9530   4.0000   114.6154
 30      2.0218     6.1163E-03    1.1151E-02    8.710000E+06  0.00040  9.433E-03    0   0.9001   age067_m32            0.0000     2.3012E+03    37.3255   4.0000   115.4492
 31      2.5621     9.0788E-03    1.6324E-02    1.000000E+07  0.00040  8.053E-03    0   0.8877   age070_m32            0.0000     2.2094E+03    36.6844   4.0000   115.7438
 32      0.4470     1.8154E-03    3.1542E-03    1.445000E+07  0.00040  7.027E-03    0   0.8578   age078_m32            0.0000     1.1605E+03    27.2400   4.0000   116.4914
 33      0.0000     0.0000E+00    0.0000E+00    2.512000E+07  0.00040  4.707E-03    0   0.8166   age090_m32            0.0000     7.3432E+02    21.4923   4.0000   116.2469
 34      0.6354     4.8817E-03    7.7392E-03    4.000000E+07  0.00040  3.714E-03    0   0.7827   age104_m32            0.0000     5.4908E+02    17.5635   4.0000   115.9210
 35      0.0000     0.0000E+00    0.0000E+00    5.500000E+07  0.00040  2.982E-03    0   0.7593   age110_m32            0.0000     5.1961E+02    17.0669   4.0000   115.7701
 36      0.0000     0.0000E+00    0.0000E+00    1.015200E+08  0.00040  2.188E-03    0   0.7143   age116_m32            0.0000     4.6169E+02    17.0919   4.0000   114.0059
 37      0.0000     0.0000E+00    0.0000E+00    1.609000E+08  0.00040  1.690E-03    0   0.6856   age120_m32            0.0000     4.6005E+02    16.5826   4.0000   111.8265
 38      0.0000     0.0000E+00    0.0000E+00    2.861200E+08  0.00040  1.152E-03    0   0.6509   age125_m32            0.0000     4.8484E+02    16.0031   4.0000   107.8504
 39      0.0000     0.0000E+00    0.0000E+00    5.088000E+08  0.00040  7.331E-04    0   0.6182   age130_m32            0.0000     5.1048E+02    15.3970   3.9799   104.9283
 40      0.0000     0.0000E+00    0.0000E+00    9.047900E+08  0.00040  3.960E-04    0   0.5890   age135_m32            0.0000     3.6587E+02    13.9496   3.4870   104.6855
 41      0.0000     0.0000E+00    0.0000E+00    1.278050E+09  0.00040  2.854E-04    0   0.5687   age138_m32            0.0000     3.1539E+02    12.7578   3.2089   106.7941
 42      0.0000     0.0000E+00    0.0000E+00    1.434000E+09  0.00040  2.531E-04    0   0.5632   age139_m32            0.0000     3.1000E+02    12.6136   3.1504   106.7342
 43      0.1925     3.6909E-02    4.0265E-02    2.500000E+09  0.00040  1.488E-04    0   0.5386   age150_m32            0.0000     2.5887E+02    11.9348   2.8699   105.5984
 44      0.0000     0.0000E+00    0.0000E+00    4.250000E+09  0.00040  9.082E-05    0   0.5199   age158_m32            0.0000     1.5661E+02    10.0518   2.7302   103.8454
 45     11.4202     5.1224E+00    5.2665E+00    6.250000E+09  0.00040  6.362E-05    0   0.5076   age166_m32            0.0000     8.9243E+01     8.2659   2.6548   101.8646
 46      8.1282     4.3855E+00    4.4653E+00    7.500000E+09  0.00040  5.289E-05    0   0.5027   age171_m32            0.0000     8.2161E+01     8.1510   2.6077   100.8195
 47      2.4039     1.7270E+00    1.7308E+00    1.000000E+10  0.00040  3.972E-05    0   0.4948   age181_m32            0.0000     8.2429E+01     8.2970   2.5374    99.5206
 48      0.4410     3.8330E-01    3.7809E-01    1.300000E+10  0.00040  3.283E-05    0   0.4870   age193_m32            0.0000     1.1104E+02     9.1201   2.5173   101.4773
 49      1.9747     1.9266E+00    1.8941E+00    1.500000E+10  0.00040  2.925E-05    0   0.4854   age201_m32            0.0000     1.3121E+02     9.6048   2.5136   102.5967
 50      4.1963     4.8500E+00    4.7340E+00    1.800000E+10  0.00040  2.469E-05    0   0.4819   age213_m32            0.0000     1.4084E+02     9.8366   2.4789   102.9128
 51      0.0000     0.0000E+00    0.0000E+00    1.000000E+06  0.00400  1.114E-02    0   1.0000   age020_m42            0.0000     2.6394E+03    39.9126   4.0000   111.0634
 52      0.1815     1.2718E-04    2.5757E-04    3.160000E+06  0.00400  4.073E-02    0   0.9999   age045_m42            0.0000     7.2190E+02    21.4494   4.0000   116.6340
 53      0.0001     7.5515E-08    1.4512E-07    5.010000E+06  0.00400  2.534E-02    0   0.9488   age055_m42            0.0000     1.3715E+03    29.7905   4.0000   115.7331
 54      0.0000     0.0000E+00    0.0000E+00    6.610000E+06  0.00400  2.583E-02    0   0.9220   age061_m42            0.0000     5.4167E+02    18.1797   4.0000   114.4790
 55      0.0000     0.0000E+00    0.0000E+00    8.710000E+06  0.00400  1.706E-02    0   0.8983   age067_m42            0.0000     3.5465E+02    15.2396   4.0000   110.3301
 56      0.0000     0.0000E+00    0.0000E+00    1.000000E+07  0.00400  1.271E-02    0   0.8862   age070_m42            0.0000     3.4912E+02    15.2291   4.0000   109.1421
 57      0.0000     0.0000E+00    0.0000E+00    1.445000E+07  0.00400  7.666E-03    0   0.8571   age078_m42            0.0000     8.0514E+02    23.1618   4.0000   112.0659
 58      0.0000     0.0000E+00    0.0000E+00    2.512000E+07  0.00400  5.070E-03    0   0.8174   age090_m42            0.0000     2.3419E+02    12.5504   4.0000   108.3743
 59      0.0000     0.0000E+00    0.0000E+00    4.000000E+07  0.00400  3.505E-03    0   0.7851   age104_m42            0.0000     8.0205E+01     7.5329   4.0000   104.4478
 60      0.0003     3.0259E-06    4.6758E-06    5.500000E+07  0.00400  3.059E-03    0   0.7629   age110_m42            0.0000     2.1083E+02    11.8362   4.0000   108.8024
 61      0.0000     0.0000E+00    0.0000E+00    1.015200E+08  0.00400  2.268E-03    0   0.7207   age116_m42            0.0000     3.9552E+02    15.4472   4.0000   110.6492
 62      0.0000     0.0000E+00    0.0000E+00    1.609000E+08  0.00400  1.720E-03    0   0.6930   age120_m42            0.0000     3.9665E+02    14.6973   4.0000   108.6356
 63      0.0000     0.0000E+00    0.0000E+00    2.861200E+08  0.00400  1.079E-03    0   0.6613   age125_m42            0.0000     3.9646E+02    13.9330   3.7789   105.7008
 64      0.0000     0.0000E+00    0.0000E+00    5.088000E+08  0.00400  6.261E-04    0   0.6313   age130_m42            0.0000     4.3667E+02    14.4179   3.5994   108.1871
 65      0.0000     0.0000E+00    0.0000E+00    9.047900E+08  0.00400  3.535E-04    0   0.6024   age135_m42            0.0000     3.2896E+02    13.2169   3.1763   109.3375
 66      0.0050     5.3829E-04    6.3640E-04    1.278050E+09  0.00400  2.677E-04    0   0.5837   age138_m42            0.0000     2.5501E+02    13.0690   2.4332   107.7717
 67      0.0000     0.0000E+00    0.0000E+00    1.434000E+09  0.00400  1.910E-04    0   0.5716   age139_m42            0.0000     2.6344E+02    12.9739   2.6119   108.4937
 68      0.0000     0.0000E+00    0.0000E+00    2.500000E+09  0.00400  9.818E-05    0   0.5463   age150_m42            0.0000     1.9676E+02    12.3229   2.2793   105.2310
 69      0.0000     0.0000E+00    0.0000E+00    4.250000E+09  0.00400  5.491E-05    0   0.5269   age158_m42            0.0000     1.7776E+02    11.8182   2.1322   103.0553
 70      0.0000     0.0000E+00    0.0000E+00    6.250000E+09  0.00400  3.857E-05    0   0.5151   age166_m42            0.0000     1.9792E+02    12.2539   1.9911   101.8540
 71      0.0000     0.0000E+00    0.0000E+00    7.500000E+09  0.00400  3.243E-05    0   0.5110   age171_m42            0.0000     2.1709E+02    12.6321   1.9070   101.2633
 72      0.0000     0.0000E+00    0.0000E+00    1.000000E+10  0.00400  2.424E-05    0   0.5028   age181_m42            0.0000     2.4368E+02    13.1125   1.8197   100.6071
 73      0.0000     0.0000E+00    0.0000E+00    1.300000E+10  0.00400  1.883E-05    0   0.4927   age193_m42            0.0000     2.6341E+02    13.3737   1.7773   100.2562
 74      0.0000     0.0000E+00    0.0000E+00    1.500000E+10  0.00400  1.685E-05    0   0.4919   age201_m42            0.0000     2.5643E+02    13.2252   1.7827   100.2953
 75      0.0000     0.0000E+00    0.0000E+00    1.800000E+10  0.00400  1.452E-05    0   0.4874   age213_m42            0.0000     2.4437E+02    12.9526   1.8005   100.5919
 76      0.0000     0.0000E+00    0.0000E+00    1.000000E+06  0.00800  1.286E-02    0   1.0000   age020_m52            0.0000     2.5526E+03    39.3139   4.0000   112.8745
 77      0.0000     0.0000E+00    0.0000E+00    3.160000E+06  0.00800  3.147E-02    0   0.9966   age045_m52            0.0000     2.3847E+03    38.0787   4.0000   114.3077
 78      0.0000     0.0000E+00    0.0000E+00    5.010000E+06  0.00800  2.664E-02    0   0.9443   age055_m52            0.0000     1.6151E+03    32.1809   4.0000   115.9048
 79      0.0000     0.0000E+00    0.0000E+00    6.610000E+06  0.00800  2.151E-02    0   0.9177   age061_m52            0.0000     5.8829E+01     7.1045   4.0000   102.8744
 80      0.0000     0.0000E+00    0.0000E+00    8.710000E+06  0.00800  1.628E-02    0   0.8948   age067_m52            0.0000     3.1522E+02    14.6043   4.0000   110.3057
 81      0.0000     0.0000E+00    0.0000E+00    1.000000E+07  0.00800  1.215E-02    0   0.8827   age070_m52            0.0000     6.9663E+02    21.4117   4.0000   114.0114
 82      0.0000     0.0000E+00    0.0000E+00    1.445000E+07  0.00800  8.739E-03    0   0.8552   age078_m52            0.0000     7.5768E+02    22.0352   4.0000   115.7920
 83      0.0000     0.0000E+00    0.0000E+00    2.512000E+07  0.00800  5.676E-03    0   0.8162   age090_m52            0.0000     3.8786E+02    14.6666   4.0000   113.6385
 84      0.0000     0.0000E+00    0.0000E+00    4.000000E+07  0.00800  3.939E-03    0   0.7841   age104_m52            0.0000     3.0875E+02    13.4956   4.0000   112.3298
 85      0.0000     0.0000E+00    0.0000E+00    5.500000E+07  0.00800  3.155E-03    0   0.7627   age110_m52            0.0000     3.3752E+02    14.3982   4.0000   113.0271
 86      0.0001     1.1858E-06    1.7355E-06    1.015200E+08  0.00800  2.206E-03    0   0.7226   age116_m52            0.0000     3.5383E+02    14.8680   4.0000   112.3421
 87      0.0000     0.0000E+00    0.0000E+00    1.609000E+08  0.00800  1.596E-03    0   0.6963   age120_m52            0.0000     3.4602E+02    13.7733   4.0000   108.6916
 88      0.0000     0.0000E+00    0.0000E+00    2.861200E+08  0.00800  1.002E-03    0   0.6665   age125_m52            0.0000     4.6018E+02    14.9319   3.8397   107.3795
 89      0.0000     0.0000E+00    0.0000E+00    5.088000E+08  0.00800  5.759E-04    0   0.6377   age130_m52            0.0000     5.0319E+02    15.8327   3.4952   110.9011
 90      0.0000     0.0000E+00    0.0000E+00    9.047900E+08  0.00800  2.972E-04    0   0.6086   age135_m52            0.0000     3.9975E+02    15.3616   2.9092   110.6538
 91      0.0000     0.0000E+00    0.0000E+00    1.278050E+09  0.00800  2.242E-04    0   0.5907   age138_m52            0.0000     2.9599E+02    14.1125   2.2505   110.6444
 92      0.0000     0.0000E+00    0.0000E+00    1.434000E+09  0.00800  1.645E-04    0   0.5787   age139_m52            0.0000     2.6243E+02    13.4803   2.3917   110.4207
 93      0.0000     0.0000E+00    0.0000E+00    2.500000E+09  0.00800  7.723E-05    0   0.5519   age150_m52            0.0000     2.4101E+02    13.3233   2.0038   107.7691
 94      0.0000     0.0000E+00    0.0000E+00    4.250000E+09  0.00800  4.151E-05    0   0.5320   age158_m52            0.0000     2.3543E+02    13.2210   1.9194   105.5325
 95      0.0000     0.0000E+00    0.0000E+00    6.250000E+09  0.00800  3.010E-05    0   0.5197   age166_m52            0.0000     2.7664E+02    13.9374   1.7088   104.2036
 96      0.0000     0.0000E+00    0.0000E+00    7.500000E+09  0.00800  2.467E-05    0   0.5139   age171_m52            0.0000     2.9111E+02    14.1814   1.6653   103.7556
 97      0.0000     0.0000E+00    0.0000E+00    1.000000E+10  0.00800  1.862E-05    0   0.5054   age181_m52            0.0000     3.4051E+02    14.9802   1.5284   103.2587
