###################################################################
## OUTPUT of StarlightChains_v04.for    [Cid@UFSC - 01/Apr/2007] ##
###################################################################

## Some input info
NGC6342_a_2.cxt                          [arq_obs]
Base.BC03.S                              [arq_base]
NGC6342_a_2.msk                          [arq_masks]
StCv04.C11.config                        [arq_config]
  150                                    [N_base]
    0                                    [N_YAV_components = # of components with extra extinction!]
    0                                    [i_FitPowerLaw (1/0 = Yes/No)]
-9.99                                    [alpha_PowerLaw]
CCM                                      [red_law_option]
 1.458241                                [q_norm = A(l_norm)/A(V)]

## (Re)Sampling Parameters
 3359.00                                 [l_ini (A)]
 6428.00                                 [l_fin (A)]
    1.00                                 [dl    (A)]     (OBS: dl_cushion =    50.00 A)

## Normalization info
 4020.00                                 [l_norm (A) - for base]
 4010.00                                 [llow_norm (A) - window for f_obs]
 4060.00                                 [lupp_norm (A) - window for f_obs]
3.704827E-15                             [fobs_norm (in input units)]

## S/N
 4730.00                                 [llow_SN (A) - window for S/N]
 4780.00                                 [lupp_SN (A) - window for S/N]
  43.866                                 [S/N in S/N window]
  28.421                                 [S/N in norm. window]
 215.944                                 [S/N_err in S/N window]
 139.911                                 [S/N_err in norm. window]
  1.0000                                 [fscale_chi2]

## etc...
  2147483614                             [idum_orig]
  3067                                   [NOl_eff]
   708                                   [Nl_eff]
  2359    NSIGMA                         [Ntot_cliped & clip_method]
  1845900                                [Nglobal_steps]
   7                                     [N_chains]
  26                                     [NEX0s_base = N_base in EX0s-fits]
 0   0   1      177   2.0   3.168E+02    [Clip-Bug, RC-Crash & Burn-In warning-flags, n_censored_weights, wei_nsig_threshold & wei_limit]
    78     78.038     78.030      0.008  [idt_all, wdt_TotTime, wdt_UsrTime & wdt_SysTime (sec)]

## Synthesis Results - Best model ##

 2.64390E+00                             [chi2/Nl_eff]
     1.48381                             [adev (%)]

    97.95914                             [sum-of-x (%)]
 1.65187E-14                             [Flux_tot (units of input spectrum!)]
 8.71124E-10                             [Mini_tot (???)]
 4.34884E-10                             [Mcor_tot (???)]

 -15.96                                  [v0_min  (km/s)]
  48.93                                  [vd_min  (km/s)]
 1.1284                                  [AV_min  (mag)]
 0.0000                                  [YAV_min (mag)]

# j     x_j(%)      Mini_j(%)     Mcor_j(%)     age_j(yr)     Z_j      (L/M)_j    YAV?  Mstars   component_j        a/Fe...       SSP_chi2r SSP_adev(%)   SSP_AV   SSP_x(%)
  1      0.0000     0.0000E+00    0.0000E+00    1.000000E+06  0.00010  8.160E-03    0   1.0000   age020_m22            0.0000     3.4919E+03    39.9154   4.0000   100.4173
  2      0.0000     0.0000E+00    0.0000E+00    3.160000E+06  0.00010  4.759E-02    0   1.0000   age045_m22            0.0000     1.5114E+02     8.3101   3.1237    95.6322
  3      2.7250     2.7303E-03    5.2405E-03    5.010000E+06  0.00010  1.932E-02    0   0.9582   age055_m22            0.0000     5.1798E+02    16.2621   3.3637    83.0988
  4      0.0000     0.0000E+00    0.0000E+00    6.610000E+06  0.00010  9.973E-03    0   0.9297   age061_m22            0.0000     3.3064E+03    38.9490   4.0000   103.2866
  5      0.0000     0.0000E+00    0.0000E+00    8.710000E+06  0.00010  7.690E-03    0   0.9030   age067_m22            0.0000     3.2327E+03    38.5181   4.0000   103.7546
  6      0.0000     0.0000E+00    0.0000E+00    1.000000E+07  0.00010  6.375E-03    0   0.8902   age070_m22            0.0000     3.2781E+03    38.5871   4.0000   104.2529
  7      0.0000     0.0000E+00    0.0000E+00    1.445000E+07  0.00010  4.874E-03    0   0.8589   age078_m22            0.0000     2.2715E+03    32.9838   4.0000   104.6678
  8      0.0000     0.0000E+00    0.0000E+00    2.512000E+07  0.00010  4.103E-03    0   0.8174   age090_m22            0.0000     7.8757E+02    20.8710   4.0000   103.0265
  9      0.0000     0.0000E+00    0.0000E+00    4.000000E+07  0.00010  3.654E-03    0   0.7830   age104_m22            0.0000     3.3029E+02    12.7607   4.0000   100.2154
 10      0.0000     0.0000E+00    0.0000E+00    5.500000E+07  0.00010  3.093E-03    0   0.7597   age110_m22            0.0000     2.7622E+02    10.7911   4.0000    98.8783
 11      0.0000     0.0000E+00    0.0000E+00    1.015200E+08  0.00010  2.431E-03    0   0.7138   age116_m22            0.0000     2.9402E+02     9.9858   3.7798    97.9268
 12      0.0000     0.0000E+00    0.0000E+00    1.609000E+08  0.00010  1.319E-03    0   0.6775   age120_m22            0.0000     2.8492E+02     9.3908   3.3075    99.8542
 13      0.0000     0.0000E+00    0.0000E+00    2.861200E+08  0.00010  1.075E-03    0   0.6412   age125_m22            0.0000     5.4449E+02    13.0086   3.4272   102.1576
 14      0.0000     0.0000E+00    0.0000E+00    5.088000E+08  0.00010  7.183E-04    0   0.6083   age130_m22            0.0000     6.3982E+02    14.0576   3.2180   103.2780
 15      0.0000     0.0000E+00    0.0000E+00    9.047900E+08  0.00010  4.524E-04    0   0.5785   age135_m22            0.0000     6.4817E+02    14.1523   3.0185   104.4389
 16      0.0000     0.0000E+00    0.0000E+00    1.278050E+09  0.00010  3.018E-04    0   0.5588   age138_m22            0.0000     3.6332E+02    10.3980   2.4479   103.8059
 17      0.0000     0.0000E+00    0.0000E+00    1.434000E+09  0.00010  2.691E-04    0   0.5532   age139_m22            0.0000     3.1316E+02     9.6464   2.2852   103.4306
 18      0.0000     0.0000E+00    0.0000E+00    2.500000E+09  0.00010  1.582E-04    0   0.5296   age150_m22            0.0000     2.8961E+02     9.3327   2.1559   104.4933
 19      0.0000     0.0000E+00    0.0000E+00    4.250000E+09  0.00010  1.007E-04    0   0.5110   age158_m22            0.0000     1.9834E+02     7.5385   1.9933   102.9472
 20      0.0000     0.0000E+00    0.0000E+00    6.250000E+09  0.00010  6.869E-05    0   0.4985   age166_m22            0.0000     1.3359E+02     6.0724   1.9253   100.2716
 21      0.1813     5.9767E-02    5.9034E-02    7.500000E+09  0.00010  5.873E-05    0   0.4931   age171_m22            0.0000     1.3081E+02     6.0424   1.9070    99.8562
 22      0.0000     0.0000E+00    0.0000E+00    1.000000E+10  0.00010  4.481E-05    0   0.4854   age181_m22            0.0000     1.2686E+02     5.9495   1.8700    99.4702
 23      0.0000     0.0000E+00    0.0000E+00    1.300000E+10  0.00010  3.489E-05    0   0.4791   age193_m22            0.0000     1.1776E+02     5.7247   1.8147    98.8957
 24      0.0069     4.3919E-03    4.1929E-03    1.500000E+10  0.00010  3.035E-05    0   0.4766   age201_m22            0.0000     1.1271E+02     5.6101   1.7754    98.7117
 25      0.0207     1.5951E-02    1.5129E-02    1.800000E+10  0.00010  2.510E-05    0   0.4735   age213_m22            0.0000     1.0198E+02     5.3728   1.7051    98.1442
 26      0.0000     0.0000E+00    0.0000E+00    1.000000E+06  0.00040  8.458E-03    0   1.0000   age020_m32            0.0000     3.5727E+03    40.1732   4.0000   101.4846
 27      0.0000     0.0000E+00    0.0000E+00    3.160000E+06  0.00040  3.973E-02    0   1.0000   age045_m32            0.0000     5.8509E+02    18.4944   4.0000   100.0877
 28      0.0000     0.0000E+00    0.0000E+00    5.010000E+06  0.00040  1.935E-02    0   0.9532   age055_m32            0.0000     1.2798E+03    26.4765   4.0000    98.7556
 29      0.0000     0.0000E+00    0.0000E+00    6.610000E+06  0.00040  1.204E-02    0   0.9243   age061_m32            0.0000     2.5075E+03    34.7379   4.0000   103.3474
 30      0.0000     0.0000E+00    0.0000E+00    8.710000E+06  0.00040  9.433E-03    0   0.9001   age067_m32            0.0000     2.3324E+03    33.6060   4.0000   103.9912
 31      0.0000     0.0000E+00    0.0000E+00    1.000000E+07  0.00040  8.053E-03    0   0.8877   age070_m32            0.0000     2.1611E+03    32.5456   4.0000   103.8407
 32      0.0000     0.0000E+00    0.0000E+00    1.445000E+07  0.00040  7.027E-03    0   0.8578   age078_m32            0.0000     5.5364E+02    18.4100   4.0000    97.1802
 33      0.0000     0.0000E+00    0.0000E+00    2.512000E+07  0.00040  4.707E-03    0   0.8166   age090_m32            0.0000     2.6015E+02    11.9268   4.0000    92.9365
 34      0.0000     0.0000E+00    0.0000E+00    4.000000E+07  0.00040  3.714E-03    0   0.7827   age104_m32            0.0000     2.3588E+02    10.0699   3.8529    95.0526
 35      0.0000     0.0000E+00    0.0000E+00    5.500000E+07  0.00040  2.982E-03    0   0.7593   age110_m32            0.0000     2.4415E+02     9.7492   3.8004    96.1294
 36      0.0000     0.0000E+00    0.0000E+00    1.015200E+08  0.00040  2.188E-03    0   0.7143   age116_m32            0.0000     3.5715E+02    10.6298   3.5743    99.7435
 37      0.0000     0.0000E+00    0.0000E+00    1.609000E+08  0.00040  1.690E-03    0   0.6856   age120_m32            0.0000     4.6549E+02    12.1332   3.3783   102.2035
 38      0.0000     0.0000E+00    0.0000E+00    2.861200E+08  0.00040  1.152E-03    0   0.6509   age125_m32            0.0000     5.6601E+02    13.2178   3.1888   103.0299
 39      0.0000     0.0000E+00    0.0000E+00    5.088000E+08  0.00040  7.331E-04    0   0.6182   age130_m32            0.0000     6.0617E+02    13.6365   3.0386   103.4176
 40      0.0000     0.0000E+00    0.0000E+00    9.047900E+08  0.00040  3.960E-04    0   0.5890   age135_m32            0.0000     3.7469E+02    10.6337   2.5579   102.6074
 41      0.0000     0.0000E+00    0.0000E+00    1.278050E+09  0.00040  2.854E-04    0   0.5687   age138_m32            0.0000     3.2047E+02     9.8227   2.2364   105.0795
 42      0.0000     0.0000E+00    0.0000E+00    1.434000E+09  0.00040  2.531E-04    0   0.5632   age139_m32            0.0000     3.1282E+02     9.7222   2.1715   105.1616
 43      0.0000     0.0000E+00    0.0000E+00    2.500000E+09  0.00040  1.488E-04    0   0.5386   age150_m32            0.0000     2.3784E+02     8.4656   1.9106   103.5118
 44      0.0000     0.0000E+00    0.0000E+00    4.250000E+09  0.00040  9.082E-05    0   0.5199   age158_m32            0.0000     1.1938E+02     5.6879   1.7946   100.4617
 45     10.6088     3.2279E+00    3.2821E+00    6.250000E+09  0.00040  6.362E-05    0   0.5076   age166_m32            0.0000     7.9639E+01     4.7748   1.7339    97.3156
 46     19.6920     7.2072E+00    7.2574E+00    7.500000E+09  0.00040  5.289E-05    0   0.5027   age171_m32            0.0000     7.1792E+01     4.6227   1.6986    96.0129
 47     14.3934     7.0147E+00    6.9525E+00    1.000000E+10  0.00040  3.972E-05    0   0.4948   age181_m32            0.0000     6.3652E+01     4.4384   1.6407    94.5822
 48      7.5330     4.4417E+00    4.3330E+00    1.300000E+10  0.00040  3.283E-05    0   0.4870   age193_m32            0.0000     7.1099E+01     4.4790   1.6032    97.2754
 49      0.0000     0.0000E+00    0.0000E+00    1.500000E+10  0.00040  2.925E-05    0   0.4854   age201_m32            0.0000     8.3243E+01     4.7631   1.5882    98.8533
 50      1.0664     8.3608E-01    8.0707E-01    1.800000E+10  0.00040  2.469E-05    0   0.4819   age213_m32            0.0000     8.7364E+01     4.8760   1.5493    99.3895
 51      0.0000     0.0000E+00    0.0000E+00    1.000000E+06  0.00400  1.114E-02    0   1.0000   age020_m42            0.0000     3.1717E+03    38.1978   4.0000   100.9044
 52      0.0000     0.0000E+00    0.0000E+00    3.160000E+06  0.00400  4.073E-02    0   0.9999   age045_m42            0.0000     2.1305E+02    11.2380   4.0000    94.5319
 53      0.0000     0.0000E+00    0.0000E+00    5.010000E+06  0.00400  2.534E-02    0   0.9488   age055_m42            0.0000     8.4767E+02    22.0195   4.0000    98.6376
 54      0.0000     0.0000E+00    0.0000E+00    6.610000E+06  0.00400  2.583E-02    0   0.9220   age061_m42            0.0000     1.9288E+02     9.8072   3.9164    92.4703
 55      0.0000     0.0000E+00    0.0000E+00    8.710000E+06  0.00400  1.706E-02    0   0.8983   age067_m42            0.0000     2.4980E+02    11.9598   3.7036    91.2636
 56      0.0000     0.0000E+00    0.0000E+00    1.000000E+07  0.00400  1.271E-02    0   0.8862   age070_m42            0.0000     3.3815E+02    14.0357   3.6689    90.0801
 57      0.0000     0.0000E+00    0.0000E+00    1.445000E+07  0.00400  7.666E-03    0   0.8571   age078_m42            0.0000     3.9921E+02    15.7949   4.0000    88.5948
 58      0.0000     0.0000E+00    0.0000E+00    2.512000E+07  0.00400  5.070E-03    0   0.8174   age090_m42            0.0000     3.0537E+02    13.4131   3.5432    91.6264
 59      0.0000     0.0000E+00    0.0000E+00    4.000000E+07  0.00400  3.505E-03    0   0.7851   age104_m42            0.0000     2.1495E+02    11.3176   3.2431    94.4319
 60      0.0000     0.0000E+00    0.0000E+00    5.500000E+07  0.00400  3.059E-03    0   0.7629   age110_m42            0.0000     1.8900E+02     8.6285   3.3386    98.5926
 61      0.0000     0.0000E+00    0.0000E+00    1.015200E+08  0.00400  2.268E-03    0   0.7207   age116_m42            0.0000     3.9382E+02    10.9994   3.2993   102.8457
 62      0.0000     0.0000E+00    0.0000E+00    1.609000E+08  0.00400  1.720E-03    0   0.6930   age120_m42            0.0000     4.2941E+02    11.4630   3.1763   103.8689
 63      0.0000     0.0000E+00    0.0000E+00    2.861200E+08  0.00400  1.079E-03    0   0.6613   age125_m42            0.0000     4.2117E+02    11.1496   2.8211   104.2544
 64      0.0000     0.0000E+00    0.0000E+00    5.088000E+08  0.00400  6.261E-04    0   0.6313   age130_m42            0.0000     4.8477E+02    12.0392   2.6260   107.1599
 65      0.0000     0.0000E+00    0.0000E+00    9.047900E+08  0.00400  3.535E-04    0   0.6024   age135_m42            0.0000     3.1011E+02     9.4463   2.2121   107.7895
 66      0.0000     0.0000E+00    0.0000E+00    1.278050E+09  0.00400  2.677E-04    0   0.5837   age138_m42            0.0000     1.0291E+02     5.7569   1.5357   105.1407
 67      0.0000     0.0000E+00    0.0000E+00    1.434000E+09  0.00400  1.910E-04    0   0.5716   age139_m42            0.0000     1.4341E+02     6.3654   1.7079   105.8726
 68      0.0000     0.0000E+00    0.0000E+00    2.500000E+09  0.00400  9.818E-05    0   0.5463   age150_m42            0.0000     3.6174E+01     3.3225   1.4411   100.7947
 69      1.4309     5.0445E-01    5.3242E-01    4.250000E+09  0.00400  5.491E-05    0   0.5269   age158_m42            0.0000     1.3916E+01     2.3666   1.3090    98.1414
 70      0.0000     0.0000E+00    0.0000E+00    6.250000E+09  0.00400  3.857E-05    0   0.5151   age166_m42            0.0000     1.5085E+01     2.5728   1.1916    96.6093
 71      0.0559     3.3342E-02    3.4129E-02    7.500000E+09  0.00400  3.243E-05    0   0.5110   age171_m42            0.0000     1.9923E+01     2.8901   1.1190    95.9514
 72      1.5998     1.2775E+00    1.2867E+00    1.000000E+10  0.00400  2.424E-05    0   0.5028   age181_m42            0.0000     2.9209E+01     3.4191   1.0459    95.1985
 73      2.5754     2.6475E+00    2.6129E+00    1.300000E+10  0.00400  1.883E-05    0   0.4927   age193_m42            0.0000     3.8598E+01     3.9328   1.0075    94.8615
 74      1.7313     1.9890E+00    1.9598E+00    1.500000E+10  0.00400  1.685E-05    0   0.4919   age201_m42            0.0000     3.6506E+01     3.8027   1.0095    94.9469
 75      0.7832     1.0441E+00    1.0194E+00    1.800000E+10  0.00400  1.452E-05    0   0.4874   age213_m42            0.0000     3.2954E+01     3.5925   1.0199    95.3278
 76      0.0000     0.0000E+00    0.0000E+00    1.000000E+06  0.00800  1.286E-02    0   1.0000   age020_m52            0.0000     3.0062E+03    37.1584   4.0000   102.8010
 77      0.0000     0.0000E+00    0.0000E+00    3.160000E+06  0.00800  3.147E-02    0   0.9966   age045_m52            0.0000     2.5634E+03    34.9695   4.0000   103.1575
 78      0.0000     0.0000E+00    0.0000E+00    5.010000E+06  0.00800  2.664E-02    0   0.9443   age055_m52            0.0000     1.2087E+03    25.6326   4.0000   100.2871
 79      0.0000     0.0000E+00    0.0000E+00    6.610000E+06  0.00800  2.151E-02    0   0.9177   age061_m52            0.0000     2.6162E+02    12.4108   3.2860    91.1617
 80      0.0000     0.0000E+00    0.0000E+00    8.710000E+06  0.00800  1.628E-02    0   0.8948   age067_m52            0.0000     2.8765E+02    12.9299   3.6517    91.6966
 81      0.0000     0.0000E+00    0.0000E+00    1.000000E+07  0.00800  1.215E-02    0   0.8827   age070_m52            0.0000     3.3101E+02    13.9044   3.9904    89.6663
 82      0.0000     0.0000E+00    0.0000E+00    1.445000E+07  0.00800  8.739E-03    0   0.8552   age078_m52            0.0000     2.9628E+02    13.3024   4.0000    92.1196
 83      0.0000     0.0000E+00    0.0000E+00    2.512000E+07  0.00800  5.676E-03    0   0.8162   age090_m52            0.0000     2.6184E+02    11.2648   3.6404    96.1950
 84      0.0000     0.0000E+00    0.0000E+00    4.000000E+07  0.00800  3.939E-03    0   0.7841   age104_m52            0.0000     2.4008E+02     9.8387   3.5026    98.3403
 85      0.0000     0.0000E+00    0.0000E+00    5.500000E+07  0.00800  3.155E-03    0   0.7627   age110_m52            0.0000     2.5555E+02     9.3002   3.4930    99.6990
 86      0.0000     0.0000E+00    0.0000E+00    1.015200E+08  0.00800  2.206E-03    0   0.7226   age116_m52            0.0000     3.2988E+02     9.8250   3.3422   102.9272
 87      0.0000     0.0000E+00    0.0000E+00    1.609000E+08  0.00800  1.596E-03    0   0.6963   age120_m52            0.0000     3.7199E+02    10.4712   3.1409   104.2436
 88      0.0000     0.0000E+00    0.0000E+00    2.861200E+08  0.00800  1.002E-03    0   0.6665   age125_m52            0.0000     4.9444E+02    12.2673   2.8854   106.0971
 89      0.0000     0.0000E+00    0.0000E+00    5.088000E+08  0.00800  5.759E-04    0   0.6377   age130_m52            0.0000     5.1207E+02    12.4674   2.5616   109.4135
 90      0.0000     0.0000E+00    0.0000E+00    9.047900E+08  0.00800  2.972E-04    0   0.6086   age135_m52            0.0000     2.9336E+02     9.2258   2.0340   107.9152
 91      0.0000     0.0000E+00    0.0000E+00    1.278050E+09  0.00800  2.242E-04    0   0.5907   age138_m52            0.0000     9.1166E+01     5.4569   1.3917   107.3498
 92      0.0000     0.0000E+00    0.0000E+00    1.434000E+09  0.00800  1.645E-04    0   0.5787   age139_m52            0.0000     7.9757E+01     5.0191   1.5338   106.8073
 93      0.0000     0.0000E+00    0.0000E+00    2.500000E+09  0.00800  7.723E-05    0   0.5519   age150_m52            0.0000     3.3175E+01     3.6753   1.2017   102.7326
 94      0.0000     0.0000E+00    0.0000E+00    4.250000E+09  0.00800  4.151E-05    0   0.5320   age158_m52            0.0000     2.6828E+01     3.5467   1.1318   100.1277
 95      0.0000     0.0000E+00    0.0000E+00    6.250000E+09  0.00800  3.010E-05    0   0.5197   age166_m52            0.0000     3.9001E+01     4.2197   0.9510    98.4718
 96      0.0000     0.0000E+00    0.0000E+00    7.500000E+09  0.00800  2.467E-05    0   0.5139   age171_m52            0.0000     4.4360E+01     4.4642   0.9135    98.0081
 97      0.0007     7.7280E-04    7.8237E-04    1.000000E+10  0.00800  1.862E-05    0   0.5054   age181_m52            0.0000     6.6257E+01     5.3528   0.7966    97.4039
