###################################################################
## OUTPUT of StarlightChains_v04.for    [Cid@UFSC - 01/Apr/2007] ##
###################################################################

## Some input info
NGC6362_a_1.cxt                          [arq_obs]
Base.BC03.S                              [arq_base]
NGC6362_a_1.msk                          [arq_masks]
StCv04.C11.config                        [arq_config]
  150                                    [N_base]
    0                                    [N_YAV_components = # of components with extra extinction!]
    0                                    [i_FitPowerLaw (1/0 = Yes/No)]
-9.99                                    [alpha_PowerLaw]
CCM                                      [red_law_option]
 1.458241                                [q_norm = A(l_norm)/A(V)]

## (Re)Sampling Parameters
 3359.00                                 [l_ini (A)]
 6428.00                                 [l_fin (A)]
    1.00                                 [dl    (A)]     (OBS: dl_cushion =    50.00 A)

## Normalization info
 4020.00                                 [l_norm (A) - for base]
 4010.00                                 [llow_norm (A) - window for f_obs]
 4060.00                                 [lupp_norm (A) - window for f_obs]
1.238399E-14                             [fobs_norm (in input units)]

## S/N
 4730.00                                 [llow_SN (A) - window for S/N]
 4780.00                                 [lupp_SN (A) - window for S/N]
  69.165                                 [S/N in S/N window]
  59.492                                 [S/N in norm. window]
  54.471                                 [S/N_err in S/N window]
  46.853                                 [S/N_err in norm. window]
  1.0000                                 [fscale_chi2]

## etc...
  2147483611                             [idum_orig]
  3061                                   [NOl_eff]
  2473                                   [Nl_eff]
   588    NSIGMA                         [Ntot_cliped & clip_method]
  1570660                                [Nglobal_steps]
   7                                     [N_chains]
  25                                     [NEX0s_base = N_base in EX0s-fits]
 0   0   1      376   2.0   8.432E+02    [Clip-Bug, RC-Crash & Burn-In warning-flags, n_censored_weights, wei_nsig_threshold & wei_limit]
    54     53.979     53.975      0.004  [idt_all, wdt_TotTime, wdt_UsrTime & wdt_SysTime (sec)]

## Synthesis Results - Best model ##

 1.38663E+00                             [chi2/Nl_eff]
     1.66361                             [adev (%)]

   101.40224                             [sum-of-x (%)]
 1.78883E-14                             [Flux_tot (units of input spectrum!)]
 3.54875E-10                             [Mini_tot (???)]
 1.80407E-10                             [Mcor_tot (???)]

 -14.29                                  [v0_min  (km/s)]
  69.21                                  [vd_min  (km/s)]
 0.2634                                  [AV_min  (mag)]
 0.0000                                  [YAV_min (mag)]

# j     x_j(%)      Mini_j(%)     Mcor_j(%)     age_j(yr)     Z_j      (L/M)_j    YAV?  Mstars   component_j        a/Fe...       SSP_chi2r SSP_adev(%)   SSP_AV   SSP_x(%)
  1      0.0000     0.0000E+00    0.0000E+00    1.000000E+06  0.00010  8.160E-03    0   1.0000   age020_m22            0.0000     1.7274E+02    11.5940   4.0000    72.0948
  2     16.7463     1.7492E-02    3.4409E-02    3.160000E+06  0.00010  4.759E-02    0   1.0000   age045_m22            0.0000     3.8709E+01     5.1572   1.8942    94.0393
  3      0.0000     0.0000E+00    0.0000E+00    5.010000E+06  0.00010  1.932E-02    0   0.9582   age055_m22            0.0000     1.3318E+02    11.9385   2.3296    77.5724
  4      0.0000     0.0000E+00    0.0000E+00    6.610000E+06  0.00010  9.973E-03    0   0.9297   age061_m22            0.0000     1.5954E+02    12.1136   3.9828    74.5578
  5      0.0000     0.0000E+00    0.0000E+00    8.710000E+06  0.00010  7.690E-03    0   0.9030   age067_m22            0.0000     1.5089E+02    11.7972   3.9689    75.1134
  6      0.0000     0.0000E+00    0.0000E+00    1.000000E+07  0.00010  6.375E-03    0   0.8902   age070_m22            0.0000     1.4535E+02    11.5233   3.9771    75.4249
  7      0.0000     0.0000E+00    0.0000E+00    1.445000E+07  0.00010  4.874E-03    0   0.8589   age078_m22            0.0000     1.0101E+02    10.0927   3.7739    78.7704
  8      0.0000     0.0000E+00    0.0000E+00    2.512000E+07  0.00010  4.103E-03    0   0.8174   age090_m22            0.0000     4.8665E+01     7.1388   3.3094    86.4844
  9      0.0000     0.0000E+00    0.0000E+00    4.000000E+07  0.00010  3.654E-03    0   0.7830   age104_m22            0.0000     8.6135E+01     5.3908   2.9557    92.4298
 10      0.0000     0.0000E+00    0.0000E+00    5.500000E+07  0.00010  3.093E-03    0   0.7597   age110_m22            0.0000     1.0875E+02     4.9581   2.8233    94.9706
 11      0.0000     0.0000E+00    0.0000E+00    1.015200E+08  0.00010  2.431E-03    0   0.7138   age116_m22            0.0000     1.7419E+02     5.0562   2.4405    98.9764
 12      0.0000     0.0000E+00    0.0000E+00    1.609000E+08  0.00010  1.319E-03    0   0.6775   age120_m22            0.0000     1.6568E+02     5.0391   1.9290   102.8813
 13      0.0000     0.0000E+00    0.0000E+00    2.861200E+08  0.00010  1.075E-03    0   0.6412   age125_m22            0.0000     4.0373E+02     7.8856   1.8499   111.5844
 14      0.0000     0.0000E+00    0.0000E+00    5.088000E+08  0.00010  7.183E-04    0   0.6083   age130_m22            0.0000     4.6353E+02     9.3376   1.5484   116.3094
 15      0.0000     0.0000E+00    0.0000E+00    9.047900E+08  0.00010  4.524E-04    0   0.5785   age135_m22            0.0000     4.5780E+02     9.7073   1.3282   118.5254
 16      0.0000     0.0000E+00    0.0000E+00    1.278050E+09  0.00010  3.018E-04    0   0.5588   age138_m22            0.0000     2.1840E+02     6.7669   0.9008   113.0037
 17      0.0000     0.0000E+00    0.0000E+00    1.434000E+09  0.00010  2.691E-04    0   0.5532   age139_m22            0.0000     1.7572E+02     6.2213   0.7619   111.8673
 18      0.0000     0.0000E+00    0.0000E+00    2.500000E+09  0.00010  1.582E-04    0   0.5296   age150_m22            0.0000     1.5368E+02     5.6881   0.6786   111.4376
 19      0.0027     1.3446E-03    1.3515E-03    4.250000E+09  0.00010  1.007E-04    0   0.5110   age158_m22            0.0000     8.4575E+01     4.4037   0.5761   107.9667
 20      0.5145     3.7231E-01    3.6509E-01    6.250000E+09  0.00010  6.869E-05    0   0.4985   age166_m22            0.0000     3.7695E+01     3.3390   0.5656   103.5133
 21      0.0000     0.0000E+00    0.0000E+00    7.500000E+09  0.00010  5.873E-05    0   0.4931   age171_m22            0.0000     3.2981E+01     3.3170   0.5663   102.4487
 22      0.0000     0.0000E+00    0.0000E+00    1.000000E+10  0.00010  4.481E-05    0   0.4854   age181_m22            0.0000     3.0661E+01     3.2467   0.5279   102.1418
 23      0.0531     7.5653E-02    7.1297E-02    1.300000E+10  0.00010  3.489E-05    0   0.4791   age193_m22            0.0000     2.6151E+01     3.0845   0.4726   101.6105
 24      0.4490     7.3546E-01    6.8951E-01    1.500000E+10  0.00010  3.035E-05    0   0.4766   age201_m22            0.0000     2.3885E+01     3.0016   0.4363   101.3437
 25      0.0000     0.0000E+00    0.0000E+00    1.800000E+10  0.00010  2.510E-05    0   0.4735   age213_m22            0.0000     1.8793E+01     2.8359   0.3752   100.5129
 26      0.0000     0.0000E+00    0.0000E+00    1.000000E+06  0.00040  8.458E-03    0   1.0000   age020_m32            0.0000     1.7050E+02    11.4441   4.0000    72.7681
 27      0.0000     0.0000E+00    0.0000E+00    3.160000E+06  0.00040  3.973E-02    0   1.0000   age045_m32            0.0000     5.1805E+01     7.6005   3.2183    85.9949
 28      0.0000     0.0000E+00    0.0000E+00    5.010000E+06  0.00040  1.935E-02    0   0.9532   age055_m32            0.0000     1.0338E+02    10.9839   3.5144    78.4520
 29      0.0000     0.0000E+00    0.0000E+00    6.610000E+06  0.00040  1.204E-02    0   0.9243   age061_m32            0.0000     1.2509E+02    11.2151   3.8292    76.7539
 30      0.0000     0.0000E+00    0.0000E+00    8.710000E+06  0.00040  9.433E-03    0   0.9001   age067_m32            0.0000     1.0978E+02    10.6666   3.7908    77.8675
 31      0.0000     0.0000E+00    0.0000E+00    1.000000E+07  0.00040  8.053E-03    0   0.8877   age070_m32            0.0000     1.0415E+02    10.4579   3.7524    78.4096
 32      0.0000     0.0000E+00    0.0000E+00    1.445000E+07  0.00040  7.027E-03    0   0.8578   age078_m32            0.0000     5.8832E+01     8.6532   3.1982    84.0657
 33      0.0000     0.0000E+00    0.0000E+00    2.512000E+07  0.00040  4.707E-03    0   0.8166   age090_m32            0.0000     4.9114E+01     6.9470   2.8603    89.1121
 34      0.0000     0.0000E+00    0.0000E+00    4.000000E+07  0.00040  3.714E-03    0   0.7827   age104_m32            0.0000     7.6000E+01     5.5370   2.6119    93.6450
 35      0.0000     0.0000E+00    0.0000E+00    5.500000E+07  0.00040  2.982E-03    0   0.7593   age110_m32            0.0000     9.7957E+01     5.1420   2.5264    95.6051
 36      0.0000     0.0000E+00    0.0000E+00    1.015200E+08  0.00040  2.188E-03    0   0.7143   age116_m32            0.0000     2.4068E+02     5.5512   2.1582   103.3726
 37      0.0000     0.0000E+00    0.0000E+00    1.609000E+08  0.00040  1.690E-03    0   0.6856   age120_m32            0.0000     3.5524E+02     6.7301   1.8906   108.1634
 38      0.0000     0.0000E+00    0.0000E+00    2.861200E+08  0.00040  1.152E-03    0   0.6509   age125_m32            0.0000     4.1528E+02     8.3149   1.5758   113.9230
 39      0.0000     0.0000E+00    0.0000E+00    5.088000E+08  0.00040  7.331E-04    0   0.6182   age130_m32            0.0000     4.3227E+02     9.1446   1.3703   116.4585
 40      0.0000     0.0000E+00    0.0000E+00    9.047900E+08  0.00040  3.960E-04    0   0.5890   age135_m32            0.0000     2.1216E+02     7.1857   0.9700   113.3418
 41      0.0000     0.0000E+00    0.0000E+00    1.278050E+09  0.00040  2.854E-04    0   0.5687   age138_m32            0.0000     1.7690E+02     6.1049   0.7258   113.1805
 42      0.0000     0.0000E+00    0.0000E+00    1.434000E+09  0.00040  2.531E-04    0   0.5632   age139_m32            0.0000     1.7321E+02     5.9996   0.6687   112.9984
 43      2.4755     8.2698E-01    8.7616E-01    2.500000E+09  0.00040  1.488E-04    0   0.5386   age150_m32            0.0000     1.1853E+02     5.0930   0.4365   110.2894
 44     33.1990     1.8171E+01    1.8584E+01    4.250000E+09  0.00040  9.082E-05    0   0.5199   age158_m32            0.0000     3.4992E+01     3.1250   0.4124   104.3670
 45      0.7265     5.6768E-01    5.6682E-01    6.250000E+09  0.00040  6.362E-05    0   0.5076   age166_m32            0.0000     8.7204E+00     2.5850   0.4330    98.8253
 46      1.7722     1.6656E+00    1.6471E+00    7.500000E+09  0.00040  5.289E-05    0   0.5027   age171_m32            0.0000     6.9025E+00     2.5164   0.4019    97.5002
 47      5.0327     6.2985E+00    6.1304E+00    1.000000E+10  0.00040  3.972E-05    0   0.4948   age181_m32            0.0000     6.3865E+00     2.3504   0.3372    96.3999
 48      2.6223     3.9707E+00    3.8038E+00    1.300000E+10  0.00040  3.283E-05    0   0.4870   age193_m32            0.0000     8.7068E+00     2.2463   0.2624   100.1472
 49      0.0000     0.0000E+00    0.0000E+00    1.500000E+10  0.00040  2.925E-05    0   0.4854   age201_m32            0.0000     1.5537E+01     2.4942   0.2259   102.3542
 50      0.0000     0.0000E+00    0.0000E+00    1.800000E+10  0.00040  2.469E-05    0   0.4819   age213_m32            0.0000     1.8946E+01     2.6156   0.1772   103.1723
 51      0.0000     0.0000E+00    0.0000E+00    1.000000E+06  0.00400  1.114E-02    0   1.0000   age020_m42            0.0000     1.6392E+02    11.6087   3.9630    73.2678
 52      0.0000     0.0000E+00    0.0000E+00    3.160000E+06  0.00400  4.073E-02    0   0.9999   age045_m42            0.0000     4.3168E+01     6.1791   2.8877    89.5269
 53      0.0000     0.0000E+00    0.0000E+00    5.010000E+06  0.00400  2.534E-02    0   0.9488   age055_m42            0.0000     6.8400E+01     8.9798   3.3577    81.7050
 54      0.0000     0.0000E+00    0.0000E+00    6.610000E+06  0.00400  2.583E-02    0   0.9220   age061_m42            0.0000     5.5534E+01     5.6868   2.6940    90.5536
 55      0.0000     0.0000E+00    0.0000E+00    8.710000E+06  0.00400  1.706E-02    0   0.8983   age067_m42            0.0000     4.7644E+01     7.7172   2.5670    87.2048
 56      0.0000     0.0000E+00    0.0000E+00    1.000000E+07  0.00400  1.271E-02    0   0.8862   age070_m42            0.0000     5.7083E+01     9.3420   2.5817    84.8265
 57      0.0000     0.0000E+00    0.0000E+00    1.445000E+07  0.00400  7.666E-03    0   0.8571   age078_m42            0.0000     7.7551E+01     9.9398   2.9978    81.6734
 58      0.0000     0.0000E+00    0.0000E+00    2.512000E+07  0.00400  5.070E-03    0   0.8174   age090_m42            0.0000     4.9730E+01     8.6891   2.4309    87.1721
 59      0.0000     0.0000E+00    0.0000E+00    4.000000E+07  0.00400  3.505E-03    0   0.7851   age104_m42            0.0000     3.9461E+01     6.8245   2.0687    91.7905
 60      0.0000     0.0000E+00    0.0000E+00    5.500000E+07  0.00400  3.059E-03    0   0.7629   age110_m42            0.0000     8.7401E+01     4.2699   2.0289    99.4305
 61      0.0000     0.0000E+00    0.0000E+00    1.015200E+08  0.00400  2.268E-03    0   0.7207   age116_m42            0.0000     3.0459E+02     6.1815   1.8079   109.0096
 62      0.0000     0.0000E+00    0.0000E+00    1.609000E+08  0.00400  1.720E-03    0   0.6930   age120_m42            0.0000     3.2114E+02     6.7628   1.6283   112.2460
 63      0.0000     0.0000E+00    0.0000E+00    2.861200E+08  0.00400  1.079E-03    0   0.6613   age125_m42            0.0000     2.9680E+02     7.3305   1.2438   114.2593
 64      0.0000     0.0000E+00    0.0000E+00    5.088000E+08  0.00400  6.261E-04    0   0.6313   age130_m42            0.0000     3.3644E+02     8.0694   1.0191   118.4571
 65      0.0000     0.0000E+00    0.0000E+00    9.047900E+08  0.00400  3.535E-04    0   0.6024   age135_m42            0.0000     1.7899E+02     6.4164   0.6701   117.1693
 66      0.0000     0.0000E+00    0.0000E+00    1.278050E+09  0.00400  2.677E-04    0   0.5837   age138_m42            0.0000     3.7402E+01     5.5208   0.0000   114.6331
 67      0.0000     0.0000E+00    0.0000E+00    1.434000E+09  0.00400  1.910E-04    0   0.5716   age139_m42            0.0000     5.7927E+01     5.4289   0.1739   115.5363
 68      0.0000     0.0000E+00    0.0000E+00    2.500000E+09  0.00400  9.818E-05    0   0.5463   age150_m42            0.0000     1.0616E+01     3.4121  -0.0221   108.4254
 69      0.0000     0.0000E+00    0.0000E+00    4.250000E+09  0.00400  5.491E-05    0   0.5269   age158_m42            0.0000     2.3914E+01     2.8300  -0.1103   104.4163
 70      0.0000     0.0000E+00    0.0000E+00    6.250000E+09  0.00400  3.857E-05    0   0.5151   age166_m42            0.0000     4.1808E+01     3.1523  -0.2301   103.0768
 71     15.8471     2.4291E+01    2.4417E+01    7.500000E+09  0.00400  3.243E-05    0   0.5110   age171_m42            0.0000     5.5206E+01     3.4453  -0.3090   102.6857
 72     14.5388     2.9815E+01    2.9489E+01    1.000000E+10  0.00400  2.424E-05    0   0.5028   age181_m42            0.0000     7.9151E+01     3.8280  -0.3882   102.2254
 73      0.8378     2.2118E+00    2.1436E+00    1.300000E+10  0.00400  1.883E-05    0   0.4927   age193_m42            0.0000     1.0372E+02     4.1104  -0.4248   101.9414
 74      0.0079     2.3166E-02    2.2416E-02    1.500000E+10  0.00400  1.685E-05    0   0.4919   age201_m42            0.0000     9.7075E+01     4.0265  -0.4186   101.8403
 75      0.0000     3.1619E-05    3.0314E-05    1.800000E+10  0.00400  1.452E-05    0   0.4874   age213_m42            0.0000     8.6003E+01     3.9020  -0.4009   101.9494
 76      0.0000     0.0000E+00    0.0000E+00    1.000000E+06  0.00800  1.286E-02    0   1.0000   age020_m52            0.0000     1.4330E+02    10.9727   3.9246    75.3378
 77      0.0000     0.0000E+00    0.0000E+00    3.160000E+06  0.00800  3.147E-02    0   0.9966   age045_m52            0.0000     1.2759E+02    10.8606   3.8360    76.7289
 78      0.0000     0.0000E+00    0.0000E+00    5.010000E+06  0.00800  2.664E-02    0   0.9443   age055_m52            0.0000     8.5161E+01     9.4148   3.4848    80.7011
 79      0.0000     0.0000E+00    0.0000E+00    6.610000E+06  0.00800  2.151E-02    0   0.9177   age061_m52            0.0000     5.2674E+01     8.0292   2.1568    87.6033
 80      0.0000     0.0000E+00    0.0000E+00    8.710000E+06  0.00800  1.628E-02    0   0.8948   age067_m52            0.0000     5.0681E+01     8.1262   2.5232    87.8005
 81      0.0000     0.0000E+00    0.0000E+00    1.000000E+07  0.00800  1.215E-02    0   0.8827   age070_m52            0.0000     5.9979E+01     8.7673   2.8758    85.6270
 82      0.0000     0.0000E+00    0.0000E+00    1.445000E+07  0.00800  8.739E-03    0   0.8552   age078_m52            0.0000     5.6156E+01     7.9065   2.8964    87.4096
 83      0.0000     0.0000E+00    0.0000E+00    2.512000E+07  0.00800  5.676E-03    0   0.8162   age090_m52            0.0000     8.0727E+01     6.6932   2.4524    93.0719
 84      0.0000     0.0000E+00    0.0000E+00    4.000000E+07  0.00800  3.939E-03    0   0.7841   age104_m52            0.0000     1.0570E+02     5.3061   2.2395    97.3788
 85      0.0000     0.0000E+00    0.0000E+00    5.500000E+07  0.00800  3.155E-03    0   0.7627   age110_m52            0.0000     1.3952E+02     4.7565   2.1669   100.6894
 86      0.0000     0.0000E+00    0.0000E+00    1.015200E+08  0.00800  2.206E-03    0   0.7226   age116_m52            0.0000     2.3047E+02     5.3898   1.9024   107.5804
 87      0.0000     0.0000E+00    0.0000E+00    1.609000E+08  0.00800  1.596E-03    0   0.6963   age120_m52            0.0000     2.6090E+02     6.0931   1.6430   111.1742
 88      0.0000     0.0000E+00    0.0000E+00    2.861200E+08  0.00800  1.002E-03    0   0.6665   age125_m52            0.0000     3.4658E+02     8.6664   1.2337   118.9634
 89      0.0000     0.0000E+00    0.0000E+00    5.088000E+08  0.00800  5.759E-04    0   0.6377   age130_m52            0.0000     3.1286E+02    10.1179   0.8133   126.8245
 90      0.0000     0.0000E+00    0.0000E+00    9.047900E+08  0.00800  2.972E-04    0   0.6086   age135_m52            0.0000     1.0096E+02     8.8327   0.3192   125.1106
 91      0.0000     0.0000E+00    0.0000E+00    1.278050E+09  0.00800  2.242E-04    0   0.5907   age138_m52            0.0000     3.0235E+01     6.1618  -0.1879   119.9411
 92      0.0000     0.0000E+00    0.0000E+00    1.434000E+09  0.00800  1.645E-04    0   0.5787   age139_m52            0.0000     2.4333E+01     5.4002  -0.0163   118.0756
 93      0.0000     0.0000E+00    0.0000E+00    2.500000E+09  0.00800  7.723E-05    0   0.5519   age150_m52            0.0000     4.1667E+01     4.4308  -0.2974   112.2625
 94      0.0032     3.8300E-03    4.0081E-03    4.250000E+09  0.00800  4.151E-05    0   0.5320   age158_m52            0.0000     5.2295E+01     4.0181  -0.3358   108.3836
 95      0.6623     1.0938E+00    1.1182E+00    6.250000E+09  0.00800  3.010E-05    0   0.5197   age166_m52            0.0000     9.9357E+01     4.5995  -0.5279   107.2832
 96      0.4904     9.8819E-01    9.9894E-01    7.500000E+09  0.00800  2.467E-05    0   0.5139   age171_m52            0.0000     1.1367E+02     4.8119  -0.5721   107.0732
 97      0.7790     2.0798E+00    2.0676E+00    1.000000E+10  0.00800  1.862E-05    0   0.5054   age181_m52            0.0000     1.5901E+02     5.5624  -0.7151   107.4445
