###################################################################
## OUTPUT of StarlightChains_v04.for    [Cid@UFSC - 01/Apr/2007] ##
###################################################################

## Some input info
NGC6553_a_1.cxt                          [arq_obs]
Base.BC03.S                              [arq_base]
NGC6553_a_1.msk                          [arq_masks]
StCv04.C11.config                        [arq_config]
  150                                    [N_base]
    0                                    [N_YAV_components = # of components with extra extinction!]
    0                                    [i_FitPowerLaw (1/0 = Yes/No)]
-9.99                                    [alpha_PowerLaw]
CCM                                      [red_law_option]
 1.458241                                [q_norm = A(l_norm)/A(V)]

## (Re)Sampling Parameters
 3359.00                                 [l_ini (A)]
 6428.00                                 [l_fin (A)]
    1.00                                 [dl    (A)]     (OBS: dl_cushion =    50.00 A)

## Normalization info
 4020.00                                 [l_norm (A) - for base]
 4010.00                                 [llow_norm (A) - window for f_obs]
 4060.00                                 [lupp_norm (A) - window for f_obs]
3.120735E-15                             [fobs_norm (in input units)]

## S/N
 4730.00                                 [llow_SN (A) - window for S/N]
 4780.00                                 [lupp_SN (A) - window for S/N]
  23.083                                 [S/N in S/N window]
  11.394                                 [S/N in norm. window]
 239.013                                 [S/N_err in S/N window]
 117.980                                 [S/N_err in norm. window]
  1.0000                                 [fscale_chi2]

## etc...
  2147483599                             [idum_orig]
  3066                                   [NOl_eff]
  1724                                   [Nl_eff]
  1342    NSIGMA                         [Ntot_cliped & clip_method]
  3011050                                [Nglobal_steps]
   7                                     [N_chains]
  46                                     [NEX0s_base = N_base in EX0s-fits]
 0   0   1       98   2.0   2.803E+02    [Clip-Bug, RC-Crash & Burn-In warning-flags, n_censored_weights, wei_nsig_threshold & wei_limit]
   103    103.578    103.562      0.016  [idt_all, wdt_TotTime, wdt_UsrTime & wdt_SysTime (sec)]

## Synthesis Results - Best model ##

 2.43981E+00                             [chi2/Nl_eff]
     2.24792                             [adev (%)]

    96.00374                             [sum-of-x (%)]
 8.39710E-14                             [Flux_tot (units of input spectrum!)]
 5.66639E-09                             [Mini_tot (???)]
 2.84091E-09                             [Mcor_tot (???)]

 -21.04                                  [v0_min  (km/s)]
   0.00                                  [vd_min  (km/s)]
 2.4817                                  [AV_min  (mag)]
 0.0000                                  [YAV_min (mag)]

# j     x_j(%)      Mini_j(%)     Mcor_j(%)     age_j(yr)     Z_j      (L/M)_j    YAV?  Mstars   component_j        a/Fe...       SSP_chi2r SSP_adev(%)   SSP_AV   SSP_x(%)
  1      3.0555     5.7799E-03    1.1528E-02    1.000000E+06  0.00010  8.160E-03    0   1.0000   age020_m22            0.0000     2.1750E+03    47.9036   4.0000   114.0448
  2      4.3890     1.4236E-03    2.8394E-03    3.160000E+06  0.00010  4.759E-02    0   1.0000   age045_m22            0.0000     1.6263E+02    10.1191   4.0000   102.7316
  3     14.4040     1.1508E-02    2.1995E-02    5.010000E+06  0.00010  1.932E-02    0   0.9582   age055_m22            0.0000     2.5240E+02    12.8363   4.0000    99.0089
  4      2.6894     4.1626E-03    7.7190E-03    6.610000E+06  0.00010  9.973E-03    0   0.9297   age061_m22            0.0000     2.1985E+03    47.2435   4.0000   117.5282
  5      2.7299     5.4797E-03    9.8695E-03    8.710000E+06  0.00010  7.690E-03    0   0.9030   age067_m22            0.0000     2.1669E+03    47.0478   4.0000   117.9255
  6      3.5310     8.5497E-03    1.5181E-02    1.000000E+07  0.00010  6.375E-03    0   0.8902   age070_m22            0.0000     2.1741E+03    47.2085   4.0000   118.0954
  7      1.2275     3.8876E-03    6.6601E-03    1.445000E+07  0.00010  4.874E-03    0   0.8589   age078_m22            0.0000     1.7985E+03    43.7788   4.0000   119.8911
  8      0.5031     1.8927E-03    3.0859E-03    2.512000E+07  0.00010  4.103E-03    0   0.8174   age090_m22            0.0000     1.1646E+03    36.0412   4.0000   121.8713
  9      0.0000     0.0000E+00    0.0000E+00    4.000000E+07  0.00010  3.654E-03    0   0.7830   age104_m22            0.0000     8.6251E+02    30.3302   4.0000   121.7922
 10      0.0000     0.0000E+00    0.0000E+00    5.500000E+07  0.00010  3.093E-03    0   0.7597   age110_m22            0.0000     7.6981E+02    28.4205   4.0000   121.3366
 11      0.0000     0.0000E+00    0.0000E+00    1.015200E+08  0.00010  2.431E-03    0   0.7138   age116_m22            0.0000     5.3794E+02    22.9731   4.0000   117.5736
 12      0.0000     0.0000E+00    0.0000E+00    1.609000E+08  0.00010  1.319E-03    0   0.6775   age120_m22            0.0000     3.0813E+02    16.0327   4.0000   109.6310
 13      0.0000     0.0000E+00    0.0000E+00    2.861200E+08  0.00010  1.075E-03    0   0.6412   age125_m22            0.0000     4.5490E+02    20.0558   4.0000   113.0341
 14      0.0000     0.0000E+00    0.0000E+00    5.088000E+08  0.00010  7.183E-04    0   0.6083   age130_m22            0.0000     4.3017E+02    18.0130   4.0000   108.9283
 15      0.0000     0.0000E+00    0.0000E+00    9.047900E+08  0.00010  4.524E-04    0   0.5785   age135_m22            0.0000     4.0575E+02    15.7692   4.0000   105.2671
 16      0.0000     0.0000E+00    0.0000E+00    1.278050E+09  0.00010  3.018E-04    0   0.5588   age138_m22            0.0000     2.8023E+02    12.1626   3.5683   102.2263
 17      0.0000     0.0000E+00    0.0000E+00    1.434000E+09  0.00010  2.691E-04    0   0.5532   age139_m22            0.0000     2.5639E+02    11.7282   3.4080   101.9763
 18      0.0000     0.0000E+00    0.0000E+00    2.500000E+09  0.00010  1.582E-04    0   0.5296   age150_m22            0.0000     2.4474E+02    11.2732   3.2883   103.3013
 19      0.0000     0.0000E+00    0.0000E+00    4.250000E+09  0.00010  1.007E-04    0   0.5110   age158_m22            0.0000     1.9768E+02    10.4506   3.1054   102.7607
 20      0.0000     0.0000E+00    0.0000E+00    6.250000E+09  0.00010  6.869E-05    0   0.4985   age166_m22            0.0000     1.5709E+02     9.6307   3.0133   101.2036
 21      0.0000     0.0000E+00    0.0000E+00    7.500000E+09  0.00010  5.873E-05    0   0.4931   age171_m22            0.0000     1.5205E+02     9.3243   2.9992   100.9524
 22      0.0000     0.0000E+00    0.0000E+00    1.000000E+10  0.00010  4.481E-05    0   0.4854   age181_m22            0.0000     1.4935E+02     9.3123   2.9594   100.6074
 23      0.0000     0.0000E+00    0.0000E+00    1.300000E+10  0.00010  3.489E-05    0   0.4791   age193_m22            0.0000     1.4321E+02     9.2607   2.9001   100.0897
 24      0.0002     8.6115E-05    8.1862E-05    1.500000E+10  0.00010  3.035E-05    0   0.4766   age201_m22            0.0000     1.3890E+02     9.1734   2.8594    99.9781
 25      0.0000     0.0000E+00    0.0000E+00    1.800000E+10  0.00010  2.510E-05    0   0.4735   age213_m22            0.0000     1.2954E+02     8.9588   2.7872    99.5485
 26      1.4908     2.7208E-03    5.4269E-03    1.000000E+06  0.00040  8.458E-03    0   1.0000   age020_m32            0.0000     2.2192E+03    48.1232   4.0000   114.9886
 27      0.1028     3.9926E-05    7.9635E-05    3.160000E+06  0.00040  3.973E-02    0   1.0000   age045_m32            0.0000     1.0378E+03    33.9325   4.0000   120.6351
 28      0.0000     0.0000E+00    0.0000E+00    5.010000E+06  0.00040  1.935E-02    0   0.9532   age055_m32            0.0000     1.4360E+03    38.6578   4.0000   117.8639
 29      1.0203     1.3081E-03    2.4116E-03    6.610000E+06  0.00040  1.204E-02    0   0.9243   age061_m32            0.0000     1.9127E+03    44.6128   4.0000   118.7377
 30      0.9833     1.6091E-03    2.8888E-03    8.710000E+06  0.00040  9.433E-03    0   0.9001   age067_m32            0.0000     1.8428E+03    44.0302   4.0000   119.4479
 31      1.1628     2.2288E-03    3.9463E-03    1.000000E+07  0.00040  8.053E-03    0   0.8877   age070_m32            0.0000     1.7751E+03    43.3494   4.0000   119.6365
 32      0.0000     0.0000E+00    0.0000E+00    1.445000E+07  0.00040  7.027E-03    0   0.8578   age078_m32            0.0000     1.0258E+03    33.3012   4.0000   118.9599
 33      0.0000     0.0000E+00    0.0000E+00    2.512000E+07  0.00040  4.707E-03    0   0.8166   age090_m32            0.0000     7.0775E+02    27.4940   4.0000   118.0491
 34      0.0000     0.0000E+00    0.0000E+00    4.000000E+07  0.00040  3.714E-03    0   0.7827   age104_m32            0.0000     5.6025E+02    23.6844   4.0000   117.2364
 35      0.0000     0.0000E+00    0.0000E+00    5.500000E+07  0.00040  2.982E-03    0   0.7593   age110_m32            0.0000     5.2936E+02    22.8307   4.0000   116.9209
 36      0.0000     0.0000E+00    0.0000E+00    1.015200E+08  0.00040  2.188E-03    0   0.7143   age116_m32            0.0000     4.4170E+02    20.6112   4.0000   114.6308
 37      0.0000     0.0000E+00    0.0000E+00    1.609000E+08  0.00040  1.690E-03    0   0.6856   age120_m32            0.0000     4.1256E+02    18.8428   4.0000   112.4212
 38      0.0000     0.0000E+00    0.0000E+00    2.861200E+08  0.00040  1.152E-03    0   0.6509   age125_m32            0.0000     3.9776E+02    17.1170   4.0000   108.2900
 39      0.0000     0.0000E+00    0.0000E+00    5.088000E+08  0.00040  7.331E-04    0   0.6182   age130_m32            0.0000     3.8901E+02    15.6339   4.0000   104.8011
 40      0.0000     0.0000E+00    0.0000E+00    9.047900E+08  0.00040  3.960E-04    0   0.5890   age135_m32            0.0000     2.8845E+02    13.0028   3.6375   101.5353
 41      0.0000     0.0000E+00    0.0000E+00    1.278050E+09  0.00040  2.854E-04    0   0.5687   age138_m32            0.0000     2.6055E+02    11.9353   3.3482   104.0327
 42      0.0000     0.0000E+00    0.0000E+00    1.434000E+09  0.00040  2.531E-04    0   0.5632   age139_m32            0.0000     2.5549E+02    11.6987   3.2920   104.0118
 43      0.0734     7.6191E-03    8.1850E-03    2.500000E+09  0.00040  1.488E-04    0   0.5386   age150_m32            0.0000     2.1664E+02    11.0348   3.0229   102.7446
 44      0.0000     0.0000E+00    0.0000E+00    4.250000E+09  0.00040  9.082E-05    0   0.5199   age158_m32            0.0000     1.4936E+02     9.6797   2.8795   101.1519
 45      0.0004     9.6439E-05    9.7640E-05    6.250000E+09  0.00040  6.362E-05    0   0.5076   age166_m32            0.0000     1.0794E+02     8.4122   2.8019    99.3759
 46      0.0000     0.0000E+00    0.0000E+00    7.500000E+09  0.00040  5.289E-05    0   0.5027   age171_m32            0.0000     9.9642E+01     8.2936   2.7561    98.3387
 47      0.0000     0.0000E+00    0.0000E+00    1.000000E+10  0.00040  3.972E-05    0   0.4948   age181_m32            0.0000     9.3503E+01     8.3327   2.6881    96.9996
 48      0.0000     0.0000E+00    0.0000E+00    1.300000E+10  0.00040  3.283E-05    0   0.4870   age193_m32            0.0000     1.1003E+02     8.8326   2.6680    98.9118
 49      0.0000     0.0000E+00    0.0000E+00    1.500000E+10  0.00040  2.925E-05    0   0.4854   age201_m32            0.0000     1.2203E+02     9.1292   2.6644   100.0098
 50      0.0000     0.0000E+00    0.0000E+00    1.800000E+10  0.00040  2.469E-05    0   0.4819   age213_m32            0.0000     1.2523E+02     9.1753   2.6328   100.2810
 51      3.3311     4.6157E-03    9.2064E-03    1.000000E+06  0.00400  1.114E-02    0   1.0000   age020_m42            0.0000     2.0690E+03    46.8110   4.0000   115.0782
 52      0.0000     0.0000E+00    0.0000E+00    3.160000E+06  0.00400  4.073E-02    0   0.9999   age045_m42            0.0000     6.8691E+02    27.7273   4.0000   118.1927
 53      0.0000     0.0000E+00    0.0000E+00    5.010000E+06  0.00400  2.534E-02    0   0.9488   age055_m42            0.0000     1.1637E+03    36.0084   4.0000   118.3120
 54      0.0000     0.0000E+00    0.0000E+00    6.610000E+06  0.00400  2.583E-02    0   0.9220   age061_m42            0.0000     5.5281E+02    24.3887   4.0000   115.6052
 55      0.0000     0.0000E+00    0.0000E+00    8.710000E+06  0.00400  1.706E-02    0   0.8983   age067_m42            0.0000     4.2591E+02    20.6321   4.0000   111.6736
 56      0.0000     0.0000E+00    0.0000E+00    1.000000E+07  0.00400  1.271E-02    0   0.8862   age070_m42            0.0000     4.3122E+02    20.1599   4.0000   110.8302
 57      0.0000     0.0000E+00    0.0000E+00    1.445000E+07  0.00400  7.666E-03    0   0.8571   age078_m42            0.0000     7.6145E+02    28.5394   4.0000   114.2184
 58      0.0000     0.0000E+00    0.0000E+00    2.512000E+07  0.00400  5.070E-03    0   0.8174   age090_m42            0.0000     3.2756E+02    17.3607   4.0000   110.0140
 59      0.0000     0.0000E+00    0.0000E+00    4.000000E+07  0.00400  3.505E-03    0   0.7851   age104_m42            0.0000     1.6852E+02    11.2990   4.0000   105.7828
 60      0.0000     0.0000E+00    0.0000E+00    5.500000E+07  0.00400  3.059E-03    0   0.7629   age110_m42            0.0000     2.5238E+02    14.7050   4.0000   109.8513
 61      0.0000     0.0000E+00    0.0000E+00    1.015200E+08  0.00400  2.268E-03    0   0.7207   age116_m42            0.0000     3.4597E+02    17.2135   4.0000   111.3032
 62      0.0000     0.0000E+00    0.0000E+00    1.609000E+08  0.00400  1.720E-03    0   0.6930   age120_m42            0.0000     3.2732E+02    15.9336   4.0000   109.0908
 63      0.0000     0.0000E+00    0.0000E+00    2.861200E+08  0.00400  1.079E-03    0   0.6613   age125_m42            0.0000     2.9837E+02    12.2781   3.9402   102.6135
 64      0.1111     2.7398E-03    3.4499E-03    5.088000E+08  0.00400  6.261E-04    0   0.6313   age130_m42            0.0000     3.2144E+02    12.6984   3.7524   105.1975
 65      0.1331     5.8107E-03    6.9817E-03    9.047900E+08  0.00400  3.535E-04    0   0.6024   age135_m42            0.0000     2.4250E+02    11.6659   3.3267   106.4566
 66      0.7950     4.5841E-02    5.3370E-02    1.278050E+09  0.00400  2.677E-04    0   0.5837   age138_m42            0.0000     1.3481E+02    10.2995   2.6297   104.3212
 67      0.0000     0.0000E+00    0.0000E+00    1.434000E+09  0.00400  1.910E-04    0   0.5716   age139_m42            0.0000     1.5721E+02    10.7538   2.7909   105.1486
 68      0.0008     1.1842E-04    1.2903E-04    2.500000E+09  0.00400  9.818E-05    0   0.5463   age150_m42            0.0000     9.3471E+01     9.9876   2.4679   101.7805
 69      0.0000     0.0000E+00    0.0000E+00    4.250000E+09  0.00400  5.491E-05    0   0.5269   age158_m42            0.0000     6.9604E+01     9.1552   2.3332    99.6659
 70      0.0000     0.0000E+00    0.0000E+00    6.250000E+09  0.00400  3.857E-05    0   0.5151   age166_m42            0.0000     6.6608E+01     9.4031   2.2003    98.3346
 71      0.0000     0.0000E+00    0.0000E+00    7.500000E+09  0.00400  3.243E-05    0   0.5110   age171_m42            0.0000     6.8695E+01     9.6388   2.1226    97.6726
 72      0.0000     0.0000E+00    0.0000E+00    1.000000E+10  0.00400  2.424E-05    0   0.5028   age181_m42            0.0000     7.2954E+01     9.9505   2.0445    96.9275
 73      0.3943     3.2325E-01    3.1766E-01    1.300000E+10  0.00400  1.883E-05    0   0.4927   age193_m42            0.0000     7.6170E+01    10.0495   2.0075    96.5894
 74      0.8412     7.7059E-01    7.5605E-01    1.500000E+10  0.00400  1.685E-05    0   0.4919   age201_m42            0.0000     7.4371E+01     9.8508   2.0162    96.5914
 75      1.2599     1.3393E+00    1.3021E+00    1.800000E+10  0.00400  1.452E-05    0   0.4874   age213_m42            0.0000     7.1495E+01     9.5319   2.0363    96.8821
 76      0.0000     0.0000E+00    0.0000E+00    1.000000E+06  0.00800  1.286E-02    0   1.0000   age020_m52            0.0000     2.0064E+03    46.2593   4.0000   117.0107
 77      0.0000     0.0000E+00    0.0000E+00    3.160000E+06  0.00800  3.147E-02    0   0.9966   age045_m52            0.0000     1.8847E+03    44.7650   4.0000   118.3737
 78      0.0000     0.0000E+00    0.0000E+00    5.010000E+06  0.00800  2.664E-02    0   0.9443   age055_m52            0.0000     1.3225E+03    38.4461   4.0000   118.9383
 79      0.0000     0.0000E+00    0.0000E+00    6.610000E+06  0.00800  2.151E-02    0   0.9177   age061_m52            0.0000     1.5848E+02    11.6100   4.0000   103.8563
 80      0.0000     0.0000E+00    0.0000E+00    8.710000E+06  0.00800  1.628E-02    0   0.8948   age067_m52            0.0000     3.8810E+02    19.6035   4.0000   111.8441
 81      0.0000     0.0000E+00    0.0000E+00    1.000000E+07  0.00800  1.215E-02    0   0.8827   age070_m52            0.0000     6.8022E+02    26.7778   4.0000   116.1794
 82      0.0000     0.0000E+00    0.0000E+00    1.445000E+07  0.00800  8.739E-03    0   0.8552   age078_m52            0.0000     7.2202E+02    27.7072   4.0000   117.8759
 83      0.0000     0.0000E+00    0.0000E+00    2.512000E+07  0.00800  5.676E-03    0   0.8162   age090_m52            0.0000     4.4363E+02    19.8174   4.0000   115.2855
 84      0.0000     0.0000E+00    0.0000E+00    4.000000E+07  0.00800  3.939E-03    0   0.7841   age104_m52            0.0000     3.6314E+02    17.4198   4.0000   113.7195
 85      0.0000     0.0000E+00    0.0000E+00    5.500000E+07  0.00800  3.155E-03    0   0.7627   age110_m52            0.0000     3.6557E+02    17.8437   4.0000   114.1093
 86      0.0000     0.0000E+00    0.0000E+00    1.015200E+08  0.00800  2.206E-03    0   0.7226   age116_m52            0.0000     3.3172E+02    17.1908   4.0000   112.8125
 87      0.0000     0.0000E+00    0.0000E+00    1.609000E+08  0.00800  1.596E-03    0   0.6963   age120_m52            0.0000     3.0064E+02    15.0697   4.0000   109.0943
 88      0.0000     0.0000E+00    0.0000E+00    2.861200E+08  0.00800  1.002E-03    0   0.6665   age125_m52            0.0000     3.2777E+02    13.2652   3.9881   104.1665
 89      0.0000     0.0000E+00    0.0000E+00    5.088000E+08  0.00800  5.759E-04    0   0.6377   age130_m52            0.0000     3.2952E+02    13.8766   3.6393   107.4728
 90      0.0002     1.1639E-05    1.4128E-05    9.047900E+08  0.00800  2.972E-04    0   0.6086   age135_m52            0.0000     2.3543E+02    13.3104   3.0652   106.9076
 91      0.5491     3.7807E-02    4.4544E-02    1.278050E+09  0.00800  2.242E-04    0   0.5907   age138_m52            0.0000     1.3449E+02    11.3095   2.4369   106.8252
 92      0.0007     6.6507E-05    7.6766E-05    1.434000E+09  0.00800  1.645E-04    0   0.5787   age139_m52            0.0000     1.2752E+02    11.0022   2.5721   106.7174
 93      0.0000     0.0000E+00    0.0000E+00    2.500000E+09  0.00800  7.723E-05    0   0.5519   age150_m52            0.0000     9.0212E+01    10.7437   2.1893   104.1332
 94      1.0864     4.0400E-01    4.2869E-01    4.250000E+09  0.00800  4.151E-05    0   0.5320   age158_m52            0.0000     8.0694E+01    10.6790   2.1034   102.0447
 95      2.6197     1.3434E+00    1.3926E+00    6.250000E+09  0.00800  3.010E-05    0   0.5197   age166_m52            0.0000     8.3607E+01    11.2497   1.9010   100.6579
 96      0.5967     3.7338E-01    3.8272E-01    7.500000E+09  0.00800  2.467E-05    0   0.5139   age171_m52            0.0000     8.6520E+01    11.4519   1.8595   100.1819
 97      7.6232     6.3197E+00    6.3706E+00    1.000000E+10  0.00800  1.862E-05    0   0.5054   age181_m52            0.0000     9.9198E+01    12.1790   1.7257    99.6084
