###################################################################
## OUTPUT of StarlightChains_v04.for    [Cid@UFSC - 01/Apr/2007] ##
###################################################################

## Some input info
NGC6316_b_1.cxt                          [arq_obs]
Base.BC03.S                              [arq_base]
NGC6316_b_1.msk                          [arq_masks]
StCv04.C11.config                        [arq_config]
  150                                    [N_base]
    0                                    [N_YAV_components = # of components with extra extinction!]
    0                                    [i_FitPowerLaw (1/0 = Yes/No)]
-9.99                                    [alpha_PowerLaw]
CCM                                      [red_law_option]
 1.458241                                [q_norm = A(l_norm)/A(V)]

## (Re)Sampling Parameters
 3359.00                                 [l_ini (A)]
 6428.00                                 [l_fin (A)]
    1.00                                 [dl    (A)]     (OBS: dl_cushion =    50.00 A)

## Normalization info
 4020.00                                 [l_norm (A) - for base]
 4010.00                                 [llow_norm (A) - window for f_obs]
 4060.00                                 [lupp_norm (A) - window for f_obs]
4.941922E-15                             [fobs_norm (in input units)]

## S/N
 4730.00                                 [llow_SN (A) - window for S/N]
 4780.00                                 [lupp_SN (A) - window for S/N]
  40.026                                 [S/N in S/N window]
  23.956                                 [S/N in norm. window]
 311.877                                 [S/N_err in S/N window]
 186.662                                 [S/N_err in norm. window]
  1.0000                                 [fscale_chi2]

## etc...
  2147483617                             [idum_orig]
  3069                                   [NOl_eff]
  1045                                   [Nl_eff]
  2024    NSIGMA                         [Ntot_cliped & clip_method]
  2769060                                [Nglobal_steps]
   7                                     [N_chains]
  45                                     [NEX0s_base = N_base in EX0s-fits]
 0   0   1      129   2.0   4.321E+02    [Clip-Bug, RC-Crash & Burn-In warning-flags, n_censored_weights, wei_nsig_threshold & wei_limit]
    95     94.945     94.941      0.004  [idt_all, wdt_TotTime, wdt_UsrTime & wdt_SysTime (sec)]

## Synthesis Results - Best model ##

 3.06663E+00                             [chi2/Nl_eff]
     2.19380                             [adev (%)]

    95.94021                             [sum-of-x (%)]
 5.52475E-14                             [Flux_tot (units of input spectrum!)]
 2.15854E-09                             [Mini_tot (???)]
 1.07776E-09                             [Mcor_tot (???)]

  -7.73                                  [v0_min  (km/s)]
  28.24                                  [vd_min  (km/s)]
 1.8283                                  [AV_min  (mag)]
 0.0000                                  [YAV_min (mag)]

# j     x_j(%)      Mini_j(%)     Mcor_j(%)     age_j(yr)     Z_j      (L/M)_j    YAV?  Mstars   component_j        a/Fe...       SSP_chi2r SSP_adev(%)   SSP_AV   SSP_x(%)
  1      0.8654     2.8292E-03    5.6662E-03    1.000000E+06  0.00010  8.160E-03    0   1.0000   age020_m22            0.0000     3.0140E+03    35.1032   4.0000    97.1073
  2      3.0831     1.7283E-03    3.4614E-03    3.160000E+06  0.00010  4.759E-02    0   1.0000   age045_m22            0.0000     2.3096E+02     5.8446   3.4413    99.3769
  3      6.7725     9.3517E-03    1.7947E-02    5.010000E+06  0.00010  1.932E-02    0   0.9582   age055_m22            0.0000     3.3123E+02    11.1351   3.9114    86.6475
  4      0.7406     1.9810E-03    3.6887E-03    6.610000E+06  0.00010  9.973E-03    0   0.9297   age061_m22            0.0000     3.0214E+03    34.2914   4.0000   100.0188
  5      1.3128     4.5544E-03    8.2367E-03    8.710000E+06  0.00010  7.690E-03    0   0.9030   age067_m22            0.0000     2.9326E+03    33.9781   4.0000   100.4366
  6      1.2771     5.3443E-03    9.5284E-03    1.000000E+07  0.00010  6.375E-03    0   0.8902   age070_m22            0.0000     2.9090E+03    34.0472   4.0000   100.6457
  7      0.5229     2.8620E-03    4.9232E-03    1.445000E+07  0.00010  4.874E-03    0   0.8589   age078_m22            0.0000     2.1507E+03    30.0275   4.0000   102.6495
  8      0.0000     0.0000E+00    0.0000E+00    2.512000E+07  0.00010  4.103E-03    0   0.8174   age090_m22            0.0000     1.0019E+03    21.0515   4.0000   105.3217
  9      0.0000     0.0000E+00    0.0000E+00    4.000000E+07  0.00010  3.654E-03    0   0.7830   age104_m22            0.0000     6.1799E+02    14.8162   4.0000   105.8175
 10      0.0000     0.0000E+00    0.0000E+00    5.500000E+07  0.00010  3.093E-03    0   0.7597   age110_m22            0.0000     5.5120E+02    13.2784   4.0000   105.3950
 11      0.0008     8.4149E-06    1.2030E-05    1.015200E+08  0.00010  2.431E-03    0   0.7138   age116_m22            0.0000     5.2403E+02     9.6048   4.0000   102.1139
 12      0.0000     0.0000E+00    0.0000E+00    1.609000E+08  0.00010  1.319E-03    0   0.6775   age120_m22            0.0000     5.2309E+02     9.1642   3.5624   103.3107
 13      0.0000     0.0000E+00    0.0000E+00    2.861200E+08  0.00010  1.075E-03    0   0.6412   age125_m22            0.0000     9.5438E+02    13.3712   3.5683   106.2425
 14      0.0000     0.0000E+00    0.0000E+00    5.088000E+08  0.00010  7.183E-04    0   0.6083   age130_m22            0.0000     1.0951E+03    14.5196   3.3281   107.4663
 15      0.0000     0.0000E+00    0.0000E+00    9.047900E+08  0.00010  4.524E-04    0   0.5785   age135_m22            0.0000     1.1005E+03    14.7202   3.1226   108.6307
 16      0.0000     0.0000E+00    0.0000E+00    1.278050E+09  0.00010  3.018E-04    0   0.5588   age138_m22            0.0000     6.6837E+02    11.6166   2.6319   106.9091
 17      0.0000     0.0000E+00    0.0000E+00    1.434000E+09  0.00010  2.691E-04    0   0.5532   age139_m22            0.0000     5.8671E+02    10.9769   2.4848   106.3036
 18      0.0000     0.0000E+00    0.0000E+00    2.500000E+09  0.00010  1.582E-04    0   0.5296   age150_m22            0.0000     5.4168E+02    10.2410   2.3903   107.2131
 19      0.0000     0.0000E+00    0.0000E+00    4.250000E+09  0.00010  1.007E-04    0   0.5110   age158_m22            0.0000     3.8438E+02     8.8697   2.2387   105.8753
 20      0.0000     0.0000E+00    0.0000E+00    6.250000E+09  0.00010  6.869E-05    0   0.4985   age166_m22            0.0000     2.5667E+02     7.3848   2.1861   103.3421
 21      0.7356     3.3412E-01    3.2997E-01    7.500000E+09  0.00010  5.873E-05    0   0.4931   age171_m22            0.0000     2.4225E+02     6.9871   2.1847   102.8322
 22      0.0000     0.0000E+00    0.0000E+00    1.000000E+10  0.00010  4.481E-05    0   0.4854   age181_m22            0.0000     2.3559E+02     6.9538   2.1455   102.4317
 23      0.0000     0.0000E+00    0.0000E+00    1.300000E+10  0.00010  3.489E-05    0   0.4791   age193_m22            0.0000     2.1973E+02     6.8553   2.0865   101.8479
 24      0.0930     8.1743E-02    7.8026E-02    1.500000E+10  0.00010  3.035E-05    0   0.4766   age201_m22            0.0000     2.0962E+02     6.7400   2.0481   101.6639
 25      0.0000     0.0000E+00    0.0000E+00    1.800000E+10  0.00010  2.510E-05    0   0.4735   age213_m22            0.0000     1.8682E+02     6.4380   1.9823   101.0501
 26      2.7608     8.7079E-03    1.7440E-02    1.000000E+06  0.00040  8.458E-03    0   1.0000   age020_m32            0.0000     3.0726E+03    35.2710   4.0000    97.8767
 27      0.0000     0.0000E+00    0.0000E+00    3.160000E+06  0.00040  3.973E-02    0   1.0000   age045_m32            0.0000     8.6984E+02    19.0071   4.0000   104.2827
 28      0.5409     7.4576E-04    1.4237E-03    5.010000E+06  0.00040  1.935E-02    0   0.9532   age055_m32            0.0000     1.6154E+03    24.8584   4.0000   101.0785
 29      0.3585     7.9438E-04    1.4705E-03    6.610000E+06  0.00040  1.204E-02    0   0.9243   age061_m32            0.0000     2.4454E+03    31.2261   4.0000   101.4367
 30      0.6774     1.9158E-03    3.4536E-03    8.710000E+06  0.00040  9.433E-03    0   0.9001   age067_m32            0.0000     2.2801E+03    30.4367   4.0000   102.2082
 31      0.5877     1.9469E-03    3.4613E-03    1.000000E+07  0.00040  8.053E-03    0   0.8877   age070_m32            0.0000     2.1507E+03    29.6602   4.0000   102.4336
 32      0.0000     0.0000E+00    0.0000E+00    1.445000E+07  0.00040  7.027E-03    0   0.8578   age078_m32            0.0000     8.9045E+02    18.5473   4.0000   102.6772
 33      0.0000     0.0000E+00    0.0000E+00    2.512000E+07  0.00040  4.707E-03    0   0.8166   age090_m32            0.0000     4.7930E+02    12.2741   4.0000   102.1343
 34      0.0000     0.0000E+00    0.0000E+00    4.000000E+07  0.00040  3.714E-03    0   0.7827   age104_m32            0.0000     3.9206E+02     9.0500   4.0000   101.6794
 35      0.0000     0.0000E+00    0.0000E+00    5.500000E+07  0.00040  2.982E-03    0   0.7593   age110_m32            0.0000     4.1214E+02     8.7015   4.0000   101.4540
 36      0.0000     0.0000E+00    0.0000E+00    1.015200E+08  0.00040  2.188E-03    0   0.7143   age116_m32            0.0000     6.3992E+02    10.6855   3.7871   103.4768
 37      0.0000     0.0000E+00    0.0000E+00    1.609000E+08  0.00040  1.690E-03    0   0.6856   age120_m32            0.0000     8.2563E+02    12.0829   3.5765   105.6867
 38      0.0000     0.0000E+00    0.0000E+00    2.861200E+08  0.00040  1.152E-03    0   0.6509   age125_m32            0.0000     9.8734E+02    13.6963   3.3208   107.1148
 39      0.0000     0.0000E+00    0.0000E+00    5.088000E+08  0.00040  7.331E-04    0   0.6182   age130_m32            0.0000     1.0398E+03    14.3620   3.1427   107.6866
 40      0.0000     0.0000E+00    0.0000E+00    9.047900E+08  0.00040  3.960E-04    0   0.5890   age135_m32            0.0000     6.7357E+02    12.3402   2.6881   106.4130
 41      0.0000     0.0000E+00    0.0000E+00    1.278050E+09  0.00040  2.854E-04    0   0.5687   age138_m32            0.0000     5.9146E+02    11.0427   2.4332   108.3412
 42      0.0000     0.0000E+00    0.0000E+00    1.434000E+09  0.00040  2.531E-04    0   0.5632   age139_m32            0.0000     5.8145E+02    10.8278   2.3821   108.1918
 43      0.0014     2.4318E-04    2.6232E-04    2.500000E+09  0.00040  1.488E-04    0   0.5386   age150_m32            0.0000     4.6083E+02     9.9856   2.1272   106.4153
 44      0.0000     0.0000E+00    0.0000E+00    4.250000E+09  0.00040  9.082E-05    0   0.5199   age158_m32            0.0000     2.4757E+02     7.6359   2.0413   103.3920
 45      7.2694     3.0483E+00    3.0990E+00    6.250000E+09  0.00040  6.362E-05    0   0.5076   age166_m32            0.0000     1.3428E+02     5.5795   2.0207   100.3283
 46      6.2377     3.1463E+00    3.1677E+00    7.500000E+09  0.00040  5.289E-05    0   0.5027   age171_m32            0.0000     1.1392E+02     5.3113   1.9823    99.0649
 47      8.6842     5.8327E+00    5.7801E+00    1.000000E+10  0.00040  3.972E-05    0   0.4948   age181_m32            0.0000     9.8445E+01     5.2470   1.9134    97.6513
 48      0.0000     0.0000E+00    0.0000E+00    1.300000E+10  0.00040  3.283E-05    0   0.4870   age193_m32            0.0000     1.4180E+02     6.1692   1.8640   100.2186
 49      0.0000     0.0000E+00    0.0000E+00    1.500000E+10  0.00040  2.925E-05    0   0.4854   age201_m32            0.0000     1.7678E+02     6.7717   1.8426   101.7287
 50      0.0016     1.7135E-03    1.6537E-03    1.800000E+10  0.00040  2.469E-05    0   0.4819   age213_m32            0.0000     1.8960E+02     6.9927   1.8028   102.1639
 51      0.8262     1.9785E-03    3.9625E-03    1.000000E+06  0.00400  1.114E-02    0   1.0000   age020_m42            0.0000     2.8043E+03    33.8280   4.0000    97.9936
 52      0.7231     4.7360E-04    9.4844E-04    3.160000E+06  0.00400  4.073E-02    0   0.9999   age045_m42            0.0000     4.2232E+02    12.5566   4.0000   102.2745
 53      0.0000     0.0000E+00    0.0000E+00    5.010000E+06  0.00400  2.534E-02    0   0.9488   age055_m42            0.0000     1.1144E+03    21.6503   4.0000   101.8492
 54      0.0000     0.0000E+00    0.0000E+00    6.610000E+06  0.00400  2.583E-02    0   0.9220   age061_m42            0.0000     3.3867E+02     9.4445   4.0000   100.2181
 55      0.0000     0.0000E+00    0.0000E+00    8.710000E+06  0.00400  1.706E-02    0   0.8983   age067_m42            0.0000     2.6504E+02     7.1601   4.0000    96.6190
 56      0.6108     1.2821E-03    2.2755E-03    1.000000E+07  0.00400  1.271E-02    0   0.8862   age070_m42            0.0000     2.8331E+02     8.2625   4.0000    95.7595
 57      0.0000     0.0000E+00    0.0000E+00    1.445000E+07  0.00400  7.666E-03    0   0.8571   age078_m42            0.0000     6.2840E+02    14.2194   4.0000    98.2476
 58      0.0000     0.0000E+00    0.0000E+00    2.512000E+07  0.00400  5.070E-03    0   0.8174   age090_m42            0.0000     2.2357E+02     7.8194   4.0000    94.9841
 59      0.0000     0.0000E+00    0.0000E+00    4.000000E+07  0.00400  3.505E-03    0   0.7851   age104_m42            0.0000     1.8164E+02     6.5069   3.6843    97.0340
 60      0.0000     0.0000E+00    0.0000E+00    5.500000E+07  0.00400  3.059E-03    0   0.7629   age110_m42            0.0000     3.2796E+02     6.7163   3.6642   101.2846
 61      0.0000     0.0000E+00    0.0000E+00    1.015200E+08  0.00400  2.268E-03    0   0.7207   age116_m42            0.0000     7.1919E+02    11.4901   3.4916   106.3314
 62      0.0000     0.0000E+00    0.0000E+00    1.609000E+08  0.00400  1.720E-03    0   0.6930   age120_m42            0.0000     7.7132E+02    12.3551   3.3194   108.0314
 63      0.0000     0.0000E+00    0.0000E+00    2.861200E+08  0.00400  1.079E-03    0   0.6613   age125_m42            0.0000     7.7117E+02    12.1688   2.9859   107.7275
 64      0.0000     0.0000E+00    0.0000E+00    5.088000E+08  0.00400  6.261E-04    0   0.6313   age130_m42            0.0000     8.6125E+02    12.7122   2.7968   110.5812
 65      0.0000     0.0000E+00    0.0000E+00    9.047900E+08  0.00400  3.535E-04    0   0.6024   age135_m42            0.0000     5.8795E+02    11.0392   2.4058   110.9073
 66      0.0000     0.0000E+00    0.0000E+00    1.278050E+09  0.00400  2.677E-04    0   0.5837   age138_m42            0.0000     2.7586E+02     9.5616   1.7302   107.3751
 67      0.0000     0.0000E+00    0.0000E+00    1.434000E+09  0.00400  1.910E-04    0   0.5716   age139_m42            0.0000     3.3543E+02     9.9348   1.8796   108.6764
 68      0.0000     0.0000E+00    0.0000E+00    2.500000E+09  0.00400  9.818E-05    0   0.5463   age150_m42            0.0000     1.3946E+02     8.1576   1.6055   103.7343
 69      0.3884     1.8868E-01    1.9911E-01    4.250000E+09  0.00400  5.491E-05    0   0.5269   age158_m42            0.0000     8.6919E+01     7.0125   1.5032   100.7474
 70      0.0000     0.0000E+00    0.0000E+00    6.250000E+09  0.00400  3.857E-05    0   0.5151   age166_m42            0.0000     8.7429E+01     7.3694   1.3689    99.2551
 71      0.4831     3.9738E-01    4.0669E-01    7.500000E+09  0.00400  3.243E-05    0   0.5110   age171_m42            0.0000     9.8510E+01     7.7531   1.2884    98.5356
 72      1.5122     1.6643E+00    1.6760E+00    1.000000E+10  0.00400  2.424E-05    0   0.5028   age181_m42            0.0000     1.1643E+02     8.2278   1.2085    97.6983
 73      3.3973     4.8133E+00    4.7496E+00    1.300000E+10  0.00400  1.883E-05    0   0.4927   age193_m42            0.0000     1.3277E+02     8.4551   1.1757    97.1971
 74      4.3209     6.8412E+00    6.7397E+00    1.500000E+10  0.00400  1.685E-05    0   0.4919   age201_m42            0.0000     1.2931E+02     8.2783   1.1853    97.2015
 75      2.5592     4.7022E+00    4.5901E+00    1.800000E+10  0.00400  1.452E-05    0   0.4874   age213_m42            0.0000     1.2345E+02     7.9858   1.2077    97.4841
 76      0.0000     0.0000E+00    0.0000E+00    1.000000E+06  0.00800  1.286E-02    0   1.0000   age020_m52            0.0000     2.6325E+03    32.9995   4.0000    99.7201
 77      0.0000     0.0000E+00    0.0000E+00    3.160000E+06  0.00800  3.147E-02    0   0.9966   age045_m52            0.0000     2.4155E+03    31.3739   4.0000   101.0238
 78      0.0000     0.0000E+00    0.0000E+00    5.010000E+06  0.00800  2.664E-02    0   0.9443   age055_m52            0.0000     1.4151E+03    24.3653   4.0000   102.0435
 79      0.0000     0.0000E+00    0.0000E+00    6.610000E+06  0.00800  2.151E-02    0   0.9177   age061_m52            0.0000     1.7653E+02     7.0478   3.7236    94.3992
 80      0.0000     0.0000E+00    0.0000E+00    8.710000E+06  0.00800  1.628E-02    0   0.8948   age067_m52            0.0000     2.5331E+02     7.4558   4.0000    96.5388
 81      0.0000     0.0000E+00    0.0000E+00    1.000000E+07  0.00800  1.215E-02    0   0.8827   age070_m52            0.0000     4.9534E+02    12.0671   4.0000   100.1237
 82      0.0000     0.0000E+00    0.0000E+00    1.445000E+07  0.00800  8.739E-03    0   0.8552   age078_m52            0.0000     5.2058E+02    12.7623   4.0000   101.7803
 83      0.0000     0.0000E+00    0.0000E+00    2.512000E+07  0.00800  5.676E-03    0   0.8162   age090_m52            0.0000     3.3168E+02     7.0266   4.0000    99.8347
 84      0.0000     0.0000E+00    0.0000E+00    4.000000E+07  0.00800  3.939E-03    0   0.7841   age104_m52            0.0000     3.7358E+02     6.8210   3.8747   100.7389
 85      0.0000     0.0000E+00    0.0000E+00    5.500000E+07  0.00800  3.155E-03    0   0.7627   age110_m52            0.0000     4.4658E+02     7.8166   3.8027   102.4934
 86      0.0000     0.0000E+00    0.0000E+00    1.015200E+08  0.00800  2.206E-03    0   0.7226   age116_m52            0.0000     6.0587E+02    10.5240   3.5469   106.5655
 87      0.0000     0.0000E+00    0.0000E+00    1.609000E+08  0.00800  1.596E-03    0   0.6963   age120_m52            0.0000     6.8119E+02    11.4081   3.3171   108.0570
 88      0.0000     0.0000E+00    0.0000E+00    2.861200E+08  0.00800  1.002E-03    0   0.6665   age125_m52            0.0000     8.8561E+02    13.5358   3.0015   110.0262
 89      0.0000     0.0000E+00    0.0000E+00    5.088000E+08  0.00800  5.759E-04    0   0.6377   age130_m52            0.0000     9.1552E+02    14.4279   2.6370   113.6539
 90      0.0000     0.0000E+00    0.0000E+00    9.047900E+08  0.00800  2.972E-04    0   0.6086   age135_m52            0.0000     5.7036E+02    13.1169   2.0865   112.0049
 91      0.0000     0.0000E+00    0.0000E+00    1.278050E+09  0.00800  2.242E-04    0   0.5907   age138_m52            0.0000     2.7008E+02    10.6645   1.5123   110.0758
 92      0.0000     0.0000E+00    0.0000E+00    1.434000E+09  0.00800  1.645E-04    0   0.5787   age139_m52            0.0000     2.4154E+02    10.0194   1.6616   109.7843
 93      0.0009     3.1069E-04    3.4342E-04    2.500000E+09  0.00800  7.723E-05    0   0.5519   age150_m52            0.0000     1.3854E+02     9.0883   1.3169   105.9557
 94      0.0448     2.8790E-02    3.0675E-02    4.250000E+09  0.00800  4.151E-05    0   0.5320   age158_m52            0.0000     1.1500E+02     8.7372   1.2497   103.3218
 95      1.3425     1.1898E+00    1.2384E+00    6.250000E+09  0.00800  3.010E-05    0   0.5197   age166_m52            0.0000     1.3157E+02     9.4335   1.0479   101.6648
 96      1.7771     1.9217E+00    1.9779E+00    7.500000E+09  0.00800  2.467E-05    0   0.5139   age171_m52            0.0000     1.4031E+02     9.7114   1.0027   101.2099
 97     13.2224     1.8944E+01    1.9176E+01    1.000000E+10  0.00800  1.862E-05    0   0.5054   age181_m52            0.0000     1.7588E+02    10.6637   0.8587   100.6870
