###################################################################
## OUTPUT of StarlightChains_v04.for    [Cid@UFSC - 01/Apr/2007] ##
###################################################################

## Some input info
NGC6528_c_1.cxt                          [arq_obs]
Base.BC03.S                              [arq_base]
NGC6528_c_1.msk                          [arq_masks]
StCv04.C11.config                        [arq_config]
  150                                    [N_base]
    0                                    [N_YAV_components = # of components with extra extinction!]
    0                                    [i_FitPowerLaw (1/0 = Yes/No)]
-9.99                                    [alpha_PowerLaw]
CCM                                      [red_law_option]
 1.458241                                [q_norm = A(l_norm)/A(V)]

## (Re)Sampling Parameters
 3359.00                                 [l_ini (A)]
 6428.00                                 [l_fin (A)]
    1.00                                 [dl    (A)]     (OBS: dl_cushion =    50.00 A)

## Normalization info
 4020.00                                 [l_norm (A) - for base]
 4010.00                                 [llow_norm (A) - window for f_obs]
 4060.00                                 [lupp_norm (A) - window for f_obs]
3.081180E-15                             [fobs_norm (in input units)]

## S/N
 4730.00                                 [llow_SN (A) - window for S/N]
 4780.00                                 [lupp_SN (A) - window for S/N]
  26.871                                 [S/N in S/N window]
  13.196                                 [S/N in norm. window]
 236.951                                 [S/N_err in S/N window]
 116.363                                 [S/N_err in norm. window]
  1.0000                                 [fscale_chi2]

## etc...
  2147483602                             [idum_orig]
  3069                                   [NOl_eff]
  1274                                   [Nl_eff]
  1795    NSIGMA                         [Ntot_cliped & clip_method]
  2756320                                [Nglobal_steps]
   7                                     [N_chains]
  43                                     [NEX0s_base = N_base in EX0s-fits]
 0   0   1       80   2.0   2.880E+02    [Clip-Bug, RC-Crash & Burn-In warning-flags, n_censored_weights, wei_nsig_threshold & wei_limit]
    89     89.133     89.129      0.004  [idt_all, wdt_TotTime, wdt_UsrTime & wdt_SysTime (sec)]

## Synthesis Results - Best model ##

 2.33055E+00                             [chi2/Nl_eff]
     2.44229                             [adev (%)]

   101.31925                             [sum-of-x (%)]
 3.01496E-14                             [Flux_tot (units of input spectrum!)]
 2.89087E-09                             [Mini_tot (???)]
 1.44099E-09                             [Mcor_tot (???)]

 -33.84                                  [v0_min  (km/s)]
 104.96                                  [vd_min  (km/s)]
 1.6885                                  [AV_min  (mag)]
 0.0000                                  [YAV_min (mag)]

# j     x_j(%)      Mini_j(%)     Mcor_j(%)     age_j(yr)     Z_j      (L/M)_j    YAV?  Mstars   component_j        a/Fe...       SSP_chi2r SSP_adev(%)   SSP_AV   SSP_x(%)
  1      1.4165     1.7868E-03    3.5846E-03    1.000000E+06  0.00010  8.160E-03    0   1.0000   age020_m22            0.0000     2.8583E+03    54.2355   4.0000   103.8786
  2      1.3715     2.9665E-04    5.9513E-04    3.160000E+06  0.00010  4.759E-02    0   1.0000   age045_m22            0.0000     2.4594E+02     9.2061   4.0000   101.1840
  3      9.7670     5.2037E-03    1.0003E-02    5.010000E+06  0.00010  1.932E-02    0   0.9582   age055_m22            0.0000     4.5110E+02    15.0806   4.0000    95.5981
  4      0.3174     3.2760E-04    6.1101E-04    6.610000E+06  0.00010  9.973E-03    0   0.9297   age061_m22            0.0000     2.8409E+03    53.1889   4.0000   107.0971
  5      0.0000     0.0000E+00    0.0000E+00    8.710000E+06  0.00010  7.690E-03    0   0.9030   age067_m22            0.0000     2.7925E+03    52.9314   4.0000   107.6708
  6      0.8293     1.3391E-03    2.3915E-03    1.000000E+07  0.00010  6.375E-03    0   0.8902   age070_m22            0.0000     2.7882E+03    53.0586   4.0000   107.9252
  7      0.5931     1.2527E-03    2.1585E-03    1.445000E+07  0.00010  4.874E-03    0   0.8589   age078_m22            0.0000     2.3040E+03    49.0980   4.0000   111.2177
  8      0.0000     0.0000E+00    0.0000E+00    2.512000E+07  0.00010  4.103E-03    0   0.8174   age090_m22            0.0000     1.4446E+03    39.5530   4.0000   116.4516
  9      0.3133     8.8248E-04    1.3862E-03    4.000000E+07  0.00010  3.654E-03    0   0.7830   age104_m22            0.0000     1.0142E+03    31.9088   4.0000   118.5353
 10      0.0000     0.0000E+00    0.0000E+00    5.500000E+07  0.00010  3.093E-03    0   0.7597   age110_m22            0.0000     8.8545E+02    29.2174   4.0000   118.6939
 11      0.3069     1.2996E-03    1.8611E-03    1.015200E+08  0.00010  2.431E-03    0   0.7138   age116_m22            0.0000     6.1139E+02    21.3670   4.0000   116.0251
 12      0.0000     0.0000E+00    0.0000E+00    1.609000E+08  0.00010  1.319E-03    0   0.6775   age120_m22            0.0000     3.6882E+02    12.7477   4.0000   108.6425
 13      0.0000     0.0000E+00    0.0000E+00    2.861200E+08  0.00010  1.075E-03    0   0.6412   age125_m22            0.0000     5.0336E+02    17.1777   4.0000   112.6233
 14      0.0000     0.0000E+00    0.0000E+00    5.088000E+08  0.00010  7.183E-04    0   0.6083   age130_m22            0.0000     4.9463E+02    15.3163   4.0000   108.7177
 15      0.0000     0.0000E+00    0.0000E+00    9.047900E+08  0.00010  4.524E-04    0   0.5785   age135_m22            0.0000     4.9005E+02    14.7969   3.8922   107.6951
 16      0.0000     0.0000E+00    0.0000E+00    1.278050E+09  0.00010  3.018E-04    0   0.5588   age138_m22            0.0000     3.4241E+02    12.1587   3.3687   106.5339
 17      0.0000     0.0000E+00    0.0000E+00    1.434000E+09  0.00010  2.691E-04    0   0.5532   age139_m22            0.0000     3.1331E+02    11.6426   3.2136   106.1016
 18      0.0000     0.0000E+00    0.0000E+00    2.500000E+09  0.00010  1.582E-04    0   0.5296   age150_m22            0.0000     3.0835E+02    11.4711   3.1036   107.1247
 19      0.4471     4.5701E-02    4.6851E-02    4.250000E+09  0.00010  1.007E-04    0   0.5110   age158_m22            0.0000     2.5406E+02    10.2889   2.9439   105.8850
 20      0.0000     0.0000E+00    0.0000E+00    6.250000E+09  0.00010  6.869E-05    0   0.4985   age166_m22            0.0000     2.1084E+02     9.2042   2.8758   103.5613
 21      0.4423     7.7521E-02    7.6687E-02    7.500000E+09  0.00010  5.873E-05    0   0.4931   age171_m22            0.0000     2.1004E+02     9.1503   2.8654   103.1291
 22      0.0000     0.0000E+00    0.0000E+00    1.000000E+10  0.00010  4.481E-05    0   0.4854   age181_m22            0.0000     2.0552E+02     9.0756   2.8256   102.7736
 23      0.0000     0.0000E+00    0.0000E+00    1.300000E+10  0.00010  3.489E-05    0   0.4791   age193_m22            0.0000     1.9616E+02     8.8785   2.7680   102.2127
 24      0.0000     0.0000E+00    0.0000E+00    1.500000E+10  0.00010  3.035E-05    0   0.4766   age201_m22            0.0000     1.9109E+02     8.7653   2.7288   102.0564
 25      0.0000     0.0000E+00    0.0000E+00    1.800000E+10  0.00010  2.510E-05    0   0.4735   age213_m22            0.0000     1.8054E+02     8.5095   2.6607   101.4927
 26      0.1374     1.6723E-04    3.3550E-04    1.000000E+06  0.00040  8.458E-03    0   1.0000   age020_m32            0.0000     2.8954E+03    54.3666   4.0000   104.6533
 27      0.0000     0.0000E+00    0.0000E+00    3.160000E+06  0.00040  3.973E-02    0   1.0000   age045_m32            0.0000     1.3086E+03    37.2131   4.0000   115.4439
 28      0.0905     4.8146E-05    9.2068E-05    5.010000E+06  0.00040  1.935E-02    0   0.9532   age055_m32            0.0000     1.8812E+03    43.3427   4.0000   110.2875
 29      0.6849     5.8559E-04    1.0859E-03    6.610000E+06  0.00040  1.204E-02    0   0.9243   age061_m32            0.0000     2.4759E+03    50.2082   4.0000   109.4122
 30      0.4578     4.9956E-04    9.0208E-04    8.710000E+06  0.00040  9.433E-03    0   0.9001   age067_m32            0.0000     2.3738E+03    49.4756   4.0000   110.5017
 31      0.0000     0.0000E+00    0.0000E+00    1.000000E+07  0.00040  8.053E-03    0   0.8877   age070_m32            0.0000     2.2874E+03    48.6827   4.0000   110.9548
 32      0.0000     0.0000E+00    0.0000E+00    1.445000E+07  0.00040  7.027E-03    0   0.8578   age078_m32            0.0000     1.3161E+03    36.5425   4.0000   113.5528
 33      0.0000     0.0000E+00    0.0000E+00    2.512000E+07  0.00040  4.707E-03    0   0.8166   age090_m32            0.0000     8.8393E+02    28.9933   4.0000   114.3423
 34      0.0000     0.0000E+00    0.0000E+00    4.000000E+07  0.00040  3.714E-03    0   0.7827   age104_m32            0.0000     6.7001E+02    23.6767   4.0000   114.7435
 35      0.0000     0.0000E+00    0.0000E+00    5.500000E+07  0.00040  2.982E-03    0   0.7593   age110_m32            0.0000     6.2085E+02    22.2120   4.0000   114.8222
 36      0.0000     0.0000E+00    0.0000E+00    1.015200E+08  0.00040  2.188E-03    0   0.7143   age116_m32            0.0000     4.9846E+02    17.7874   4.0000   113.7206
 37      0.0000     0.0000E+00    0.0000E+00    1.609000E+08  0.00040  1.690E-03    0   0.6856   age120_m32            0.0000     4.7334E+02    15.9115   4.0000   111.8535
 38      0.2774     2.4783E-03    3.2362E-03    2.861200E+08  0.00040  1.152E-03    0   0.6509   age125_m32            0.0000     4.6436E+02    14.4575   4.0000   107.9932
 39      0.0000     0.0000E+00    0.0000E+00    5.088000E+08  0.00040  7.331E-04    0   0.6182   age130_m32            0.0000     4.6980E+02    14.3320   3.9128   106.6806
 40      0.0000     0.0000E+00    0.0000E+00    9.047900E+08  0.00040  3.960E-04    0   0.5890   age135_m32            0.0000     3.4247E+02    12.4749   3.4391   105.9779
 41      0.1519     5.4778E-03    6.2497E-03    1.278050E+09  0.00040  2.854E-04    0   0.5687   age138_m32            0.0000     3.2279E+02    11.8047   3.1639   108.0210
 42      0.0000     0.0000E+00    0.0000E+00    1.434000E+09  0.00040  2.531E-04    0   0.5632   age139_m32            0.0000     3.1814E+02    11.6974   3.1072   107.9620
 43      0.0000     0.0000E+00    0.0000E+00    2.500000E+09  0.00040  1.488E-04    0   0.5386   age150_m32            0.0000     2.6932E+02    10.7837   2.8457   106.3885
 44      0.0000     0.0000E+00    0.0000E+00    4.250000E+09  0.00040  9.082E-05    0   0.5199   age158_m32            0.0000     1.9324E+02     8.8771   2.7361   103.7021
 45      3.3236     5.3774E-01    5.4760E-01    6.250000E+09  0.00040  6.362E-05    0   0.5076   age166_m32            0.0000     1.5906E+02     7.7313   2.6881   100.9165
 46      4.9086     9.5531E-01    9.6344E-01    7.500000E+09  0.00040  5.289E-05    0   0.5027   age171_m32            0.0000     1.4844E+02     7.4672   2.6475    99.7344
 47      3.7008     9.5907E-01    9.5202E-01    1.000000E+10  0.00040  3.972E-05    0   0.4948   age181_m32            0.0000     1.3682E+02     7.2500   2.5803    98.3924
 48      0.0000     0.0000E+00    0.0000E+00    1.300000E+10  0.00040  3.283E-05    0   0.4870   age193_m32            0.0000     1.4841E+02     7.7009   2.5456   100.7939
 49      0.0000     0.0000E+00    0.0000E+00    1.500000E+10  0.00040  2.925E-05    0   0.4854   age201_m32            0.0000     1.5906E+02     8.0661   2.5337   102.1719
 50      0.0027     1.1156E-03    1.0785E-03    1.800000E+10  0.00040  2.469E-05    0   0.4819   age213_m32            0.0000     1.6069E+02     8.1499   2.4967   102.5932
 51      0.0000     0.0000E+00    0.0000E+00    1.000000E+06  0.00400  1.114E-02    0   1.0000   age020_m42            0.0000     2.7218E+03    52.9541   4.0000   105.1725
 52      0.4285     1.0829E-04    2.1722E-04    3.160000E+06  0.00400  4.073E-02    0   0.9999   age045_m42            0.0000     8.5082E+02    29.4392   4.0000   114.5288
 53      0.0000     0.0000E+00    0.0000E+00    5.010000E+06  0.00400  2.534E-02    0   0.9488   age055_m42            0.0000     1.5176E+03    40.0517   4.0000   112.1319
 54      0.5303     2.1133E-04    3.9089E-04    6.610000E+06  0.00400  2.583E-02    0   0.9220   age061_m42            0.0000     6.7676E+02    24.9608   4.0000   112.8453
 55      0.0000     0.0000E+00    0.0000E+00    8.710000E+06  0.00400  1.706E-02    0   0.8983   age067_m42            0.0000     5.7086E+02    20.7716   4.0000   108.6546
 56      0.5061     4.0990E-04    7.2874E-04    1.000000E+07  0.00400  1.271E-02    0   0.8862   age070_m42            0.0000     6.0587E+02    20.4874   4.0000   107.3458
 57      0.0000     0.0000E+00    0.0000E+00    1.445000E+07  0.00400  7.666E-03    0   0.8571   age078_m42            0.0000     1.0423E+03    31.0922   4.0000   109.1928
 58      0.0000     0.0000E+00    0.0000E+00    2.512000E+07  0.00400  5.070E-03    0   0.8174   age090_m42            0.0000     4.7746E+02    17.1657   4.0000   106.8889
 59      0.0000     0.0000E+00    0.0000E+00    4.000000E+07  0.00400  3.505E-03    0   0.7851   age104_m42            0.0000     2.6856E+02    11.4636   4.0000   103.5877
 60      0.0000     0.0000E+00    0.0000E+00    5.500000E+07  0.00400  3.059E-03    0   0.7629   age110_m42            0.0000     3.1137E+02    11.8902   4.0000   108.3843
 61      0.0000     0.0000E+00    0.0000E+00    1.015200E+08  0.00400  2.268E-03    0   0.7207   age116_m42            0.0000     4.0095E+02    14.0286   4.0000   110.6918
 62      0.0000     0.0000E+00    0.0000E+00    1.609000E+08  0.00400  1.720E-03    0   0.6930   age120_m42            0.0000     3.8737E+02    13.0551   4.0000   108.6313
 63      0.0000     0.0000E+00    0.0000E+00    2.861200E+08  0.00400  1.079E-03    0   0.6613   age125_m42            0.0000     3.6479E+02    12.3532   3.7369   106.9639
 64      0.0000     0.0000E+00    0.0000E+00    5.088000E+08  0.00400  6.261E-04    0   0.6313   age130_m42            0.0000     3.9443E+02    12.9507   3.5455   109.8832
 65      0.0000     0.0000E+00    0.0000E+00    9.047900E+08  0.00400  3.535E-04    0   0.6024   age135_m42            0.0000     2.8885E+02    11.1493   3.1427   110.5389
 66      0.0000     0.0000E+00    0.0000E+00    1.278050E+09  0.00400  2.677E-04    0   0.5837   age138_m42            0.0000     1.1812E+02     7.9751   2.4620   107.6818
 67      0.0000     0.0000E+00    0.0000E+00    1.434000E+09  0.00400  1.910E-04    0   0.5716   age139_m42            0.0000     1.5676E+02     8.7170   2.6223   108.7156
 68      0.0000     0.0000E+00    0.0000E+00    2.500000E+09  0.00400  9.818E-05    0   0.5463   age150_m42            0.0000     6.9299E+01     6.2614   2.3355   104.2259
 69      0.0000     0.0000E+00    0.0000E+00    4.250000E+09  0.00400  5.491E-05    0   0.5269   age158_m42            0.0000     4.2732E+01     5.1461   2.2135   101.5550
 70      0.0000     0.0000E+00    0.0000E+00    6.250000E+09  0.00400  3.857E-05    0   0.5151   age166_m42            0.0000     2.9621E+01     4.7787   2.0828   100.1715
 71      0.0000     0.0000E+00    0.0000E+00    7.500000E+09  0.00400  3.243E-05    0   0.5110   age171_m42            0.0000     2.4446E+01     4.6611   2.0052    99.5035
 72      0.0000     0.0000E+00    0.0000E+00    1.000000E+10  0.00400  2.424E-05    0   0.5028   age181_m42            0.0000     1.9797E+01     4.5620   1.9276    98.7222
 73      0.0000     0.0000E+00    0.0000E+00    1.300000E+10  0.00400  1.883E-05    0   0.4927   age193_m42            0.0000     1.7317E+01     4.4813   1.8928    98.2708
 74      0.0000     0.0000E+00    0.0000E+00    1.500000E+10  0.00400  1.685E-05    0   0.4919   age201_m42            0.0000     1.7500E+01     4.3957   1.8988    98.3121
 75      0.0000     0.0000E+00    0.0000E+00    1.800000E+10  0.00400  1.452E-05    0   0.4874   age213_m42            0.0000     1.8098E+01     4.2837   1.9180    98.5863
 76      0.0000     0.0000E+00    0.0000E+00    1.000000E+06  0.00800  1.286E-02    0   1.0000   age020_m52            0.0000     2.6155E+03    52.2477   4.0000   107.3738
 77      0.1308     4.2790E-05    8.5553E-05    3.160000E+06  0.00800  3.147E-02    0   0.9966   age045_m52            0.0000     2.4593E+03    50.5122   4.0000   109.1058
 78      0.0000     0.0000E+00    0.0000E+00    5.010000E+06  0.00800  2.664E-02    0   0.9443   age055_m52            0.0000     1.7457E+03    43.1457   4.0000   111.8890
 79      0.0000     0.0000E+00    0.0000E+00    6.610000E+06  0.00800  2.151E-02    0   0.9177   age061_m52            0.0000     2.8090E+02    12.1691   4.0000   101.5353
 80      0.0000     0.0000E+00    0.0000E+00    8.710000E+06  0.00800  1.628E-02    0   0.8948   age067_m52            0.0000     5.4471E+02    19.7331   4.0000   108.6875
 81      0.0000     0.0000E+00    0.0000E+00    1.000000E+07  0.00800  1.215E-02    0   0.8827   age070_m52            0.0000     9.0960E+02    28.7369   4.0000   111.7698
 82      0.0000     0.0000E+00    0.0000E+00    1.445000E+07  0.00800  8.739E-03    0   0.8552   age078_m52            0.0000     9.3592E+02    29.6207   4.0000   113.6858
 83      0.0000     0.0000E+00    0.0000E+00    2.512000E+07  0.00800  5.676E-03    0   0.8162   age090_m52            0.0000     5.5869E+02    19.1997   4.0000   112.6762
 84      0.0000     0.0000E+00    0.0000E+00    4.000000E+07  0.00800  3.939E-03    0   0.7841   age104_m52            0.0000     4.4430E+02    15.5545   4.0000   111.7834
 85      0.0000     0.0000E+00    0.0000E+00    5.500000E+07  0.00800  3.155E-03    0   0.7627   age110_m52            0.0000     4.3286E+02    15.2221   4.0000   112.5910
 86      0.0071     3.2922E-05    4.7726E-05    1.015200E+08  0.00800  2.206E-03    0   0.7226   age116_m52            0.0000     3.8793E+02    13.6587   4.0000   112.0525
 87      0.0000     0.0000E+00    0.0000E+00    1.609000E+08  0.00800  1.596E-03    0   0.6963   age120_m52            0.0000     3.6134E+02    12.3073   4.0000   108.5779
 88      0.0000     0.0000E+00    0.0000E+00    2.861200E+08  0.00800  1.002E-03    0   0.6665   age125_m52            0.0000     3.8954E+02    13.0074   3.7812   108.9667
 89      0.0000     0.0000E+00    0.0000E+00    5.088000E+08  0.00800  5.759E-04    0   0.6377   age130_m52            0.0000     3.6906E+02    12.9168   3.4309   112.7175
 90      0.0000     0.0000E+00    0.0000E+00    9.047900E+08  0.00800  2.972E-04    0   0.6086   age135_m52            0.0000     2.1935E+02    10.6790   2.8722   111.8494
 91      0.0000     0.0000E+00    0.0000E+00    1.278050E+09  0.00800  2.242E-04    0   0.5907   age138_m52            0.0000     8.7449E+01     7.3272   2.2816   110.3497
 92      0.0000     0.0000E+00    0.0000E+00    1.434000E+09  0.00800  1.645E-04    0   0.5787   age139_m52            0.0000     9.0210E+01     7.1962   2.4264   109.9432
 93      0.0000     0.0000E+00    0.0000E+00    2.500000E+09  0.00800  7.723E-05    0   0.5519   age150_m52            0.0000     3.8610E+01     5.6340   2.0760   106.3623
 94      0.0000     0.0000E+00    0.0000E+00    4.250000E+09  0.00800  4.151E-05    0   0.5320   age158_m52            0.0000     2.9473E+01     5.2231   1.9956   104.0690
 95      0.1892     6.4695E-02    6.7452E-02    6.250000E+09  0.00800  3.010E-05    0   0.5197   age166_m52            0.0000     1.8669E+01     4.9817   1.7983   102.5545
 96      0.0000     0.0000E+00    0.0000E+00    7.500000E+09  0.00800  2.467E-05    0   0.5139   age171_m52            0.0000     1.7719E+01     5.0560   1.7562   102.0998
 97      0.0517     2.8561E-02    2.8958E-02    1.000000E+10  0.00800  1.862E-05    0   0.5054   age181_m52            0.0000     1.8163E+01     5.5490   1.6247   101.5352
