###################################################################
## OUTPUT of StarlightChains_v04.for    [Cid@UFSC - 01/Apr/2007] ##
###################################################################

## Some input info
NGC6528_c_2.cxt                          [arq_obs]
Base.BC03.S                              [arq_base]
NGC6528_c_2.msk                          [arq_masks]
StCv04.C11.config                        [arq_config]
  150                                    [N_base]
    0                                    [N_YAV_components = # of components with extra extinction!]
    0                                    [i_FitPowerLaw (1/0 = Yes/No)]
-9.99                                    [alpha_PowerLaw]
CCM                                      [red_law_option]
 1.458241                                [q_norm = A(l_norm)/A(V)]

## (Re)Sampling Parameters
 3359.00                                 [l_ini (A)]
 6428.00                                 [l_fin (A)]
    1.00                                 [dl    (A)]     (OBS: dl_cushion =    50.00 A)

## Normalization info
 4020.00                                 [l_norm (A) - for base]
 4010.00                                 [llow_norm (A) - window for f_obs]
 4060.00                                 [lupp_norm (A) - window for f_obs]
4.572307E-15                             [fobs_norm (in input units)]

## S/N
 4730.00                                 [llow_SN (A) - window for S/N]
 4780.00                                 [lupp_SN (A) - window for S/N]
  26.838                                 [S/N in S/N window]
  13.309                                 [S/N in norm. window]
 348.211                                 [S/N_err in S/N window]
 172.676                                 [S/N_err in norm. window]
  1.0000                                 [fscale_chi2]

## etc...
  2147483601                             [idum_orig]
  3069                                   [NOl_eff]
   531                                   [Nl_eff]
  2538    NSIGMA                         [Ntot_cliped & clip_method]
  2251200                                [Nglobal_steps]
   7                                     [N_chains]
  36                                     [NEX0s_base = N_base in EX0s-fits]
 0   0   1      162   2.0   3.907E+02    [Clip-Bug, RC-Crash & Burn-In warning-flags, n_censored_weights, wei_nsig_threshold & wei_limit]
    67     67.340     67.336      0.004  [idt_all, wdt_TotTime, wdt_UsrTime & wdt_SysTime (sec)]

## Synthesis Results - Best model ##

 2.82904E+00                             [chi2/Nl_eff]
     2.38483                             [adev (%)]

   104.15708                             [sum-of-x (%)]
 1.97694E-14                             [Flux_tot (units of input spectrum!)]
 2.18988E-09                             [Mini_tot (???)]
 1.09266E-09                             [Mcor_tot (???)]

   0.60                                  [v0_min  (km/s)]
 104.06                                  [vd_min  (km/s)]
 1.0598                                  [AV_min  (mag)]
 0.0000                                  [YAV_min (mag)]

# j     x_j(%)      Mini_j(%)     Mcor_j(%)     age_j(yr)     Z_j      (L/M)_j    YAV?  Mstars   component_j        a/Fe...       SSP_chi2r SSP_adev(%)   SSP_AV   SSP_x(%)
  1      5.1981     5.5213E-03    1.1066E-02    1.000000E+06  0.00010  8.160E-03    0   1.0000   age020_m22            0.0000     6.0761E+03    48.4853   4.0000    89.5579
  2      1.3919     2.5350E-04    5.0806E-04    3.160000E+06  0.00010  4.759E-02    0   1.0000   age045_m22            0.0000     8.7990E+02    14.7193   4.0000   100.7975
  3      1.5733     7.0581E-04    1.3555E-03    5.010000E+06  0.00010  1.932E-02    0   0.9582   age055_m22            0.0000     1.5418E+03    24.5524   4.0000    92.9077
  4      0.0000     0.0000E+00    0.0000E+00    6.610000E+06  0.00010  9.973E-03    0   0.9297   age061_m22            0.0000     6.0813E+03    47.8305   4.0000    92.3605
  5      0.0000     0.0000E+00    0.0000E+00    8.710000E+06  0.00010  7.690E-03    0   0.9030   age067_m22            0.0000     5.9556E+03    47.3999   4.0000    92.9019
  6      0.0000     0.0000E+00    0.0000E+00    1.000000E+07  0.00010  6.375E-03    0   0.8902   age070_m22            0.0000     5.9118E+03    47.2060   4.0000    93.1175
  7      0.0000     0.0000E+00    0.0000E+00    1.445000E+07  0.00010  4.874E-03    0   0.8589   age078_m22            0.0000     4.9515E+03    43.5268   4.0000    96.6176
  8      0.0000     0.0000E+00    0.0000E+00    2.512000E+07  0.00010  4.103E-03    0   0.8174   age090_m22            0.0000     3.3028E+03    34.8631   4.0000   102.9362
  9      0.0000     0.0000E+00    0.0000E+00    4.000000E+07  0.00010  3.654E-03    0   0.7830   age104_m22            0.0000     2.4924E+03    27.7901   4.0000   106.2297
 10      0.0000     0.0000E+00    0.0000E+00    5.500000E+07  0.00010  3.093E-03    0   0.7597   age110_m22            0.0000     2.2407E+03    25.3345   4.0000   107.0835
 11      0.0000     0.0000E+00    0.0000E+00    1.015200E+08  0.00010  2.431E-03    0   0.7138   age116_m22            0.0000     1.8018E+03    21.2385   4.0000   107.2141
 12      0.0000     0.0000E+00    0.0000E+00    1.609000E+08  0.00010  1.319E-03    0   0.6775   age120_m22            0.0000     1.2904E+03    17.9433   4.0000   104.9338
 13      0.0000     0.0000E+00    0.0000E+00    2.861200E+08  0.00010  1.075E-03    0   0.6412   age125_m22            0.0000     1.7370E+03    21.5190   4.0000   107.8827
 14      0.0000     0.0000E+00    0.0000E+00    5.088000E+08  0.00010  7.183E-04    0   0.6083   age130_m22            0.0000     1.7512E+03    21.8858   4.0000   106.4386
 15      0.0000     0.0000E+00    0.0000E+00    9.047900E+08  0.00010  4.524E-04    0   0.5785   age135_m22            0.0000     1.7158E+03    21.9746   4.0000   104.9565
 16      0.0000     0.0000E+00    0.0000E+00    1.278050E+09  0.00010  3.018E-04    0   0.5588   age138_m22            0.0000     1.1938E+03    18.5293   3.5277   103.0316
 17      0.0000     0.0000E+00    0.0000E+00    1.434000E+09  0.00010  2.691E-04    0   0.5532   age139_m22            0.0000     1.0934E+03    17.7264   3.3614   102.6919
 18      0.0000     0.0000E+00    0.0000E+00    2.500000E+09  0.00010  1.582E-04    0   0.5296   age150_m22            0.0000     1.0603E+03    17.7360   3.2993   103.1958
 19      0.0000     0.0000E+00    0.0000E+00    4.250000E+09  0.00010  1.007E-04    0   0.5110   age158_m22            0.0000     8.6157E+02    16.0217   3.1504   102.1046
 20      0.0000     0.0000E+00    0.0000E+00    6.250000E+09  0.00010  6.869E-05    0   0.4985   age166_m22            0.0000     6.9849E+02    14.4320   3.0977   100.0196
 21      0.0000     0.0000E+00    0.0000E+00    7.500000E+09  0.00010  5.873E-05    0   0.4931   age171_m22            0.0000     6.8211E+02    14.4172   3.1072    99.4936
 22      0.0000     0.0000E+00    0.0000E+00    1.000000E+10  0.00010  4.481E-05    0   0.4854   age181_m22            0.0000     6.6656E+02    14.2497   3.0587    99.2293
 23      0.0000     0.0000E+00    0.0000E+00    1.300000E+10  0.00010  3.489E-05    0   0.4791   age193_m22            0.0000     6.3848E+02    13.9023   2.9859    98.8433
 24      0.1650     4.7113E-02    4.5002E-02    1.500000E+10  0.00010  3.035E-05    0   0.4766   age201_m22            0.0000     6.2367E+02    13.7293   2.9430    98.7106
 25      0.0000     0.0000E+00    0.0000E+00    1.800000E+10  0.00010  2.510E-05    0   0.4735   age213_m22            0.0000     5.9039E+02    13.3484   2.8685    98.2407
 26      1.3045     1.3368E-03    2.6792E-03    1.000000E+06  0.00040  8.458E-03    0   1.0000   age020_m32            0.0000     6.1322E+03    48.4724   4.0000    90.1958
 27      0.0000     0.0000E+00    0.0000E+00    3.160000E+06  0.00040  3.973E-02    0   1.0000   age045_m32            0.0000     3.1828E+03    33.9064   4.0000   102.6937
 28      0.0000     0.0000E+00    0.0000E+00    5.010000E+06  0.00040  1.935E-02    0   0.9532   age055_m32            0.0000     4.3708E+03    40.8213   4.0000    96.7887
 29      0.0009     6.8244E-07    1.2642E-06    6.610000E+06  0.00040  1.204E-02    0   0.9243   age061_m32            0.0000     5.3891E+03    45.2871   4.0000    94.7991
 30      0.0000     0.0000E+00    0.0000E+00    8.710000E+06  0.00040  9.433E-03    0   0.9001   age067_m32            0.0000     5.1648E+03    44.3685   4.0000    95.8465
 31      0.0000     0.0000E+00    0.0000E+00    1.000000E+07  0.00040  8.053E-03    0   0.8877   age070_m32            0.0000     4.9968E+03    43.6846   4.0000    96.3870
 32      0.0000     0.0000E+00    0.0000E+00    1.445000E+07  0.00040  7.027E-03    0   0.8578   age078_m32            0.0000     3.2258E+03    34.6049   4.0000   101.1614
 33      0.0068     1.2441E-05    2.0361E-05    2.512000E+07  0.00040  4.707E-03    0   0.8166   age090_m32            0.0000     2.3256E+03    28.2984   4.0000   103.7952
 34      0.0000     0.0000E+00    0.0000E+00    4.000000E+07  0.00040  3.714E-03    0   0.7827   age104_m32            0.0000     1.8925E+03    23.4052   4.0000   105.5052
 35      0.0000     0.0000E+00    0.0000E+00    5.500000E+07  0.00040  2.982E-03    0   0.7593   age110_m32            0.0000     1.7960E+03    21.9792   4.0000   106.0037
 36      0.0000     0.0000E+00    0.0000E+00    1.015200E+08  0.00040  2.188E-03    0   0.7143   age116_m32            0.0000     1.6148E+03    20.2180   4.0000   107.1126
 37      0.0000     0.0000E+00    0.0000E+00    1.609000E+08  0.00040  1.690E-03    0   0.6856   age120_m32            0.0000     1.6366E+03    21.0237   4.0000   107.1919
 38      0.0000     0.0000E+00    0.0000E+00    2.861200E+08  0.00040  1.152E-03    0   0.6509   age125_m32            0.0000     1.6391E+03    21.3195   4.0000   105.9929
 39      0.0000     0.0000E+00    0.0000E+00    5.088000E+08  0.00040  7.331E-04    0   0.6182   age130_m32            0.0000     1.6377E+03    21.4883   4.0000   104.3331
 40      0.0000     0.0000E+00    0.0000E+00    9.047900E+08  0.00040  3.960E-04    0   0.5890   age135_m32            0.0000     1.2006E+03    18.4274   3.5587   102.8627
 41      0.0000     0.0000E+00    0.0000E+00    1.278050E+09  0.00040  2.854E-04    0   0.5687   age138_m32            0.0000     1.1176E+03    18.1317   3.3459   104.1781
 42      0.0000     0.0000E+00    0.0000E+00    1.434000E+09  0.00040  2.531E-04    0   0.5632   age139_m32            0.0000     1.1004E+03    18.0451   3.2920   104.0864
 43      0.0000     0.0000E+00    0.0000E+00    2.500000E+09  0.00040  1.488E-04    0   0.5386   age150_m32            0.0000     9.2413E+02    16.6457   3.0088   102.8871
 44      0.0000     0.0000E+00    0.0000E+00    4.250000E+09  0.00040  9.082E-05    0   0.5199   age158_m32            0.0000     6.5840E+02    13.8798   2.9069   100.5102
 45      0.0000     0.0000E+00    0.0000E+00    6.250000E+09  0.00040  6.362E-05    0   0.5076   age166_m32            0.0000     5.1543E+02    12.3089   2.8914    97.8705
 46      0.0000     0.0000E+00    0.0000E+00    7.500000E+09  0.00040  5.289E-05    0   0.5027   age171_m32            0.0000     4.7876E+02    11.8556   2.8366    96.9081
 47      3.8383     8.3757E-01    8.3059E-01    1.000000E+10  0.00040  3.972E-05    0   0.4948   age181_m32            0.0000     4.4672E+02    11.4077   2.7420    95.8325
 48      0.0000     0.0000E+00    0.0000E+00    1.300000E+10  0.00040  3.283E-05    0   0.4870   age193_m32            0.0000     5.0642E+02    11.9952   2.6895    98.0968
 49      0.0000     0.0000E+00    0.0000E+00    1.500000E+10  0.00040  2.925E-05    0   0.4854   age201_m32            0.0000     5.5269E+02    12.5148   2.6703    99.3834
 50      0.0000     0.0000E+00    0.0000E+00    1.800000E+10  0.00040  2.469E-05    0   0.4819   age213_m32            0.0000     5.6629E+02    12.6329   2.6223    99.8286
 51      0.8940     6.9557E-04    1.3940E-03    1.000000E+06  0.00400  1.114E-02    0   1.0000   age020_m42            0.0000     5.7978E+03    47.3158   4.0000    90.9116
 52      0.0000     0.0000E+00    0.0000E+00    3.160000E+06  0.00400  4.073E-02    0   0.9999   age045_m42            0.0000     2.2765E+03    27.3673   4.0000   104.2289
 53      0.0000     0.0000E+00    0.0000E+00    5.010000E+06  0.00400  2.534E-02    0   0.9488   age055_m42            0.0000     3.5856E+03    36.8879   4.0000    99.2994
 54      0.1891     6.3453E-05    1.1725E-04    6.610000E+06  0.00400  2.583E-02    0   0.9220   age061_m42            0.0000     1.9247E+03    24.1679   4.0000   103.7441
 55      1.5955     8.1060E-04    1.4594E-03    8.710000E+06  0.00400  1.706E-02    0   0.8983   age067_m42            0.0000     1.7434E+03    24.1532   4.0000   101.1460
 56      0.9173     6.2551E-04    1.1110E-03    1.000000E+07  0.00400  1.271E-02    0   0.8862   age070_m42            0.0000     1.8502E+03    25.8028   4.0000    99.8426
 57      0.0000     0.0000E+00    0.0000E+00    1.445000E+07  0.00400  7.666E-03    0   0.8571   age078_m42            0.0000     2.7182E+03    32.4851   4.0000    98.8258
 58      0.0000     0.0000E+00    0.0000E+00    2.512000E+07  0.00400  5.070E-03    0   0.8174   age090_m42            0.0000     1.5247E+03    23.3002   4.0000   100.5700
 59      0.0000     0.0000E+00    0.0000E+00    4.000000E+07  0.00400  3.505E-03    0   0.7851   age104_m42            0.0000     9.8050E+02    17.4246   4.0000   100.3642
 60      0.0000     0.0000E+00    0.0000E+00    5.500000E+07  0.00400  3.059E-03    0   0.7629   age110_m42            0.0000     1.1100E+03    16.3443   4.0000   103.9392
 61      0.0000     0.0000E+00    0.0000E+00    1.015200E+08  0.00400  2.268E-03    0   0.7207   age116_m42            0.0000     1.4280E+03    19.4997   4.0000   106.7190
 62      0.0000     0.0000E+00    0.0000E+00    1.609000E+08  0.00400  1.720E-03    0   0.6930   age120_m42            0.0000     1.4042E+03    19.5294   4.0000   106.5685
 63      0.0000     0.0000E+00    0.0000E+00    2.861200E+08  0.00400  1.079E-03    0   0.6613   age125_m42            0.0000     1.3040E+03    19.3495   3.9068   103.5496
 64      0.0000     0.0000E+00    0.0000E+00    5.088000E+08  0.00400  6.261E-04    0   0.6313   age130_m42            0.0000     1.3997E+03    20.0899   3.7191   106.0473
 65      0.0000     0.0000E+00    0.0000E+00    9.047900E+08  0.00400  3.535E-04    0   0.6024   age135_m42            0.0000     1.0431E+03    17.1987   3.2682   107.0201
 66      0.0000     0.0000E+00    0.0000E+00    1.278050E+09  0.00400  2.677E-04    0   0.5837   age138_m42            0.0000     4.6593E+02    11.2025   2.3437   106.7721
 67      0.0000     0.0000E+00    0.0000E+00    1.434000E+09  0.00400  1.910E-04    0   0.5716   age139_m42            0.0000     6.0872E+02    12.5939   2.5639   107.1551
 68      0.0000     0.0000E+00    0.0000E+00    2.500000E+09  0.00400  9.818E-05    0   0.5463   age150_m42            0.0000     2.8465E+02     8.3158   2.2099   103.8083
 69      0.0000     0.0000E+00    0.0000E+00    4.250000E+09  0.00400  5.491E-05    0   0.5269   age158_m42            0.0000     1.8243E+02     6.6111   2.0746   101.4551
 70      0.0000     0.0000E+00    0.0000E+00    6.250000E+09  0.00400  3.857E-05    0   0.5151   age166_m42            0.0000     1.2950E+02     5.6556   1.8892   100.6338
 71      0.0000     0.0000E+00    0.0000E+00    7.500000E+09  0.00400  3.243E-05    0   0.5110   age171_m42            0.0000     1.0537E+02     5.2144   1.7740   100.3467
 72      0.0000     0.0000E+00    0.0000E+00    1.000000E+10  0.00400  2.424E-05    0   0.5028   age181_m42            0.0000     7.9610E+01     4.8137   1.6548   100.0210
 73      0.0000     0.0000E+00    0.0000E+00    1.300000E+10  0.00400  1.883E-05    0   0.4927   age193_m42            0.0000     6.4856E+01     4.5986   1.5973    99.8584
 74      0.0000     0.0000E+00    0.0000E+00    1.500000E+10  0.00400  1.685E-05    0   0.4919   age201_m42            0.0000     6.8223E+01     4.5958   1.6133    99.7883
 75      0.0000     0.0000E+00    0.0000E+00    1.800000E+10  0.00400  1.452E-05    0   0.4874   age213_m42            0.0000     7.5583E+01     4.6414   1.6489    99.8884
 76      0.0000     0.0000E+00    0.0000E+00    1.000000E+06  0.00800  1.286E-02    0   1.0000   age020_m52            0.0000     5.5857E+03    46.3999   4.0000    92.8674
 77      0.0000     0.0000E+00    0.0000E+00    3.160000E+06  0.00800  3.147E-02    0   0.9966   age045_m52            0.0000     5.3117E+03    45.2361   4.0000    94.5684
 78      0.0000     0.0000E+00    0.0000E+00    5.010000E+06  0.00800  2.664E-02    0   0.9443   age055_m52            0.0000     4.0089E+03    39.4151   4.0000    98.4163
 79      0.0000     0.0000E+00    0.0000E+00    6.610000E+06  0.00800  2.151E-02    0   0.9177   age061_m52            0.0000     9.8764E+02    18.8600   4.0000    98.6717
 80      0.0000     0.0000E+00    0.0000E+00    8.710000E+06  0.00800  1.628E-02    0   0.8948   age067_m52            0.0000     1.6819E+03    24.4440   4.0000   101.4022
 81      0.0000     0.0000E+00    0.0000E+00    1.000000E+07  0.00800  1.215E-02    0   0.8827   age070_m52            0.0000     2.4490E+03    30.3331   4.0000   101.4112
 82      0.0000     0.0000E+00    0.0000E+00    1.445000E+07  0.00800  8.739E-03    0   0.8552   age078_m52            0.0000     2.4826E+03    29.9976   4.0000   102.7615
 83      0.0000     0.0000E+00    0.0000E+00    2.512000E+07  0.00800  5.676E-03    0   0.8162   age090_m52            0.0000     1.7371E+03    22.5558   4.0000   104.6070
 84      0.0000     0.0000E+00    0.0000E+00    4.000000E+07  0.00800  3.939E-03    0   0.7841   age104_m52            0.0000     1.4688E+03    19.2208   4.0000   105.3580
 85      0.0000     0.0000E+00    0.0000E+00    5.500000E+07  0.00800  3.155E-03    0   0.7627   age110_m52            0.0000     1.4374E+03    18.4025   4.0000   106.3955
 86      0.0000     0.0000E+00    0.0000E+00    1.015200E+08  0.00800  2.206E-03    0   0.7226   age116_m52            0.0000     1.3698E+03    18.3038   4.0000   107.5641
 87      0.0000     0.0000E+00    0.0000E+00    1.609000E+08  0.00800  1.596E-03    0   0.6963   age120_m52            0.0000     1.3105E+03    18.6891   4.0000   106.4861
 88      0.0000     0.0000E+00    0.0000E+00    2.861200E+08  0.00800  1.002E-03    0   0.6665   age125_m52            0.0000     1.4294E+03    19.9452   3.8717   106.0663
 89      0.0000     0.0000E+00    0.0000E+00    5.088000E+08  0.00800  5.759E-04    0   0.6377   age130_m52            0.0000     1.3935E+03    19.0631   3.4153   110.7379
 90      0.0000     0.0000E+00    0.0000E+00    9.047900E+08  0.00800  2.972E-04    0   0.6086   age135_m52            0.0000     8.4837E+02    14.2131   2.7288   111.2064
 91      0.0000     0.0000E+00    0.0000E+00    1.278050E+09  0.00800  2.242E-04    0   0.5907   age138_m52            0.0000     3.6828E+02     9.6529   2.0459   110.6663
 92      0.0000     0.0000E+00    0.0000E+00    1.434000E+09  0.00800  1.645E-04    0   0.5787   age139_m52            0.0000     3.8984E+02     9.6655   2.2423   109.7879
 93      0.1826     2.0493E-02    2.2667E-02    2.500000E+09  0.00800  7.723E-05    0   0.5519   age150_m52            0.0000     1.7636E+02     6.8196   1.8417   107.0352
 94      0.0000     0.0000E+00    0.0000E+00    4.250000E+09  0.00800  4.151E-05    0   0.5320   age158_m52            0.0000     1.2833E+02     5.9584   1.7663   104.7053
 95      0.4712     1.3569E-01    1.4133E-01    6.250000E+09  0.00800  3.010E-05    0   0.5197   age166_m52            0.0000     7.0074E+01     5.0026   1.4973   103.9668
 96      0.0711     2.4968E-02    2.5715E-02    7.500000E+09  0.00800  2.467E-05    0   0.5139   age171_m52            0.0000     6.0488E+01     4.8861   1.4324   103.7503
 97      0.0188     8.7605E-03    8.8736E-03    1.000000E+10  0.00800  1.862E-05    0   0.5054   age181_m52            0.0000     4.2993E+01     4.7931   1.2359   103.8739
