###################################################################
## OUTPUT of StarlightChains_v04.for    [Cid@UFSC - 01/Apr/2007] ##
###################################################################

## Some input info
NGC6652_a_1.cxt                          [arq_obs]
Base.BC03.S                              [arq_base]
NGC6652_a_1.msk                          [arq_masks]
StCv04.C11.config                        [arq_config]
  150                                    [N_base]
    0                                    [N_YAV_components = # of components with extra extinction!]
    0                                    [i_FitPowerLaw (1/0 = Yes/No)]
-9.99                                    [alpha_PowerLaw]
CCM                                      [red_law_option]
 1.458241                                [q_norm = A(l_norm)/A(V)]

## (Re)Sampling Parameters
 3359.00                                 [l_ini (A)]
 6428.00                                 [l_fin (A)]
    1.00                                 [dl    (A)]     (OBS: dl_cushion =    50.00 A)

## Normalization info
 4020.00                                 [l_norm (A) - for base]
 4010.00                                 [llow_norm (A) - window for f_obs]
 4060.00                                 [lupp_norm (A) - window for f_obs]
1.310531E-14                             [fobs_norm (in input units)]

## S/N
 4730.00                                 [llow_SN (A) - window for S/N]
 4780.00                                 [lupp_SN (A) - window for S/N]
  53.684                                 [S/N in S/N window]
  42.801                                 [S/N in norm. window]
  62.234                                 [S/N_err in S/N window]
  49.617                                 [S/N_err in norm. window]
  1.0000                                 [fscale_chi2]

## etc...
  2147483592                             [idum_orig]
  3067                                   [NOl_eff]
  2265                                   [Nl_eff]
   802    NSIGMA                         [Ntot_cliped & clip_method]
  1677900                                [Nglobal_steps]
   7                                     [N_chains]
  23                                     [NEX0s_base = N_base in EX0s-fits]
 0   0   1      386   2.0   9.034E+02    [Clip-Bug, RC-Crash & Burn-In warning-flags, n_censored_weights, wei_nsig_threshold & wei_limit]
    55     55.658     55.646      0.012  [idt_all, wdt_TotTime, wdt_UsrTime & wdt_SysTime (sec)]

## Synthesis Results - Best model ##

 2.17842E+00                             [chi2/Nl_eff]
     1.93368                             [adev (%)]

   100.83630                             [sum-of-x (%)]
 1.55335E-14                             [Flux_tot (units of input spectrum!)]
 5.88410E-10                             [Mini_tot (???)]
 2.96582E-10                             [Mcor_tot (???)]

 -20.36                                  [v0_min  (km/s)]
  64.99                                  [vd_min  (km/s)]
 0.1204                                  [AV_min  (mag)]
 0.0000                                  [YAV_min (mag)]

# j     x_j(%)      Mini_j(%)     Mcor_j(%)     age_j(yr)     Z_j      (L/M)_j    YAV?  Mstars   component_j        a/Fe...       SSP_chi2r SSP_adev(%)   SSP_AV   SSP_x(%)
  1      0.0000     0.0000E+00    0.0000E+00    1.000000E+06  0.00010  8.160E-03    0   1.0000   age020_m22            0.0000     2.7566E+02    16.9812   4.0000    69.5801
  2     10.7794     5.9300E-03    1.1765E-02    3.160000E+06  0.00010  4.759E-02    0   1.0000   age045_m22            0.0000     1.1082E+02     7.3811   2.2313    90.2970
  3      0.0000     0.0000E+00    0.0000E+00    5.010000E+06  0.00010  1.932E-02    0   0.9582   age055_m22            0.0000     1.6772E+02    13.8818   2.6785    74.3937
  4      0.0000     0.0000E+00    0.0000E+00    6.610000E+06  0.00010  9.973E-03    0   0.9297   age061_m22            0.0000     2.5097E+02    16.3675   4.0000    71.7912
  5      0.0000     0.0000E+00    0.0000E+00    8.710000E+06  0.00010  7.690E-03    0   0.9030   age067_m22            0.0000     2.3708E+02    15.9193   4.0000    72.3175
  6      0.0000     0.0000E+00    0.0000E+00    1.000000E+07  0.00010  6.375E-03    0   0.8902   age070_m22            0.0000     2.3260E+02    15.9157   4.0000    72.6273
  7      0.0000     0.0000E+00    0.0000E+00    1.445000E+07  0.00010  4.874E-03    0   0.8589   age078_m22            0.0000     1.4311E+02    11.8507   4.0000    75.5709
  8      0.0000     0.0000E+00    0.0000E+00    2.512000E+07  0.00010  4.103E-03    0   0.8174   age090_m22            0.0000     1.1548E+02     9.2224   3.6671    82.3948
  9      0.0000     0.0000E+00    0.0000E+00    4.000000E+07  0.00010  3.654E-03    0   0.7830   age104_m22            0.0000     2.0748E+02     7.6834   3.3094    88.0615
 10      0.0000     0.0000E+00    0.0000E+00    5.500000E+07  0.00010  3.093E-03    0   0.7597   age110_m22            0.0000     2.5052E+02     7.2021   3.1840    90.1764
 11      0.0000     0.0000E+00    0.0000E+00    1.015200E+08  0.00010  2.431E-03    0   0.7138   age116_m22            0.0000     3.6005E+02     7.0847   2.8123    93.4780
 12      0.0000     0.0000E+00    0.0000E+00    1.609000E+08  0.00010  1.319E-03    0   0.6775   age120_m22            0.0000     3.4488E+02     6.7807   2.3341    95.9363
 13      0.0000     0.0000E+00    0.0000E+00    2.861200E+08  0.00010  1.075E-03    0   0.6412   age125_m22            0.0000     7.0627E+02     7.4985   2.3044   102.0611
 14      0.0000     0.0000E+00    0.0000E+00    5.088000E+08  0.00010  7.183E-04    0   0.6083   age130_m22            0.0000     7.9620E+02     8.0942   2.0244   105.5351
 15      0.0000     0.0000E+00    0.0000E+00    9.047900E+08  0.00010  4.524E-04    0   0.5785   age135_m22            0.0000     7.9099E+02     8.2856   1.8079   107.4567
 16      0.0000     0.0000E+00    0.0000E+00    1.278050E+09  0.00010  3.018E-04    0   0.5588   age138_m22            0.0000     4.3150E+02     6.6155   1.3260   104.5871
 17      0.0000     0.0000E+00    0.0000E+00    1.434000E+09  0.00010  2.691E-04    0   0.5532   age139_m22            0.0000     3.6395E+02     6.2914   1.1757   104.0146
 18      0.0000     0.0000E+00    0.0000E+00    2.500000E+09  0.00010  1.582E-04    0   0.5296   age150_m22            0.0000     3.3974E+02     6.3467   1.0806   103.9979
 19      0.0000     0.0000E+00    0.0000E+00    4.250000E+09  0.00010  1.007E-04    0   0.5110   age158_m22            0.0000     2.1833E+02     5.6431   0.9583   101.6395
 20      0.1978     7.5399E-02    7.4570E-02    6.250000E+09  0.00010  6.869E-05    0   0.4985   age166_m22            0.0000     1.2348E+02     5.1962   0.9369    98.0898
 21      0.7645     3.4081E-01    3.3341E-01    7.500000E+09  0.00010  5.873E-05    0   0.4931   age171_m22            0.0000     1.1453E+02     5.3421   0.9367    97.1373
 22      0.8682     5.0724E-01    4.8848E-01    1.000000E+10  0.00010  4.481E-05    0   0.4854   age181_m22            0.0000     1.1009E+02     5.2676   0.8983    96.8398
 23      1.3274     9.9604E-01    9.4676E-01    1.300000E+10  0.00010  3.489E-05    0   0.4791   age193_m22            0.0000     1.0084E+02     5.1212   0.8404    96.4253
 24      1.0785     9.3032E-01    8.7968E-01    1.500000E+10  0.00010  3.035E-05    0   0.4766   age201_m22            0.0000     9.6353E+01     5.0722   0.8017    96.2405
 25      0.7801     8.1372E-01    7.6442E-01    1.800000E+10  0.00010  2.510E-05    0   0.4735   age213_m22            0.0000     8.4987E+01     4.9771   0.7376    95.5839
 26      0.0000     0.0000E+00    0.0000E+00    1.000000E+06  0.00040  8.458E-03    0   1.0000   age020_m32            0.0000     2.7696E+02    17.2970   4.0000    70.1410
 27      0.0000     0.0000E+00    0.0000E+00    3.160000E+06  0.00040  3.973E-02    0   1.0000   age045_m32            0.0000     1.1729E+02     9.6631   3.5706    82.1715
 28      0.0000     0.0000E+00    0.0000E+00    5.010000E+06  0.00040  1.935E-02    0   0.9532   age055_m32            0.0000     1.4405E+02    12.8736   3.8670    75.0619
 29      0.0000     0.0000E+00    0.0000E+00    6.610000E+06  0.00040  1.204E-02    0   0.9243   age061_m32            0.0000     1.7757E+02    13.2999   4.0000    73.7943
 30      0.0000     0.0000E+00    0.0000E+00    8.710000E+06  0.00040  9.433E-03    0   0.9001   age067_m32            0.0000     1.5696E+02    12.5084   4.0000    74.7938
 31      0.0000     0.0000E+00    0.0000E+00    1.000000E+07  0.00040  8.053E-03    0   0.8877   age070_m32            0.0000     1.4657E+02    12.0737   4.0000    75.2098
 32      0.0000     0.0000E+00    0.0000E+00    1.445000E+07  0.00040  7.027E-03    0   0.8578   age078_m32            0.0000     1.1803E+02    10.6770   3.5528    80.3011
 33      0.0000     0.0000E+00    0.0000E+00    2.512000E+07  0.00040  4.707E-03    0   0.8166   age090_m32            0.0000     1.3016E+02     9.1537   3.2213    84.8071
 34      0.0000     0.0000E+00    0.0000E+00    4.000000E+07  0.00040  3.714E-03    0   0.7827   age104_m32            0.0000     1.9417E+02     7.9062   2.9727    89.0093
 35      0.0000     0.0000E+00    0.0000E+00    5.500000E+07  0.00040  2.982E-03    0   0.7593   age110_m32            0.0000     2.3573E+02     7.5044   2.8928    90.6337
 36      0.0000     0.0000E+00    0.0000E+00    1.015200E+08  0.00040  2.188E-03    0   0.7143   age116_m32            0.0000     4.6752E+02     6.9008   2.5529    96.7078
 37      0.0000     0.0000E+00    0.0000E+00    1.609000E+08  0.00040  1.690E-03    0   0.6856   age120_m32            0.0000     6.3730E+02     7.2181   2.3112   100.2089
 38      0.0000     0.0000E+00    0.0000E+00    2.861200E+08  0.00040  1.152E-03    0   0.6509   age125_m32            0.0000     7.2467E+02     7.6968   2.0303   104.0686
 39      0.0000     0.0000E+00    0.0000E+00    5.088000E+08  0.00040  7.331E-04    0   0.6182   age130_m32            0.0000     7.4963E+02     7.9561   1.8375   105.9803
 40      0.0000     0.0000E+00    0.0000E+00    9.047900E+08  0.00040  3.960E-04    0   0.5890   age135_m32            0.0000     4.2642E+02     6.5862   1.3940   104.8875
 41      0.0000     0.0000E+00    0.0000E+00    1.278050E+09  0.00040  2.854E-04    0   0.5687   age138_m32            0.0000     3.8556E+02     6.4776   1.1286   105.5568
 42      0.0000     0.0000E+00    0.0000E+00    1.434000E+09  0.00040  2.531E-04    0   0.5632   age139_m32            0.0000     3.7570E+02     6.4321   1.0702   105.4465
 43      5.8260     1.0250E+00    1.0953E+00    2.500000E+09  0.00040  1.488E-04    0   0.5386   age150_m32            0.0000     2.6679E+02     5.7163   0.8209   103.7164
 44     17.7308     5.1112E+00    5.2720E+00    4.250000E+09  0.00040  9.082E-05    0   0.5199   age158_m32            0.0000     1.1483E+02     4.7344   0.7741    99.2237
 45      0.0169     6.9493E-03    6.9984E-03    6.250000E+09  0.00040  6.362E-05    0   0.5076   age166_m32            0.0000     5.5215E+01     4.8873   0.7828    94.5181
 46      0.0001     6.7483E-05    6.7303E-05    7.500000E+09  0.00040  5.289E-05    0   0.5027   age171_m32            0.0000     4.5242E+01     4.8272   0.7517    93.2865
 47      0.0102     6.7390E-03    6.6154E-03    1.000000E+10  0.00040  3.972E-05    0   0.4948   age181_m32            0.0000     3.7361E+01     4.6289   0.6896    92.1901
 48      0.0000     0.0000E+00    0.0000E+00    1.300000E+10  0.00040  3.283E-05    0   0.4870   age193_m32            0.0000     5.7591E+01     4.3226   0.6179    95.5348
 49      0.0000     0.0000E+00    0.0000E+00    1.500000E+10  0.00040  2.925E-05    0   0.4854   age201_m32            0.0000     7.8040E+01     4.3272   0.5832    97.4657
 50      0.0000     0.0000E+00    0.0000E+00    1.800000E+10  0.00040  2.469E-05    0   0.4819   age213_m32            0.0000     8.7234E+01     4.3011   0.5344    98.2009
 51      0.0000     0.0000E+00    0.0000E+00    1.000000E+06  0.00400  1.114E-02    0   1.0000   age020_m42            0.0000     2.4430E+02    15.5269   4.0000    70.6437
 52      0.0000     0.0000E+00    0.0000E+00    3.160000E+06  0.00400  4.073E-02    0   0.9999   age045_m42            0.0000     1.1220E+02     8.2774   3.2337    85.6686
 53      0.0000     0.0000E+00    0.0000E+00    5.010000E+06  0.00400  2.534E-02    0   0.9488   age055_m42            0.0000     1.1145E+02    10.9038   3.7073    78.2294
 54      0.0000     0.0000E+00    0.0000E+00    6.610000E+06  0.00400  2.583E-02    0   0.9220   age061_m42            0.0000     1.4159E+02     7.8700   3.0348    86.8112
 55      0.0000     0.0000E+00    0.0000E+00    8.710000E+06  0.00400  1.706E-02    0   0.8983   age067_m42            0.0000     1.1246E+02     9.7187   2.9106    83.6635
 56      0.0000     0.0000E+00    0.0000E+00    1.000000E+07  0.00400  1.271E-02    0   0.8862   age070_m42            0.0000     1.1354E+02    11.2246   2.9284    81.3379
 57      0.0000     0.0000E+00    0.0000E+00    1.445000E+07  0.00400  7.666E-03    0   0.8571   age078_m42            0.0000     1.1772E+02    11.8734   3.3541    78.0585
 58      0.0000     0.0000E+00    0.0000E+00    2.512000E+07  0.00400  5.070E-03    0   0.8174   age090_m42            0.0000     1.0702E+02    10.6718   2.7900    83.1088
 59      0.0000     0.0000E+00    0.0000E+00    4.000000E+07  0.00400  3.505E-03    0   0.7851   age104_m42            0.0000     1.0568E+02     8.9520   2.4369    87.0216
 60      0.0000     0.0000E+00    0.0000E+00    5.500000E+07  0.00400  3.059E-03    0   0.7629   age110_m42            0.0000     2.2047E+02     6.6391   2.4117    93.4909
 61      0.0000     0.0000E+00    0.0000E+00    1.015200E+08  0.00400  2.268E-03    0   0.7207   age116_m42            0.0000     5.6089E+02     6.6215   2.2299   100.8779
 62      0.0000     0.0000E+00    0.0000E+00    1.609000E+08  0.00400  1.720E-03    0   0.6930   age120_m42            0.0000     5.8654E+02     6.6265   2.0605   103.4792
 63      0.0000     0.0000E+00    0.0000E+00    2.861200E+08  0.00400  1.079E-03    0   0.6613   age125_m42            0.0000     5.4830E+02     6.7316   1.6918   104.6364
 64      0.0000     0.0000E+00    0.0000E+00    5.088000E+08  0.00400  6.261E-04    0   0.6313   age130_m42            0.0000     6.1759E+02     7.3551   1.4767   108.1243
 65      0.0000     0.0000E+00    0.0000E+00    9.047900E+08  0.00400  3.535E-04    0   0.6024   age135_m42            0.0000     3.7266E+02     6.2150   1.0871   108.6003
 66      0.0000     7.8475E-08    9.0878E-08    1.278050E+09  0.00400  2.677E-04    0   0.5837   age138_m42            0.0000     9.7758E+01     3.9728   0.3986   107.7863
 67      0.0000     0.0000E+00    0.0000E+00    1.434000E+09  0.00400  1.910E-04    0   0.5716   age139_m42            0.0000     1.5560E+02     4.3084   0.5600   108.4824
 68      0.0000     0.0000E+00    0.0000E+00    2.500000E+09  0.00400  9.818E-05    0   0.5463   age150_m42            0.0000     1.8623E+01     2.4656   0.3313   103.3680
 69      0.0000     0.0000E+00    0.0000E+00    4.250000E+09  0.00400  5.491E-05    0   0.5269   age158_m42            0.0000     3.8526E+00     2.0716   0.2377    99.8846
 70      0.0000     0.0000E+00    0.0000E+00    6.250000E+09  0.00400  3.857E-05    0   0.5151   age166_m42            0.0000     7.0572E+00     2.2730   0.1112    98.9264
 71      0.6757     5.4550E-01    5.5304E-01    7.500000E+09  0.00400  3.243E-05    0   0.5110   age171_m42            0.0000     1.2759E+01     2.6037   0.0000    98.8302
 72      0.6664     7.1977E-01    7.1800E-01    1.000000E+10  0.00400  2.424E-05    0   0.5028   age181_m42            0.0000     2.4943E+01     2.8452  -0.0518    98.3846
 73      0.4209     5.8517E-01    5.7200E-01    1.300000E+10  0.00400  1.883E-05    0   0.4927   age193_m42            0.0000     4.0406E+01     3.1440  -0.0868    98.0873
 74      0.0000     0.0000E+00    0.0000E+00    1.500000E+10  0.00400  1.685E-05    0   0.4919   age201_m42            0.0000     3.6511E+01     3.0874  -0.0806    97.9829
 75      0.0000     0.0000E+00    0.0000E+00    1.800000E+10  0.00400  1.452E-05    0   0.4874   age213_m42            0.0000     2.9739E+01     2.9968  -0.0627    98.0328
 76      0.0000     0.0000E+00    0.0000E+00    1.000000E+06  0.00800  1.286E-02    0   1.0000   age020_m52            0.0000     2.1116E+02    14.4771   4.0000    72.3942
 77      0.0000     0.0000E+00    0.0000E+00    3.160000E+06  0.00800  3.147E-02    0   0.9966   age045_m52            0.0000     1.7796E+02    13.0864   4.0000    73.6507
 78      0.0000     0.0000E+00    0.0000E+00    5.010000E+06  0.00800  2.664E-02    0   0.9443   age055_m52            0.0000     1.2428E+02    11.3716   3.8470    76.8670
 79      0.0000     0.0000E+00    0.0000E+00    6.610000E+06  0.00800  2.151E-02    0   0.9177   age061_m52            0.0000     9.0212E+01     9.9963   2.5114    83.6293
 80      0.0000     0.0000E+00    0.0000E+00    8.710000E+06  0.00800  1.628E-02    0   0.8948   age067_m52            0.0000     1.1362E+02    10.2101   2.8868    83.4928
 81      0.0000     0.0000E+00    0.0000E+00    1.000000E+07  0.00800  1.215E-02    0   0.8827   age070_m52            0.0000     1.2054E+02    10.8553   3.2450    81.2967
 82      0.0000     0.0000E+00    0.0000E+00    1.445000E+07  0.00800  8.739E-03    0   0.8552   age078_m52            0.0000     1.3249E+02    10.0785   3.2644    82.9796
 83      0.0000     0.0000E+00    0.0000E+00    2.512000E+07  0.00800  5.676E-03    0   0.8162   age090_m52            0.0000     2.0314E+02     9.0242   2.8219    88.1416
 84      0.0000     0.0000E+00    0.0000E+00    4.000000E+07  0.00800  3.939E-03    0   0.7841   age104_m52            0.0000     2.5404E+02     7.8046   2.6237    91.5191
 85      0.0000     0.0000E+00    0.0000E+00    5.500000E+07  0.00800  3.155E-03    0   0.7627   age110_m52            0.0000     3.1247E+02     7.0773   2.5616    94.1693
 86      0.0000     0.0000E+00    0.0000E+00    1.015200E+08  0.00800  2.206E-03    0   0.7226   age116_m52            0.0000     4.5003E+02     6.4754   2.3126    99.9784
 87      0.0000     0.0000E+00    0.0000E+00    1.609000E+08  0.00800  1.596E-03    0   0.6963   age120_m52            0.0000     4.9727E+02     6.5302   2.0673   102.6757
 88      0.0000     0.0000E+00    0.0000E+00    2.861200E+08  0.00800  1.002E-03    0   0.6665   age125_m52            0.0000     6.3112E+02     7.1881   1.6992   108.2626
 89      0.0000     0.0000E+00    0.0000E+00    5.088000E+08  0.00800  5.759E-04    0   0.6377   age130_m52            0.0000     5.9872E+02     7.7029   1.2839   115.1529
 90      0.0000     0.0000E+00    0.0000E+00    9.047900E+08  0.00800  2.972E-04    0   0.6086   age135_m52            0.0000     2.4418E+02     6.6926   0.7354   115.9551
 91      0.0000     0.0000E+00    0.0000E+00    1.278050E+09  0.00800  2.242E-04    0   0.5907   age138_m52            0.0000     5.4778E+01     4.4473   0.1847   113.1208
 92      0.0000     0.0000E+00    0.0000E+00    1.434000E+09  0.00800  1.645E-04    0   0.5787   age139_m52            0.0000     5.3837E+01     3.8986   0.3531   111.5320
 93      0.0000     0.0000E+00    0.0000E+00    2.500000E+09  0.00800  7.723E-05    0   0.5519   age150_m52            0.0000     8.1869E+00     3.3178   0.0000   107.4614
 94      0.0000     1.0446E-05    1.1025E-05    4.250000E+09  0.00800  4.151E-05    0   0.5320   age158_m52            0.0000     6.9701E+00     2.6000  -0.0048   104.3014
 95      0.0000     0.0000E+00    0.0000E+00    6.250000E+09  0.00800  3.010E-05    0   0.5197   age166_m52            0.0000     2.5789E+01     3.0679  -0.2015   103.4696
 96      0.0000     1.8788E-05    1.9155E-05    7.500000E+09  0.00800  2.467E-05    0   0.5139   age171_m52            0.0000     3.2966E+01     3.2487  -0.2461   103.3004
 97     52.1023     7.3257E+01    7.3455E+01    1.000000E+10  0.00800  1.862E-05    0   0.5054   age181_m52            0.0000     5.6149E+01     3.8636  -0.3905   103.7439
