###################################################################
## OUTPUT of StarlightChains_v04.for    [Cid@UFSC - 01/Apr/2007] ##
###################################################################

## Some input info
NGC6235_a_1.cxt                          [arq_obs]
Base.BC03.S                              [arq_base]
NGC6235_a_1.msk                          [arq_masks]
StCv04.C11.config                        [arq_config]
  150                                    [N_base]
    0                                    [N_YAV_components = # of components with extra extinction!]
    0                                    [i_FitPowerLaw (1/0 = Yes/No)]
-9.99                                    [alpha_PowerLaw]
CCM                                      [red_law_option]
 1.458241                                [q_norm = A(l_norm)/A(V)]

## (Re)Sampling Parameters
 3359.00                                 [l_ini (A)]
 6428.00                                 [l_fin (A)]
    1.00                                 [dl    (A)]     (OBS: dl_cushion =    50.00 A)

## Normalization info
 4020.00                                 [l_norm (A) - for base]
 4010.00                                 [llow_norm (A) - window for f_obs]
 4060.00                                 [lupp_norm (A) - window for f_obs]
2.685576E-15                             [fobs_norm (in input units)]

## S/N
 4730.00                                 [llow_SN (A) - window for S/N]
 4780.00                                 [lupp_SN (A) - window for S/N]
  64.240                                 [S/N in S/N window]
  49.525                                 [S/N in norm. window]
 131.570                                 [S/N_err in S/N window]
 101.432                                 [S/N_err in norm. window]
  1.0000                                 [fscale_chi2]

## etc...
  2147483624                             [idum_orig]
  3066                                   [NOl_eff]
  1589                                   [Nl_eff]
  1477    NSIGMA                         [Ntot_cliped & clip_method]
  1851150                                [Nglobal_steps]
   7                                     [N_chains]
  27                                     [NEX0s_base = N_base in EX0s-fits]
 0   0   1      144   2.0   2.368E+02    [Clip-Bug, RC-Crash & Burn-In warning-flags, n_censored_weights, wei_nsig_threshold & wei_limit]
    67     67.148     67.145      0.004  [idt_all, wdt_TotTime, wdt_UsrTime & wdt_SysTime (sec)]

## Synthesis Results - Best model ##

 2.38129E+00                             [chi2/Nl_eff]
     1.42322                             [adev (%)]

    97.54226                             [sum-of-x (%)]
 9.92793E-15                             [Flux_tot (units of input spectrum!)]
 3.33035E-10                             [Mini_tot (???)]
 1.64347E-10                             [Mcor_tot (???)]

 -13.60                                  [v0_min  (km/s)]
 106.01                                  [vd_min  (km/s)]
 0.9920                                  [AV_min  (mag)]
 0.0000                                  [YAV_min (mag)]

# j     x_j(%)      Mini_j(%)     Mcor_j(%)     age_j(yr)     Z_j      (L/M)_j    YAV?  Mstars   component_j        a/Fe...       SSP_chi2r SSP_adev(%)   SSP_AV   SSP_x(%)
  1      0.0000     0.0000E+00    0.0000E+00    1.000000E+06  0.00010  8.160E-03    0   1.0000   age020_m22            0.0000     2.7704E+02    13.7555   4.0000    89.4703
  2      2.8479     1.8289E-03    3.7060E-03    3.160000E+06  0.00010  4.759E-02    0   1.0000   age045_m22            0.0000     3.0037E+01     4.6191   2.5145    95.6495
  3      0.0000     0.0000E+00    0.0000E+00    5.010000E+06  0.00010  1.932E-02    0   0.9582   age055_m22            0.0000     1.5130E+02    10.5908   2.6830    86.5037
  4      0.0000     0.0000E+00    0.0000E+00    6.610000E+06  0.00010  9.973E-03    0   0.9297   age061_m22            0.0000     2.5336E+02    13.0925   4.0000    91.7116
  5      0.0000     0.0000E+00    0.0000E+00    8.710000E+06  0.00010  7.690E-03    0   0.9030   age067_m22            0.0000     2.4234E+02    12.8136   4.0000    91.9499
  6      0.0000     0.0000E+00    0.0000E+00    1.000000E+07  0.00010  6.375E-03    0   0.8902   age070_m22            0.0000     2.4355E+02    12.7895   4.0000    92.4370
  7      0.0000     0.0000E+00    0.0000E+00    1.445000E+07  0.00010  4.874E-03    0   0.8589   age078_m22            0.0000     1.4297E+02    10.1881   4.0000    90.6882
  8      0.0000     0.0000E+00    0.0000E+00    2.512000E+07  0.00010  4.103E-03    0   0.8174   age090_m22            0.0000     6.2448E+01     7.0464   3.8507    90.0735
  9      0.0000     0.0000E+00    0.0000E+00    4.000000E+07  0.00010  3.654E-03    0   0.7830   age104_m22            0.0000     4.3129E+01     5.1672   3.6090    93.2727
 10      0.0000     0.0000E+00    0.0000E+00    5.500000E+07  0.00010  3.093E-03    0   0.7597   age110_m22            0.0000     3.8772E+01     4.5470   3.5314    94.1218
 11      0.5581     7.0161E-03    1.0148E-02    1.015200E+08  0.00010  2.431E-03    0   0.7138   age116_m22            0.0000     4.0802E+01     4.1972   3.2084    96.3962
 12      0.0000     0.0000E+00    0.0000E+00    1.609000E+08  0.00010  1.319E-03    0   0.6775   age120_m22            0.0000     3.7772E+01     3.8772   2.7406    98.3912
 13      0.0000     0.0000E+00    0.0000E+00    2.861200E+08  0.00010  1.075E-03    0   0.6412   age125_m22            0.0000     8.7756E+01     5.6191   2.8804    99.5540
 14      0.0000     0.0000E+00    0.0000E+00    5.088000E+08  0.00010  7.183E-04    0   0.6083   age130_m22            0.0000     1.0955E+02     6.4332   2.6748   100.4382
 15      0.0000     0.0000E+00    0.0000E+00    9.047900E+08  0.00010  4.524E-04    0   0.5785   age135_m22            0.0000     1.1100E+02     6.5658   2.4803   101.4301
 16      0.0000     0.0000E+00    0.0000E+00    1.278050E+09  0.00010  3.018E-04    0   0.5588   age138_m22            0.0000     4.9981E+01     4.4260   1.9098   100.8620
 17      0.0000     0.0000E+00    0.0000E+00    1.434000E+09  0.00010  2.691E-04    0   0.5532   age139_m22            0.0000     3.9960E+01     4.0062   1.7472   100.4959
 18      0.0000     0.0000E+00    0.0000E+00    2.500000E+09  0.00010  1.582E-04    0   0.5296   age150_m22            0.0000     3.3592E+01     3.7265   1.6151   101.8027
 19      0.0032     9.6444E-04    9.9867E-04    4.250000E+09  0.00010  1.007E-04    0   0.5110   age158_m22            0.0000     1.7647E+01     2.7951   1.4406   100.7868
 20      0.0027     1.2061E-03    1.2184E-03    6.250000E+09  0.00010  6.869E-05    0   0.4985   age166_m22            0.0000     8.9481E+00     2.1148   1.3575    98.7594
 21      0.2602     1.3541E-01    1.3531E-01    7.500000E+09  0.00010  5.873E-05    0   0.4931   age171_m22            0.0000     8.9106E+00     2.1517   1.3356    98.5308
 22      0.0000     0.0000E+00    0.0000E+00    1.000000E+10  0.00010  4.481E-05    0   0.4854   age181_m22            0.0000     8.3253E+00     2.0964   1.2980    98.1488
 23      0.0082     7.1747E-03    6.9656E-03    1.300000E+10  0.00010  3.489E-05    0   0.4791   age193_m22            0.0000     7.2226E+00     1.9777   1.2424    97.5704
 24      1.0564     1.0638E+00    1.0274E+00    1.500000E+10  0.00010  3.035E-05    0   0.4766   age201_m22            0.0000     6.6735E+00     1.9236   1.2026    97.4066
 25      7.4339     9.0515E+00    8.6850E+00    1.800000E+10  0.00010  2.510E-05    0   0.4735   age213_m22            0.0000     5.7858E+00     1.8519   1.1306    96.9095
 26      0.0000     0.0000E+00    0.0000E+00    1.000000E+06  0.00040  8.458E-03    0   1.0000   age020_m32            0.0000     2.8190E+02    13.7799   4.0000    90.5825
 27      0.0000     0.0000E+00    0.0000E+00    3.160000E+06  0.00040  3.973E-02    0   1.0000   age045_m32            0.0000     6.9823E+01     7.4259   3.7406    90.2770
 28      0.0000     0.0000E+00    0.0000E+00    5.010000E+06  0.00040  1.935E-02    0   0.9532   age055_m32            0.0000     1.3454E+02    10.2075   3.9018    86.2497
 29      0.0000     0.0000E+00    0.0000E+00    6.610000E+06  0.00040  1.204E-02    0   0.9243   age061_m32            0.0000     1.7666E+02    11.2011   4.0000    90.1245
 30      0.0000     0.0000E+00    0.0000E+00    8.710000E+06  0.00040  9.433E-03    0   0.9001   age067_m32            0.0000     1.5781E+02    10.6623   4.0000    90.2871
 31      0.0000     0.0000E+00    0.0000E+00    1.000000E+07  0.00040  8.053E-03    0   0.8877   age070_m32            0.0000     1.4409E+02    10.2772   4.0000    89.7985
 32      0.0000     0.0000E+00    0.0000E+00    1.445000E+07  0.00040  7.027E-03    0   0.8578   age078_m32            0.0000     8.5680E+01     8.2482   3.6730    89.7716
 33      0.0000     0.0000E+00    0.0000E+00    2.512000E+07  0.00040  4.707E-03    0   0.8166   age090_m32            0.0000     5.5413E+01     6.5689   3.4139    92.7429
 34      0.0000     0.0000E+00    0.0000E+00    4.000000E+07  0.00040  3.714E-03    0   0.7827   age104_m32            0.0000     3.9669E+01     5.0535   3.2527    94.9040
 35      0.0000     0.0000E+00    0.0000E+00    5.500000E+07  0.00040  2.982E-03    0   0.7593   age110_m32            0.0000     3.7151E+01     4.5905   3.2107    95.5129
 36      0.0000     0.0000E+00    0.0000E+00    1.015200E+08  0.00040  2.188E-03    0   0.7143   age116_m32            0.0000     4.8754E+01     4.2662   3.0137    97.7550
 37      0.0000     0.0000E+00    0.0000E+00    1.609000E+08  0.00040  1.690E-03    0   0.6856   age120_m32            0.0000     6.6859E+01     4.8866   2.8329    99.5778
 38      0.0000     0.0000E+00    0.0000E+00    2.861200E+08  0.00040  1.152E-03    0   0.6509   age125_m32            0.0000     9.1708E+01     5.8083   2.6429   100.3335
 39      0.0000     0.0000E+00    0.0000E+00    5.088000E+08  0.00040  7.331E-04    0   0.6182   age130_m32            0.0000     1.0138E+02     6.2284   2.4967   100.5183
 40      0.0000     0.0000E+00    0.0000E+00    9.047900E+08  0.00040  3.960E-04    0   0.5890   age135_m32            0.0000     5.4601E+01     4.7135   2.0171    99.6811
 41      0.0000     0.0000E+00    0.0000E+00    1.278050E+09  0.00040  2.854E-04    0   0.5687   age138_m32            0.0000     3.9548E+01     4.0492   1.6946   102.3670
 42      0.0000     0.0000E+00    0.0000E+00    1.434000E+09  0.00040  2.531E-04    0   0.5632   age139_m32            0.0000     3.7714E+01     3.9546   1.6306   102.4134
 43      4.6893     9.6312E-01    1.0512E+00    2.500000E+09  0.00040  1.488E-04    0   0.5386   age150_m32            0.0000     2.4015E+01     3.2116   1.3652   100.8706
 44     16.8467     5.6690E+00    5.9725E+00    4.250000E+09  0.00040  9.082E-05    0   0.5199   age158_m32            0.0000     6.8570E+00     1.8510   1.2319    98.5869
 45     19.6841     9.4558E+00    9.7263E+00    6.250000E+09  0.00040  6.362E-05    0   0.5076   age166_m32            0.0000     5.5937E+00     1.9548   1.1506    96.3943
 46      8.9940     5.1970E+00    5.2941E+00    7.500000E+09  0.00040  5.289E-05    0   0.5027   age171_m32            0.0000     6.0808E+00     2.0491   1.1114    95.2236
 47      0.0040     3.0494E-03    3.0575E-03    1.000000E+10  0.00040  3.972E-05    0   0.4948   age181_m32            0.0000     6.4444E+00     2.0994   1.0518    93.8073
 48      0.0055     5.1283E-03    5.0610E-03    1.300000E+10  0.00040  3.283E-05    0   0.4870   age193_m32            0.0000     3.5406E+00     1.6069   1.0278    95.9380
 49      5.0542     5.2808E+00    5.1943E+00    1.500000E+10  0.00040  2.925E-05    0   0.4854   age201_m32            0.0000     3.6216E+00     1.5668   1.0205    97.1918
 50     22.7798     2.8197E+01    2.7535E+01    1.800000E+10  0.00040  2.469E-05    0   0.4819   age213_m32            0.0000     3.8622E+00     1.5995   0.9852    97.5557
 51      0.0000     0.0000E+00    0.0000E+00    1.000000E+06  0.00400  1.114E-02    0   1.0000   age020_m42            0.0000     2.3769E+02    12.8127   4.0000    89.3253
 52      0.0000     0.0000E+00    0.0000E+00    3.160000E+06  0.00400  4.073E-02    0   0.9999   age045_m42            0.0000     4.6070E+01     6.0216   3.4738    91.9618
 53      0.0000     0.0000E+00    0.0000E+00    5.010000E+06  0.00400  2.534E-02    0   0.9488   age055_m42            0.0000     9.1620E+01     8.5481   3.8159    87.5284
 54      0.0000     0.0000E+00    0.0000E+00    6.610000E+06  0.00400  2.583E-02    0   0.9220   age061_m42            0.0000     3.9565E+01     5.4153   3.3030    92.6160
 55      0.0000     0.0000E+00    0.0000E+00    8.710000E+06  0.00400  1.706E-02    0   0.8983   age067_m42            0.0000     5.9003E+01     6.8607   3.0817    92.2148
 56      0.9617     2.3125E-03    4.1528E-03    1.000000E+07  0.00400  1.271E-02    0   0.8862   age070_m42            0.0000     8.5024E+01     8.2797   3.0386    91.6394
 57      0.0000     0.0000E+00    0.0000E+00    1.445000E+07  0.00400  7.666E-03    0   0.8571   age078_m42            0.0000     1.0355E+02     9.0381   3.4199    88.9242
 58      0.0000     0.0000E+00    0.0000E+00    2.512000E+07  0.00400  5.070E-03    0   0.8174   age090_m42            0.0000     7.0813E+01     7.6901   2.9151    93.0924
 59      0.0000     0.0000E+00    0.0000E+00    4.000000E+07  0.00400  3.505E-03    0   0.7851   age104_m42            0.0000     4.2262E+01     6.0193   2.6342    94.9643
 60      0.0000     0.0000E+00    0.0000E+00    5.500000E+07  0.00400  3.059E-03    0   0.7629   age110_m42            0.0000     2.2527E+01     3.5214   2.7635    97.3483
 61      0.0000     0.0000E+00    0.0000E+00    1.015200E+08  0.00400  2.268E-03    0   0.7207   age116_m42            0.0000     5.4668E+01     4.3089   2.7530   100.1016
 62      0.0000     0.0000E+00    0.0000E+00    1.609000E+08  0.00400  1.720E-03    0   0.6930   age120_m42            0.0000     6.2941E+01     4.7414   2.6283   101.1013
 63      0.0000     0.0000E+00    0.0000E+00    2.861200E+08  0.00400  1.079E-03    0   0.6613   age125_m42            0.0000     6.5485E+01     4.8231   2.2765   101.4220
 64      0.0000     0.0000E+00    0.0000E+00    5.088000E+08  0.00400  6.261E-04    0   0.6313   age130_m42            0.0000     7.5349E+01     5.3182   2.0865   104.1382
 65      0.0000     0.0000E+00    0.0000E+00    9.047900E+08  0.00400  3.535E-04    0   0.6024   age135_m42            0.0000     4.2496E+01     4.1790   1.6740   104.6699
 66      0.0000     0.0000E+00    0.0000E+00    1.278050E+09  0.00400  2.677E-04    0   0.5837   age138_m42            0.0000     2.8198E+01     3.8411   1.0025   101.4380
 67      0.0000     0.0000E+00    0.0000E+00    1.434000E+09  0.00400  1.910E-04    0   0.5716   age139_m42            0.0000     2.6746E+01     3.6525   1.1724   102.2922
 68      0.0000     0.0000E+00    0.0000E+00    2.500000E+09  0.00400  9.818E-05    0   0.5463   age150_m42            0.0000     2.4434E+01     3.5964   0.8878    97.8912
 69      0.0000     0.0000E+00    0.0000E+00    4.250000E+09  0.00400  5.491E-05    0   0.5269   age158_m42            0.0000     2.9581E+01     3.8579   0.7453    95.6691
 70      0.0000     0.0000E+00    0.0000E+00    6.250000E+09  0.00400  3.857E-05    0   0.5151   age166_m42            0.0000     4.2665E+01     4.4680   0.6267    94.1182
 71      0.0000     0.0000E+00    0.0000E+00    7.500000E+09  0.00400  3.243E-05    0   0.5110   age171_m42            0.0000     5.2290E+01     4.8482   0.5558    93.3410
 72      0.0000     0.0000E+00    0.0000E+00    1.000000E+10  0.00400  2.424E-05    0   0.5028   age181_m42            0.0000     6.5802E+01     5.3444   0.4836    92.4948
 73      0.0000     0.0000E+00    0.0000E+00    1.300000E+10  0.00400  1.883E-05    0   0.4927   age193_m42            0.0000     7.6255E+01     5.7211   0.4457    92.1073
 74      0.0000     0.0000E+00    0.0000E+00    1.500000E+10  0.00400  1.685E-05    0   0.4919   age201_m42            0.0000     7.3486E+01     5.6377   0.4474    92.2088
 75      0.0000     0.0000E+00    0.0000E+00    1.800000E+10  0.00400  1.452E-05    0   0.4874   age213_m42            0.0000     6.8350E+01     5.4797   0.4578    92.6024
 76      0.0000     0.0000E+00    0.0000E+00    1.000000E+06  0.00800  1.286E-02    0   1.0000   age020_m52            0.0000     2.1461E+02    12.2127   4.0000    90.5849
 77      0.0000     0.0000E+00    0.0000E+00    3.160000E+06  0.00800  3.147E-02    0   0.9966   age045_m52            0.0000     1.7684E+02    11.2696   4.0000    90.0411
 78      0.0000     0.0000E+00    0.0000E+00    5.010000E+06  0.00800  2.664E-02    0   0.9443   age055_m52            0.0000     1.0655E+02     9.1409   3.9260    86.7663
 79      0.0000     0.0000E+00    0.0000E+00    6.610000E+06  0.00800  2.151E-02    0   0.9177   age061_m52            0.0000     6.2873E+01     7.1758   2.6489    92.7966
 80      0.0000     4.8677E-08    8.8263E-08    8.710000E+06  0.00800  1.628E-02    0   0.8948   age067_m52            0.0000     6.6696E+01     7.3970   3.0280    92.9622
 81      0.0000     0.0000E+00    0.0000E+00    1.000000E+07  0.00800  1.215E-02    0   0.8827   age070_m52            0.0000     8.2038E+01     8.1691   3.3555    91.4192
 82      0.0000     0.0000E+00    0.0000E+00    1.445000E+07  0.00800  8.739E-03    0   0.8552   age078_m52            0.0000     6.9994E+01     7.4537   3.4153    92.1345
 83      0.0000     0.0000E+00    0.0000E+00    2.512000E+07  0.00800  5.676E-03    0   0.8162   age090_m52            0.0000     4.9695E+01     5.8896   3.0539    95.8467
 84      0.0000     0.0000E+00    0.0000E+00    4.000000E+07  0.00800  3.939E-03    0   0.7841   age104_m52            0.0000     3.6207E+01     4.6041   2.9284    97.2445
 85      0.0000     0.0000E+00    0.0000E+00    5.500000E+07  0.00800  3.155E-03    0   0.7627   age110_m52            0.0000     3.4286E+01     3.9486   2.9252    98.1792
 86      0.0000     0.0000E+00    0.0000E+00    1.015200E+08  0.00800  2.206E-03    0   0.7226   age116_m52            0.0000     4.4148E+01     3.8863   2.7909   100.5472
 87      0.0000     0.0000E+00    0.0000E+00    1.609000E+08  0.00800  1.596E-03    0   0.6963   age120_m52            0.0000     5.3446E+01     4.2590   2.5935   101.6396
 88      0.0000     0.0000E+00    0.0000E+00    2.861200E+08  0.00800  1.002E-03    0   0.6665   age125_m52            0.0000     8.4863E+01     5.7485   2.3488   102.8287
 89      0.0000     0.0000E+00    0.0000E+00    5.088000E+08  0.00800  5.759E-04    0   0.6377   age130_m52            0.0000     9.7046E+01     6.4856   2.0317   105.6262
 90      0.0000     0.0000E+00    0.0000E+00    9.047900E+08  0.00800  2.972E-04    0   0.6086   age135_m52            0.0000     6.7606E+01     5.5841   1.5083   103.7869
 91      0.0000     0.0000E+00    0.0000E+00    1.278050E+09  0.00800  2.242E-04    0   0.5907   age138_m52            0.0000     4.8576E+01     4.8485   0.8664   103.0537
 92      0.0000     0.0000E+00    0.0000E+00    1.434000E+09  0.00800  1.645E-04    0   0.5787   age139_m52            0.0000     3.8797E+01     4.4041   1.0011   102.8892
 93      0.0000     0.0000E+00    0.0000E+00    2.500000E+09  0.00800  7.723E-05    0   0.5519   age150_m52            0.0000     5.0291E+01     4.8931   0.6535    99.4089
 94      0.0000     0.0000E+00    0.0000E+00    4.250000E+09  0.00800  4.151E-05    0   0.5320   age158_m52            0.0000     5.4257E+01     5.0344   0.5761    97.1493
 95      0.0000     0.0000E+00    0.0000E+00    6.250000E+09  0.00800  3.010E-05    0   0.5197   age166_m52            0.0000     7.7979E+01     5.8585   0.3949    95.3939
 96      0.0000     0.0000E+00    0.0000E+00    7.500000E+09  0.00800  2.467E-05    0   0.5139   age171_m52            0.0000     8.4875E+01     6.0672   0.3584    94.8643
 97      0.0000     0.0000E+00    0.0000E+00    1.000000E+10  0.00800  1.862E-05    0   0.5054   age181_m52            0.0000     1.0787E+02     6.7316   0.2470    93.9461
