###################################################################
## OUTPUT of StarlightChains_v04.for    [Cid@UFSC - 01/Apr/2007] ##
###################################################################

## Some input info
NGC6569_a_1.cxt                          [arq_obs]
Base.BC03.S                              [arq_base]
NGC6569_a_1.msk                          [arq_masks]
StCv04.C11.config                        [arq_config]
  150                                    [N_base]
    0                                    [N_YAV_components = # of components with extra extinction!]
    0                                    [i_FitPowerLaw (1/0 = Yes/No)]
-9.99                                    [alpha_PowerLaw]
CCM                                      [red_law_option]
 1.458241                                [q_norm = A(l_norm)/A(V)]

## (Re)Sampling Parameters
 3359.00                                 [l_ini (A)]
 6428.00                                 [l_fin (A)]
    1.00                                 [dl    (A)]     (OBS: dl_cushion =    50.00 A)

## Normalization info
 4020.00                                 [l_norm (A) - for base]
 4010.00                                 [llow_norm (A) - window for f_obs]
 4060.00                                 [lupp_norm (A) - window for f_obs]
3.450800E-15                             [fobs_norm (in input units)]

## S/N
 4730.00                                 [llow_SN (A) - window for S/N]
 4780.00                                 [lupp_SN (A) - window for S/N]
  49.160                                 [S/N in S/N window]
  30.918                                 [S/N in norm. window]
 207.538                                 [S/N_err in S/N window]
 130.528                                 [S/N_err in norm. window]
  1.0000                                 [fscale_chi2]

## etc...
  2147483598                             [idum_orig]
  3069                                   [NOl_eff]
   794                                   [Nl_eff]
  2275    NSIGMA                         [Ntot_cliped & clip_method]
  2568440                                [Nglobal_steps]
   7                                     [N_chains]
  32                                     [NEX0s_base = N_base in EX0s-fits]
 0   0   1       50   2.0   3.259E+02    [Clip-Bug, RC-Crash & Burn-In warning-flags, n_censored_weights, wei_nsig_threshold & wei_limit]
   100     99.693     99.669      0.024  [idt_all, wdt_TotTime, wdt_UsrTime & wdt_SysTime (sec)]

## Synthesis Results - Best model ##

 2.84591E+00                             [chi2/Nl_eff]
     1.41025                             [adev (%)]

    98.33637                             [sum-of-x (%)]
 2.76016E-14                             [Flux_tot (units of input spectrum!)]
 1.44706E-09                             [Mini_tot (???)]
 7.19328E-10                             [Mcor_tot (???)]

 -11.83                                  [v0_min  (km/s)]
  19.11                                  [vd_min  (km/s)]
 1.5606                                  [AV_min  (mag)]
 0.0000                                  [YAV_min (mag)]

# j     x_j(%)      Mini_j(%)     Mcor_j(%)     age_j(yr)     Z_j      (L/M)_j    YAV?  Mstars   component_j        a/Fe...       SSP_chi2r SSP_adev(%)   SSP_AV   SSP_x(%)
  1      0.8799     2.0916E-03    4.2076E-03    1.000000E+06  0.00010  8.160E-03    0   1.0000   age020_m22            0.0000     4.7095E+03    37.8781   4.0000   109.1059
  2      0.9319     3.7983E-04    7.6410E-04    3.160000E+06  0.00010  4.759E-02    0   1.0000   age045_m22            0.0000     1.4069E+02     5.2463   3.3112    97.4886
  3      7.2168     7.2455E-03    1.3966E-02    5.010000E+06  0.00010  1.932E-02    0   0.9582   age055_m22            0.0000     2.8870E+02    10.5436   3.4930    86.1663
  4      0.1402     2.7262E-04    5.0986E-04    6.610000E+06  0.00010  9.973E-03    0   0.9297   age061_m22            0.0000     4.4222E+03    36.9209   4.0000   111.9743
  5      0.2405     6.0654E-04    1.1018E-03    8.710000E+06  0.00010  7.690E-03    0   0.9030   age067_m22            0.0000     4.3633E+03    36.5800   4.0000   112.4613
  6      0.5325     1.6203E-03    2.9016E-03    1.000000E+07  0.00010  6.375E-03    0   0.8902   age070_m22            0.0000     4.4609E+03    36.7386   4.0000   112.9635
  7      0.0000     0.0000E+00    0.0000E+00    1.445000E+07  0.00010  4.874E-03    0   0.8589   age078_m22            0.0000     3.2665E+03    31.5087   4.0000   113.4908
  8      0.0000     0.0000E+00    0.0000E+00    2.512000E+07  0.00010  4.103E-03    0   0.8174   age090_m22            0.0000     1.3830E+03    20.1171   4.0000   111.8543
  9      0.0000     0.0000E+00    0.0000E+00    4.000000E+07  0.00010  3.654E-03    0   0.7830   age104_m22            0.0000     6.9622E+02    12.2081   4.0000   108.8491
 10      0.0000     0.0000E+00    0.0000E+00    5.500000E+07  0.00010  3.093E-03    0   0.7597   age110_m22            0.0000     5.7127E+02    10.4627   4.0000   107.4599
 11      0.0000     0.0000E+00    0.0000E+00    1.015200E+08  0.00010  2.431E-03    0   0.7138   age116_m22            0.0000     3.7292E+02     9.1802   4.0000    98.5130
 12      0.0000     0.0000E+00    0.0000E+00    1.609000E+08  0.00010  1.319E-03    0   0.6775   age120_m22            0.0000     3.4829E+02     8.8948   3.5314   100.3037
 13      0.0000     0.0000E+00    0.0000E+00    2.861200E+08  0.00010  1.075E-03    0   0.6412   age125_m22            0.0000     6.9999E+02    13.0414   3.6825   101.6955
 14      0.0000     0.0000E+00    0.0000E+00    5.088000E+08  0.00010  7.183E-04    0   0.6083   age130_m22            0.0000     8.1090E+02    14.2092   3.4760   102.7755
 15      0.0000     0.0000E+00    0.0000E+00    9.047900E+08  0.00010  4.524E-04    0   0.5785   age135_m22            0.0000     8.1915E+02    14.4092   3.2764   103.9134
 16      0.0000     0.0000E+00    0.0000E+00    1.278050E+09  0.00010  3.018E-04    0   0.5588   age138_m22            0.0000     4.7794E+02    10.9856   2.6844   104.0404
 17      0.0000     0.0000E+00    0.0000E+00    1.434000E+09  0.00010  2.691E-04    0   0.5532   age139_m22            0.0000     4.1495E+02    10.2562   2.5173   103.8621
 18      0.0000     0.0000E+00    0.0000E+00    2.500000E+09  0.00010  1.582E-04    0   0.5296   age150_m22            0.0000     3.7411E+02     9.8009   2.3857   104.9128
 19      0.0000     0.0000E+00    0.0000E+00    4.250000E+09  0.00010  1.007E-04    0   0.5110   age158_m22            0.0000     2.5537E+02     8.0706   2.2121   103.8147
 20      0.0000     0.0000E+00    0.0000E+00    6.250000E+09  0.00010  6.869E-05    0   0.4985   age166_m22            0.0000     1.5951E+02     6.2143   2.1308   101.6399
 21      0.0000     0.0000E+00    0.0000E+00    7.500000E+09  0.00010  5.873E-05    0   0.4931   age171_m22            0.0000     1.4665E+02     5.9262   2.1102   101.2591
 22      0.0442     1.9124E-02    1.8674E-02    1.000000E+10  0.00010  4.481E-05    0   0.4854   age181_m22            0.0000     1.4326E+02     5.8618   2.0724   100.9078
 23      0.0436     2.4230E-02    2.3353E-02    1.300000E+10  0.00010  3.489E-05    0   0.4791   age193_m22            0.0000     1.3434E+02     5.6594   2.0162   100.3910
 24      0.4769     3.0478E-01    2.9221E-01    1.500000E+10  0.00010  3.035E-05    0   0.4766   age201_m22            0.0000     1.2767E+02     5.5114   1.9755   100.2673
 25      0.0000     0.0000E+00    0.0000E+00    1.800000E+10  0.00010  2.510E-05    0   0.4735   age213_m22            0.0000     1.1216E+02     5.1314   1.9033    99.7907
 26      1.0110     2.3186E-03    4.6643E-03    1.000000E+06  0.00040  8.458E-03    0   1.0000   age020_m32            0.0000     4.8124E+03    38.1656   4.0000   110.1681
 27      0.0000     0.0000E+00    0.0000E+00    3.160000E+06  0.00040  3.973E-02    0   1.0000   age045_m32            0.0000     1.0035E+03    17.5192   4.0000   108.7910
 28      0.2243     2.2481E-04    4.3107E-04    5.010000E+06  0.00040  1.935E-02    0   0.9532   age055_m32            0.0000     1.7657E+03    24.5979   4.0000   107.1909
 29      0.0000     0.0000E+00    0.0000E+00    6.610000E+06  0.00040  1.204E-02    0   0.9243   age061_m32            0.0000     3.4608E+03    32.9361   4.0000   112.0940
 30      0.2743     5.6411E-04    1.0214E-03    8.710000E+06  0.00040  9.433E-03    0   0.9001   age067_m32            0.0000     3.2836E+03    31.9489   4.0000   112.7862
 31      0.2078     5.0051E-04    8.9379E-04    1.000000E+07  0.00040  8.053E-03    0   0.8877   age070_m32            0.0000     3.0689E+03    30.9350   4.0000   112.6396
 32      0.0000     0.0000E+00    0.0000E+00    1.445000E+07  0.00040  7.027E-03    0   0.8578   age078_m32            0.0000     8.3523E+02    16.8367   4.0000   105.4838
 33      0.0000     0.0000E+00    0.0000E+00    2.512000E+07  0.00040  4.707E-03    0   0.8166   age090_m32            0.0000     3.1356E+02     9.4571   4.0000   100.8657
 34      0.0000     0.0000E+00    0.0000E+00    4.000000E+07  0.00040  3.714E-03    0   0.7827   age104_m32            0.0000     2.4198E+02     7.1251   4.0000    98.0607
 35      0.0000     0.0000E+00    0.0000E+00    5.500000E+07  0.00040  2.982E-03    0   0.7593   age110_m32            0.0000     2.6968E+02     7.4971   4.0000    97.3461
 36      0.0000     0.0000E+00    0.0000E+00    1.015200E+08  0.00040  2.188E-03    0   0.7143   age116_m32            0.0000     4.6890E+02    10.4693   3.8123    99.7738
 37      0.0000     0.0000E+00    0.0000E+00    1.609000E+08  0.00040  1.690E-03    0   0.6856   age120_m32            0.0000     6.0114E+02    12.0324   3.6298   101.7656
 38      0.0000     0.0000E+00    0.0000E+00    2.861200E+08  0.00040  1.152E-03    0   0.6509   age125_m32            0.0000     7.2476E+02    13.3846   3.4450   102.5636
 39      0.0000     0.0000E+00    0.0000E+00    5.088000E+08  0.00040  7.331E-04    0   0.6182   age130_m32            0.0000     7.7557E+02    13.9405   3.2942   103.0169
 40      0.0000     0.0000E+00    0.0000E+00    9.047900E+08  0.00040  3.960E-04    0   0.5890   age135_m32            0.0000     5.0194E+02    11.3435   2.7959   102.9481
 41      0.0000     0.0000E+00    0.0000E+00    1.278050E+09  0.00040  2.854E-04    0   0.5687   age138_m32            0.0000     4.2154E+02    10.5131   2.4702   105.3845
 42      0.0000     0.0000E+00    0.0000E+00    1.434000E+09  0.00040  2.531E-04    0   0.5632   age139_m32            0.0000     4.1010E+02    10.3694   2.4044   105.4970
 43      0.0000     0.0000E+00    0.0000E+00    2.500000E+09  0.00040  1.488E-04    0   0.5386   age150_m32            0.0000     3.2109E+02     9.1894   2.1368   104.2214
 44      0.0000     0.0000E+00    0.0000E+00    4.250000E+09  0.00040  9.082E-05    0   0.5199   age158_m32            0.0000     1.5979E+02     6.3222   2.0015   101.9147
 45     20.8564     6.3589E+00    6.4932E+00    6.250000E+09  0.00040  6.362E-05    0   0.5076   age166_m32            0.0000     7.4249E+01     4.0367   1.9262    99.2532
 46     21.9247     8.0407E+00    8.1314E+00    7.500000E+09  0.00040  5.289E-05    0   0.5027   age171_m32            0.0000     6.2252E+01     3.6273   1.8869    98.1115
 47     16.7253     8.1677E+00    8.1300E+00    1.000000E+10  0.00040  3.972E-05    0   0.4948   age181_m32            0.0000     5.5891E+01     3.3839   1.8248    96.8590
 48      4.8467     2.8636E+00    2.8054E+00    1.300000E+10  0.00040  3.283E-05    0   0.4870   age193_m32            0.0000     8.3019E+01     4.4137   1.7969    99.2666
 49      0.0000     0.0000E+00    0.0000E+00    1.500000E+10  0.00040  2.925E-05    0   0.4854   age201_m32            0.0000     1.0678E+02     5.1629   1.7873   100.6697
 50      0.0000     0.0000E+00    0.0000E+00    1.800000E+10  0.00040  2.469E-05    0   0.4819   age213_m32            0.0000     1.1555E+02     5.4480   1.7508   101.1383
 51      1.1125     1.9370E-03    3.8967E-03    1.000000E+06  0.00400  1.114E-02    0   1.0000   age020_m42            0.0000     4.3043E+03    36.2767   4.0000   109.6110
 52      0.0000     0.0000E+00    0.0000E+00    3.160000E+06  0.00400  4.073E-02    0   0.9999   age045_m42            0.0000     3.7455E+02     9.9316   4.0000   102.9189
 53      0.0000     0.0000E+00    0.0000E+00    5.010000E+06  0.00400  2.534E-02    0   0.9488   age055_m42            0.0000     1.3069E+03    20.7072   4.0000   107.2717
 54      0.0000     0.0000E+00    0.0000E+00    6.610000E+06  0.00400  2.583E-02    0   0.9220   age061_m42            0.0000     2.1285E+02     6.8885   4.0000    97.7711
 55      0.0000     0.0000E+00    0.0000E+00    8.710000E+06  0.00400  1.706E-02    0   0.8983   age067_m42            0.0000     1.5651E+02     6.8816   3.8747    93.3378
 56      0.0000     0.0000E+00    0.0000E+00    1.000000E+07  0.00400  1.271E-02    0   0.8862   age070_m42            0.0000     1.9019E+02     8.3211   3.8292    92.3414
 57      0.0000     0.0000E+00    0.0000E+00    1.445000E+07  0.00400  7.666E-03    0   0.8571   age078_m42            0.0000     3.4933E+02    12.0759   4.0000    96.2007
 58      0.0000     0.0000E+00    0.0000E+00    2.512000E+07  0.00400  5.070E-03    0   0.8174   age090_m42            0.0000     1.6496E+02     7.7218   3.7058    93.9107
 59      0.0000     0.0000E+00    0.0000E+00    4.000000E+07  0.00400  3.505E-03    0   0.7851   age104_m42            0.0000     1.2044E+02     6.2318   3.4139    96.6910
 60      0.0000     0.0000E+00    0.0000E+00    5.500000E+07  0.00400  3.059E-03    0   0.7629   age110_m42            0.0000     2.0660E+02     6.5397   3.5410    99.9351
 61      0.0000     0.0000E+00    0.0000E+00    1.015200E+08  0.00400  2.268E-03    0   0.7207   age116_m42            0.0000     5.2200E+02    11.2129   3.5418   102.8490
 62      0.0000     0.0000E+00    0.0000E+00    1.609000E+08  0.00400  1.720E-03    0   0.6930   age120_m42            0.0000     5.7351E+02    11.8471   3.4258   103.7496
 63      0.0000     0.0000E+00    0.0000E+00    2.861200E+08  0.00400  1.079E-03    0   0.6613   age125_m42            0.0000     5.4887E+02    11.7977   3.0634   104.4133
 64      0.0000     0.0000E+00    0.0000E+00    5.088000E+08  0.00400  6.261E-04    0   0.6313   age130_m42            0.0000     6.1958E+02    12.6973   2.8744   107.0118
 65      0.0000     0.0000E+00    0.0000E+00    9.047900E+08  0.00400  3.535E-04    0   0.6024   age135_m42            0.0000     4.1738E+02    10.6808   2.4479   108.2402
 66      0.0000     0.0000E+00    0.0000E+00    1.278050E+09  0.00400  2.677E-04    0   0.5837   age138_m42            0.0000     1.9197E+02     7.9150   1.7407   107.3745
 67      0.0000     0.0000E+00    0.0000E+00    1.434000E+09  0.00400  1.910E-04    0   0.5716   age139_m42            0.0000     2.4006E+02     8.5215   1.9216   107.6327
 68      0.0000     0.0000E+00    0.0000E+00    2.500000E+09  0.00400  9.818E-05    0   0.5463   age150_m42            0.0000     1.1626E+02     6.2390   1.6334   103.5734
 69      0.0272     9.6232E-03    1.0200E-02    4.250000E+09  0.00400  5.491E-05    0   0.5269   age158_m42            0.0000     7.8668E+01     5.1811   1.4900   101.3523
 70      0.0615     3.0930E-02    3.2050E-02    6.250000E+09  0.00400  3.857E-05    0   0.5151   age166_m42            0.0000     9.0490E+01     5.4186   1.3671   100.1103
 71      0.0000     0.0000E+00    0.0000E+00    7.500000E+09  0.00400  3.243E-05    0   0.5110   age171_m42            0.0000     1.0468E+02     5.6963   1.2918    99.6243
 72      0.4291     3.4339E-01    3.4733E-01    1.000000E+10  0.00400  2.424E-05    0   0.5028   age181_m42            0.0000     1.2751E+02     6.1227   1.2159    99.0482
 73      0.9943     1.0242E+00    1.0152E+00    1.300000E+10  0.00400  1.883E-05    0   0.4927   age193_m42            0.0000     1.4527E+02     6.4375   1.1757    98.8200
 74      1.5456     1.7792E+00    1.7606E+00    1.500000E+10  0.00400  1.685E-05    0   0.4919   age201_m42            0.0000     1.3696E+02     6.2591   1.1780    98.8951
 75      0.3423     4.5732E-01    4.4840E-01    1.800000E+10  0.00400  1.452E-05    0   0.4874   age213_m42            0.0000     1.2293E+02     5.9501   1.1885    99.2678
 76      0.0000     0.0000E+00    0.0000E+00    1.000000E+06  0.00800  1.286E-02    0   1.0000   age020_m52            0.0000     4.1550E+03    35.4263   4.0000   111.6275
 77      0.0000     0.0000E+00    0.0000E+00    3.160000E+06  0.00800  3.147E-02    0   0.9966   age045_m52            0.0000     3.5608E+03    33.2170   4.0000   111.9932
 78      0.0000     0.0000E+00    0.0000E+00    5.010000E+06  0.00800  2.664E-02    0   0.9443   age055_m52            0.0000     1.7889E+03    24.1374   4.0000   109.0685
 79      0.0000     0.0000E+00    0.0000E+00    6.610000E+06  0.00800  2.151E-02    0   0.9177   age061_m52            0.0000     1.2734E+02     7.0503   3.4368    94.0225
 80      0.0000     0.0000E+00    0.0000E+00    8.710000E+06  0.00800  1.628E-02    0   0.8948   age067_m52            0.0000     1.5860E+02     7.4274   3.8182    93.9697
 81      0.0000     0.0000E+00    0.0000E+00    1.000000E+07  0.00800  1.215E-02    0   0.8827   age070_m52            0.0000     2.4320E+02     9.7075   4.0000    97.1238
 82      0.0000     0.0000E+00    0.0000E+00    1.445000E+07  0.00800  8.739E-03    0   0.8552   age078_m52            0.0000     2.9371E+02    10.0645   4.0000   100.1423
 83      0.0000     0.0000E+00    0.0000E+00    2.512000E+07  0.00800  5.676E-03    0   0.8162   age090_m52            0.0000     2.0640E+02     7.0188   3.8360    97.5495
 84      0.0000     0.0000E+00    0.0000E+00    4.000000E+07  0.00800  3.939E-03    0   0.7841   age104_m52            0.0000     2.3728E+02     7.0536   3.7095    99.3702
 85      0.0000     0.0000E+00    0.0000E+00    5.500000E+07  0.00800  3.155E-03    0   0.7627   age110_m52            0.0000     2.9594E+02     7.8566   3.7095   100.4377
 86      0.0000     0.0000E+00    0.0000E+00    1.015200E+08  0.00800  2.206E-03    0   0.7226   age116_m52            0.0000     4.3687E+02    10.0847   3.5802   103.0294
 87      0.0000     0.0000E+00    0.0000E+00    1.609000E+08  0.00800  1.596E-03    0   0.6963   age120_m52            0.0000     4.9142E+02    10.9023   3.3829   104.2545
 88      0.0000     0.0000E+00    0.0000E+00    2.861200E+08  0.00800  1.002E-03    0   0.6665   age125_m52            0.0000     6.4576E+02    12.9924   3.1332   106.1118
 89      0.0000     0.0000E+00    0.0000E+00    5.088000E+08  0.00800  5.759E-04    0   0.6377   age130_m52            0.0000     6.8110E+02    13.6787   2.8087   109.6891
 90      0.0000     0.0000E+00    0.0000E+00    9.047900E+08  0.00800  2.972E-04    0   0.6086   age135_m52            0.0000     4.5562E+02    11.3722   2.2601   109.3353
 91      0.0000     0.0000E+00    0.0000E+00    1.278050E+09  0.00800  2.242E-04    0   0.5907   age138_m52            0.0000     2.1675E+02     8.3517   1.5891   110.1989
 92      0.0000     0.0000E+00    0.0000E+00    1.434000E+09  0.00800  1.645E-04    0   0.5787   age139_m52            0.0000     1.9238E+02     7.7730   1.7334   109.4749
 93      0.0000     0.0000E+00    0.0000E+00    2.500000E+09  0.00800  7.723E-05    0   0.5519   age150_m52            0.0000     1.5082E+02     6.9912   1.3867   106.1291
 94      0.0032     1.5039E-03    1.6095E-03    4.250000E+09  0.00800  4.151E-05    0   0.5320   age158_m52            0.0000     1.4419E+02     6.8108   1.3118   103.6731
 95      0.0000     0.0000E+00    0.0000E+00    6.250000E+09  0.00800  3.010E-05    0   0.5197   age166_m52            0.0000     1.8452E+02     7.4225   1.1246   102.3868
 96      0.0000     0.0000E+00    0.0000E+00    7.500000E+09  0.00800  2.467E-05    0   0.5139   age171_m52            0.0000     1.9913E+02     7.6546   1.0857   101.9963
 97      0.0000     0.0000E+00    0.0000E+00    1.000000E+10  0.00800  1.862E-05    0   0.5054   age181_m52            0.0000     2.5507E+02     8.4785   0.9677   101.5478
