###################################################################
## OUTPUT of StarlightChains_v04.for    [Cid@UFSC - 01/Apr/2007] ##
###################################################################

## Some input info
NGC6441_a_1.cxt                          [arq_obs]
Base.BC03.S                              [arq_base]
NGC6441_a_1.msk                          [arq_masks]
StCv04.C11.config                        [arq_config]
  150                                    [N_base]
    0                                    [N_YAV_components = # of components with extra extinction!]
    0                                    [i_FitPowerLaw (1/0 = Yes/No)]
-9.99                                    [alpha_PowerLaw]
CCM                                      [red_law_option]
 1.458241                                [q_norm = A(l_norm)/A(V)]

## (Re)Sampling Parameters
 3359.00                                 [l_ini (A)]
 6428.00                                 [l_fin (A)]
    1.00                                 [dl    (A)]     (OBS: dl_cushion =    50.00 A)

## Normalization info
 4020.00                                 [l_norm (A) - for base]
 4010.00                                 [llow_norm (A) - window for f_obs]
 4060.00                                 [lupp_norm (A) - window for f_obs]
2.855491E-14                             [fobs_norm (in input units)]

## S/N
 4730.00                                 [llow_SN (A) - window for S/N]
 4780.00                                 [lupp_SN (A) - window for S/N]
  36.149                                 [S/N in S/N window]
  21.540                                 [S/N in norm. window]
 181.134                                 [S/N_err in S/N window]
 107.930                                 [S/N_err in norm. window]
  1.0000                                 [fscale_chi2]

## etc...
  2147483609                             [idum_orig]
  3067                                   [NOl_eff]
   861                                   [Nl_eff]
  2206    NSIGMA                         [Ntot_cliped & clip_method]
  2033640                                [Nglobal_steps]
   7                                     [N_chains]
  27                                     [NEX0s_base = N_base in EX0s-fits]
 0   0   1      126   2.0   2.568E+02    [Clip-Bug, RC-Crash & Burn-In warning-flags, n_censored_weights, wei_nsig_threshold & wei_limit]
    74     74.355     74.351      0.004  [idt_all, wdt_TotTime, wdt_UsrTime & wdt_SysTime (sec)]

## Synthesis Results - Best model ##

 2.71858E+00                             [chi2/Nl_eff]
     1.71616                             [adev (%)]

   100.88178                             [sum-of-x (%)]
 1.35011E-13                             [Flux_tot (units of input spectrum!)]
 1.04713E-08                             [Mini_tot (???)]
 5.19865E-09                             [Mcor_tot (???)]

 -10.72                                  [v0_min  (km/s)]
  31.76                                  [vd_min  (km/s)]
 1.1501                                  [AV_min  (mag)]
 0.0000                                  [YAV_min (mag)]

# j     x_j(%)      Mini_j(%)     Mcor_j(%)     age_j(yr)     Z_j      (L/M)_j    YAV?  Mstars   component_j        a/Fe...       SSP_chi2r SSP_adev(%)   SSP_AV   SSP_x(%)
  1      0.0000     0.0000E+00    0.0000E+00    1.000000E+06  0.00010  8.160E-03    0   1.0000   age020_m22            0.0000     2.6764E+03    42.5098   4.0000   102.8155
  2      0.0000     0.0000E+00    0.0000E+00    3.160000E+06  0.00010  4.759E-02    0   1.0000   age045_m22            0.0000     2.0156E+02    10.3398   3.3851    95.9351
  3      1.5365     1.0165E-03    1.9618E-03    5.010000E+06  0.00010  1.932E-02    0   0.9582   age055_m22            0.0000     4.2147E+02    17.9443   3.5816    85.9522
  4      0.0000     0.0000E+00    0.0000E+00    6.610000E+06  0.00010  9.973E-03    0   0.9297   age061_m22            0.0000     2.6206E+03    41.7111   4.0000   105.4576
  5      0.0000     0.0000E+00    0.0000E+00    8.710000E+06  0.00010  7.690E-03    0   0.9030   age067_m22            0.0000     2.5806E+03    41.3212   4.0000   105.8333
  6      0.0000     0.0000E+00    0.0000E+00    1.000000E+07  0.00010  6.375E-03    0   0.8902   age070_m22            0.0000     2.6086E+03    41.2950   4.0000   106.1106
  7      0.0000     0.0000E+00    0.0000E+00    1.445000E+07  0.00010  4.874E-03    0   0.8589   age078_m22            0.0000     2.0055E+03    36.7024   4.0000   107.0683
  8      0.0000     0.0000E+00    0.0000E+00    2.512000E+07  0.00010  4.103E-03    0   0.8174   age090_m22            0.0000     1.0110E+03    26.1590   4.0000   107.1100
  9      0.0000     0.0000E+00    0.0000E+00    4.000000E+07  0.00010  3.654E-03    0   0.7830   age104_m22            0.0000     6.0439E+02    18.4106   4.0000   105.6153
 10      0.0000     0.0000E+00    0.0000E+00    5.500000E+07  0.00010  3.093E-03    0   0.7597   age110_m22            0.0000     5.0968E+02    16.0938   4.0000   104.7157
 11      0.7211     3.7909E-03    5.4504E-03    1.015200E+08  0.00010  2.431E-03    0   0.7138   age116_m22            0.0000     3.4275E+02    12.0088   4.0000    98.5335
 12      0.0000     0.0000E+00    0.0000E+00    1.609000E+08  0.00010  1.319E-03    0   0.6775   age120_m22            0.0000     3.1572E+02    11.1775   3.6127    98.2129
 13      0.0000     0.0000E+00    0.0000E+00    2.861200E+08  0.00010  1.075E-03    0   0.6412   age125_m22            0.0000     4.6328E+02    14.1647   3.7442    99.5085
 14      0.0000     0.0000E+00    0.0000E+00    5.088000E+08  0.00010  7.183E-04    0   0.6083   age130_m22            0.0000     5.0507E+02    14.9439   3.5300   100.6482
 15      0.0000     0.0000E+00    0.0000E+00    9.047900E+08  0.00010  4.524E-04    0   0.5785   age135_m22            0.0000     4.9905E+02    14.9537   3.3290   101.8433
 16      0.0000     0.0000E+00    0.0000E+00    1.278050E+09  0.00010  3.018E-04    0   0.5588   age138_m22            0.0000     3.2131E+02    11.6039   2.7561   101.6394
 17      0.0000     0.0000E+00    0.0000E+00    1.434000E+09  0.00010  2.691E-04    0   0.5532   age139_m22            0.0000     2.8790E+02    10.8868   2.5921   101.4109
 18      0.0000     0.0000E+00    0.0000E+00    2.500000E+09  0.00010  1.582E-04    0   0.5296   age150_m22            0.0000     2.7582E+02    10.6932   2.4656   102.5168
 19      0.0000     0.0000E+00    0.0000E+00    4.250000E+09  0.00010  1.007E-04    0   0.5110   age158_m22            0.0000     2.1326E+02     9.0122   2.2934   101.5487
 20      0.0000     0.0000E+00    0.0000E+00    6.250000E+09  0.00010  6.869E-05    0   0.4985   age166_m22            0.0000     1.7024E+02     7.7314   2.2135    99.5272
 21      0.0000     0.0000E+00    0.0000E+00    7.500000E+09  0.00010  5.873E-05    0   0.4931   age171_m22            0.0000     1.7036E+02     7.7683   2.1943    99.1996
 22      0.0000     0.0000E+00    0.0000E+00    1.000000E+10  0.00010  4.481E-05    0   0.4854   age181_m22            0.0000     1.6619E+02     7.6770   2.1559    98.8634
 23      0.0000     0.0000E+00    0.0000E+00    1.300000E+10  0.00010  3.489E-05    0   0.4791   age193_m22            0.0000     1.5757E+02     7.4638   2.0975    98.4137
 24      0.9396     3.9568E-01    3.7984E-01    1.500000E+10  0.00010  3.035E-05    0   0.4766   age201_m22            0.0000     1.5256E+02     7.3587   2.0568    98.3099
 25      4.2887     2.1838E+00    2.0827E+00    1.800000E+10  0.00010  2.510E-05    0   0.4735   age213_m22            0.0000     1.4266E+02     7.1487   1.9837    97.9039
 26      0.0000     0.0000E+00    0.0000E+00    1.000000E+06  0.00040  8.458E-03    0   1.0000   age020_m32            0.0000     2.7391E+03    42.6562   4.0000   103.6397
 27      0.0000     0.0000E+00    0.0000E+00    3.160000E+06  0.00040  3.973E-02    0   1.0000   age045_m32            0.0000     8.0812E+02    23.9441   4.0000   105.1115
 28      0.0000     0.0000E+00    0.0000E+00    5.010000E+06  0.00040  1.935E-02    0   0.9532   age055_m32            0.0000     1.3154E+03    31.4145   4.0000   103.2476
 29      0.0000     0.0000E+00    0.0000E+00    6.610000E+06  0.00040  1.204E-02    0   0.9243   age061_m32            0.0000     2.1425E+03    38.3003   4.0000   105.9989
 30      0.0000     0.0000E+00    0.0000E+00    8.710000E+06  0.00040  9.433E-03    0   0.9001   age067_m32            0.0000     2.0405E+03    37.3307   4.0000   106.5960
 31      0.0000     0.0000E+00    0.0000E+00    1.000000E+07  0.00040  8.053E-03    0   0.8877   age070_m32            0.0000     1.9322E+03    36.4505   4.0000   106.5984
 32      0.0000     0.0000E+00    0.0000E+00    1.445000E+07  0.00040  7.027E-03    0   0.8578   age078_m32            0.0000     7.6872E+02    24.0446   4.0000   102.7851
 33      0.3642     9.8883E-04    1.6264E-03    2.512000E+07  0.00040  4.707E-03    0   0.8166   age090_m32            0.0000     4.2346E+02    17.0685   4.0000    99.9959
 34      0.0000     0.0000E+00    0.0000E+00    4.000000E+07  0.00040  3.714E-03    0   0.7827   age104_m32            0.0000     3.1904E+02    13.1250   4.0000    98.1621
 35      0.0000     0.0000E+00    0.0000E+00    5.500000E+07  0.00040  2.982E-03    0   0.7593   age110_m32            0.0000     3.1310E+02    12.3669   4.0000    97.6503
 36      0.0000     0.0000E+00    0.0000E+00    1.015200E+08  0.00040  2.188E-03    0   0.7143   age116_m32            0.0000     3.6568E+02    12.2965   3.8823    97.6939
 37      0.0000     0.0000E+00    0.0000E+00    1.609000E+08  0.00040  1.690E-03    0   0.6856   age120_m32            0.0000     4.1989E+02    13.4745   3.7044    99.4518
 38      0.0000     0.0000E+00    0.0000E+00    2.861200E+08  0.00040  1.152E-03    0   0.6509   age125_m32            0.0000     4.6376E+02    14.2637   3.5026   100.4619
 39      0.0000     0.0000E+00    0.0000E+00    5.088000E+08  0.00040  7.331E-04    0   0.6182   age130_m32            0.0000     4.7735E+02    14.4878   3.3482   100.9020
 40      0.0000     0.0000E+00    0.0000E+00    9.047900E+08  0.00040  3.960E-04    0   0.5890   age135_m32            0.0000     3.2519E+02    11.6786   2.8566   100.7078
 41      0.0000     0.0000E+00    0.0000E+00    1.278050E+09  0.00040  2.854E-04    0   0.5687   age138_m32            0.0000     2.8946E+02    11.0901   2.5419   103.1561
 42      0.0000     0.0000E+00    0.0000E+00    1.434000E+09  0.00040  2.531E-04    0   0.5632   age139_m32            0.0000     2.8345E+02    11.0011   2.4789   103.2031
 43      0.0000     0.0000E+00    0.0000E+00    2.500000E+09  0.00040  1.488E-04    0   0.5386   age150_m32            0.0000     2.2778E+02     9.7096   2.2135   101.8453
 44      1.3873     1.9523E-01    2.0444E-01    4.250000E+09  0.00040  9.082E-05    0   0.5199   age158_m32            0.0000     1.5036E+02     7.2157   2.0806    99.7089
 45      9.9301     1.9949E+00    2.0396E+00    6.250000E+09  0.00040  6.362E-05    0   0.5076   age166_m32            0.0000     1.2401E+02     6.6233   2.0066    97.4000
 46     12.6432     3.0552E+00    3.0936E+00    7.500000E+09  0.00040  5.289E-05    0   0.5027   age171_m32            0.0000     1.1621E+02     6.5258   1.9668    96.3006
 47      7.7489     2.4934E+00    2.4850E+00    1.000000E+10  0.00040  3.972E-05    0   0.4948   age181_m32            0.0000     1.0756E+02     6.3738   1.9033    95.0588
 48      4.8422     1.8851E+00    1.8491E+00    1.300000E+10  0.00040  3.283E-05    0   0.4870   age193_m32            0.0000     1.1017E+02     6.2364   1.8759    97.3100
 49      1.8800     8.2146E-01    8.0315E-01    1.500000E+10  0.00040  2.925E-05    0   0.4854   age201_m32            0.0000     1.1689E+02     6.3936   1.8668    98.6179
 50      3.5328     1.8288E+00    1.7751E+00    1.800000E+10  0.00040  2.469E-05    0   0.4819   age213_m32            0.0000     1.1752E+02     6.4227   1.8307    99.0472
 51      0.0000     0.0000E+00    0.0000E+00    1.000000E+06  0.00400  1.114E-02    0   1.0000   age020_m42            0.0000     2.4996E+03    41.0788   4.0000   103.3723
 52      0.0000     0.0000E+00    0.0000E+00    3.160000E+06  0.00400  4.073E-02    0   0.9999   age045_m42            0.0000     3.9317E+02    16.3188   4.0000   101.0556
 53      0.0000     0.0000E+00    0.0000E+00    5.010000E+06  0.00400  2.534E-02    0   0.9488   age055_m42            0.0000     9.9664E+02    27.2219   4.0000   103.4247
 54      0.3928     1.9434E-04    3.6091E-04    6.610000E+06  0.00400  2.583E-02    0   0.9220   age061_m42            0.0000     2.9011E+02    13.4391   4.0000    97.3827
 55      0.0000     0.0000E+00    0.0000E+00    8.710000E+06  0.00400  1.706E-02    0   0.8983   age067_m42            0.0000     2.7806E+02    13.7670   3.9630    92.0963
 56      0.5259     5.2883E-04    9.4397E-04    1.000000E+07  0.00400  1.271E-02    0   0.8862   age070_m42            0.0000     3.2780E+02    15.4619   3.9260    91.3308
 57      0.0000     0.0000E+00    0.0000E+00    1.445000E+07  0.00400  7.666E-03    0   0.8571   age078_m42            0.0000     4.9872E+02    20.6426   4.0000    96.0581
 58      0.0000     0.0000E+00    0.0000E+00    2.512000E+07  0.00400  5.070E-03    0   0.8174   age090_m42            0.0000     3.0074E+02    14.8146   3.8041    92.7608
 59      0.0000     0.0000E+00    0.0000E+00    4.000000E+07  0.00400  3.505E-03    0   0.7851   age104_m42            0.0000     2.3223E+02    12.8475   3.5085    95.2191
 60      0.0000     0.0000E+00    0.0000E+00    5.500000E+07  0.00400  3.059E-03    0   0.7629   age110_m42            0.0000     2.3409E+02    10.7067   3.6316    97.7057
 61      0.0000     0.0000E+00    0.0000E+00    1.015200E+08  0.00400  2.268E-03    0   0.7207   age116_m42            0.0000     3.5432E+02    12.2919   3.6127   100.5122
 62      0.0000     0.0000E+00    0.0000E+00    1.609000E+08  0.00400  1.720E-03    0   0.6930   age120_m42            0.0000     3.5849E+02    12.3807   3.4870   101.5637
 63      0.0000     0.0000E+00    0.0000E+00    2.861200E+08  0.00400  1.079E-03    0   0.6613   age125_m42            0.0000     3.3944E+02    12.1197   3.1273   102.1963
 64      0.0000     0.0000E+00    0.0000E+00    5.088000E+08  0.00400  6.261E-04    0   0.6313   age130_m42            0.0000     3.6535E+02    12.9760   2.9366   104.9209
 65      0.9938     3.5931E-02    4.3597E-02    9.047900E+08  0.00400  3.535E-04    0   0.6024   age135_m42            0.0000     2.4107E+02    10.4044   2.5145   106.0632
 66      0.0000     0.0000E+00    0.0000E+00    1.278050E+09  0.00400  2.677E-04    0   0.5837   age138_m42            0.0000     7.4404E+01     5.7316   1.8166   104.5477
 67      0.5174     3.4624E-02    3.9863E-02    1.434000E+09  0.00400  1.910E-04    0   0.5716   age139_m42            0.0000     1.0931E+02     6.7195   1.9911   105.0438
 68      0.0000     0.0000E+00    0.0000E+00    2.500000E+09  0.00400  9.818E-05    0   0.5463   age150_m42            0.0000     3.3767E+01     3.4389   1.7006   101.1315
 69      0.4199     9.7727E-02    1.0372E-01    4.250000E+09  0.00400  5.491E-05    0   0.5269   age158_m42            0.0000     1.8075E+01     2.8214   1.5611    98.9607
 70      0.1236     4.0944E-02    4.2480E-02    6.250000E+09  0.00400  3.857E-05    0   0.5151   age166_m42            0.0000     1.5193E+01     2.8001   1.4369    97.7545
 71      0.0000     0.0000E+00    0.0000E+00    7.500000E+09  0.00400  3.243E-05    0   0.5110   age171_m42            0.0000     1.6107E+01     2.9237   1.3615    97.2253
 72      0.0160     8.4365E-03    8.5441E-03    1.000000E+10  0.00400  2.424E-05    0   0.5028   age181_m42            0.0000     2.0513E+01     3.3351   1.2858    96.6007
 73      0.0000     0.0000E+00    0.0000E+00    1.300000E+10  0.00400  1.883E-05    0   0.4927   age193_m42            0.0000     2.6697E+01     3.8565   1.2469    96.3296
 74      0.0000     0.0000E+00    0.0000E+00    1.500000E+10  0.00400  1.685E-05    0   0.4919   age201_m42            0.0000     2.5033E+01     3.7355   1.2511    96.3641
 75      0.0000     0.0000E+00    0.0000E+00    1.800000E+10  0.00400  1.452E-05    0   0.4874   age213_m42            0.0000     2.2338E+01     3.5313   1.2647    96.6701
 76      0.0000     0.0000E+00    0.0000E+00    1.000000E+06  0.00800  1.286E-02    0   1.0000   age020_m52            0.0000     2.4026E+03    40.1268   4.0000   105.0700
 77      0.0000     0.0000E+00    0.0000E+00    3.160000E+06  0.00800  3.147E-02    0   0.9966   age045_m52            0.0000     2.1608E+03    38.4626   4.0000   105.8003
 78      0.0000     0.0000E+00    0.0000E+00    5.010000E+06  0.00800  2.664E-02    0   0.9443   age055_m52            0.0000     1.2626E+03    30.5450   4.0000   104.5880
 79      0.0000     0.0000E+00    0.0000E+00    6.610000E+06  0.00800  2.151E-02    0   0.9177   age061_m52            0.0000     2.5461E+02    14.0729   3.5181    93.1252
 80      0.0000     0.0000E+00    0.0000E+00    8.710000E+06  0.00800  1.628E-02    0   0.8948   age067_m52            0.0000     2.9282E+02    14.5602   3.9091    92.8716
 81      0.0000     0.0000E+00    0.0000E+00    1.000000E+07  0.00800  1.215E-02    0   0.8827   age070_m52            0.0000     4.0849E+02    18.3121   4.0000    97.3763
 82      0.0000     0.0000E+00    0.0000E+00    1.445000E+07  0.00800  8.739E-03    0   0.8552   age078_m52            0.0000     4.3675E+02    18.3027   4.0000    99.6504
 83      0.0000     0.0000E+00    0.0000E+00    2.512000E+07  0.00800  5.676E-03    0   0.8162   age090_m52            0.0000     2.9940E+02    13.0809   3.9402    95.6505
 84      0.0000     0.0000E+00    0.0000E+00    4.000000E+07  0.00800  3.939E-03    0   0.7841   age104_m52            0.0000     2.8625E+02    11.9067   3.8086    97.1306
 85      0.0000     0.0000E+00    0.0000E+00    5.500000E+07  0.00800  3.155E-03    0   0.7627   age110_m52            0.0000     2.9644E+02    11.3640   3.7990    98.1234
 86      0.0000     0.0000E+00    0.0000E+00    1.015200E+08  0.00800  2.206E-03    0   0.7226   age116_m52            0.0000     3.2346E+02    11.3628   3.6517   100.8169
 87      0.0000     0.0000E+00    0.0000E+00    1.609000E+08  0.00800  1.596E-03    0   0.6963   age120_m52            0.0000     3.3016E+02    11.7407   3.4501   102.0863
 88      0.0000     0.0000E+00    0.0000E+00    2.861200E+08  0.00800  1.002E-03    0   0.6665   age125_m52            0.0000     3.7278E+02    12.9679   3.1888   103.9377
 89      0.0000     0.0000E+00    0.0000E+00    5.088000E+08  0.00800  5.759E-04    0   0.6377   age130_m52            0.0000     3.5669E+02    12.7043   2.8580   107.4184
 90      0.0000     0.0000E+00    0.0000E+00    9.047900E+08  0.00800  2.972E-04    0   0.6086   age135_m52            0.0000     2.0226E+02     9.0398   2.3081   106.8112
 91      0.0000     0.0000E+00    0.0000E+00    1.278050E+09  0.00800  2.242E-04    0   0.5907   age138_m52            0.0000     5.5668E+01     4.8971   1.6622   106.9266
 92      0.0000     0.0000E+00    0.0000E+00    1.434000E+09  0.00800  1.645E-04    0   0.5787   age139_m52            0.0000     5.3962E+01     4.6996   1.8033   106.4537
 93      0.0000     0.0000E+00    0.0000E+00    2.500000E+09  0.00800  7.723E-05    0   0.5519   age150_m52            0.0000     1.4852E+01     2.9052   1.4544   103.3132
 94      0.0000     0.0000E+00    0.0000E+00    4.250000E+09  0.00800  4.151E-05    0   0.5320   age158_m52            0.0000     1.2442E+01     2.8845   1.3762   101.1406
 95      0.0000     0.0000E+00    0.0000E+00    6.250000E+09  0.00800  3.010E-05    0   0.5197   age166_m52            0.0000     1.5651E+01     3.3122   1.1871    99.8454
 96      0.0000     0.0000E+00    0.0000E+00    7.500000E+09  0.00800  2.467E-05    0   0.5139   age171_m52            0.0000     1.8421E+01     3.5161   1.1478    99.4389
 97      0.0000     0.0000E+00    0.0000E+00    1.000000E+10  0.00800  1.862E-05    0   0.5054   age181_m52            0.0000     2.9546E+01     4.2545   1.0267    98.9593
