###################################################################
## OUTPUT of StarlightChains_v04.for    [Cid@UFSC - 01/Apr/2007] ##
###################################################################

## Some input info
NGC6441_a_2.cxt                          [arq_obs]
Base.BC03.S                              [arq_base]
NGC6441_a_2.msk                          [arq_masks]
StCv04.C11.config                        [arq_config]
  150                                    [N_base]
    0                                    [N_YAV_components = # of components with extra extinction!]
    0                                    [i_FitPowerLaw (1/0 = Yes/No)]
-9.99                                    [alpha_PowerLaw]
CCM                                      [red_law_option]
 1.458241                                [q_norm = A(l_norm)/A(V)]

## (Re)Sampling Parameters
 3359.00                                 [l_ini (A)]
 6428.00                                 [l_fin (A)]
    1.00                                 [dl    (A)]     (OBS: dl_cushion =    50.00 A)

## Normalization info
 4020.00                                 [l_norm (A) - for base]
 4010.00                                 [llow_norm (A) - window for f_obs]
 4060.00                                 [lupp_norm (A) - window for f_obs]
3.752896E-14                             [fobs_norm (in input units)]

## S/N
 4730.00                                 [llow_SN (A) - window for S/N]
 4780.00                                 [lupp_SN (A) - window for S/N]
  36.122                                 [S/N in S/N window]
  21.548                                 [S/N in norm. window]
 237.783                                 [S/N_err in S/N window]
 141.847                                 [S/N_err in norm. window]
  1.0000                                 [fscale_chi2]

## etc...
  2147483608                             [idum_orig]
  3067                                   [NOl_eff]
   709                                   [Nl_eff]
  2358    NSIGMA                         [Ntot_cliped & clip_method]
  2467710                                [Nglobal_steps]
   7                                     [N_chains]
  33                                     [NEX0s_base = N_base in EX0s-fits]
 0   0   1      159   2.0   3.244E+02    [Clip-Bug, RC-Crash & Burn-In warning-flags, n_censored_weights, wei_nsig_threshold & wei_limit]
    85     84.912     84.900      0.012  [idt_all, wdt_TotTime, wdt_UsrTime & wdt_SysTime (sec)]

## Synthesis Results - Best model ##

 2.81172E+00                             [chi2/Nl_eff]
     1.60723                             [adev (%)]

   100.34013                             [sum-of-x (%)]
 1.84859E-13                             [Flux_tot (units of input spectrum!)]
 1.33120E-08                             [Mini_tot (???)]
 6.64667E-09                             [Mcor_tot (???)]

 -14.48                                  [v0_min  (km/s)]
  32.75                                  [vd_min  (km/s)]
 1.1846                                  [AV_min  (mag)]
 0.0000                                  [YAV_min (mag)]

# j     x_j(%)      Mini_j(%)     Mcor_j(%)     age_j(yr)     Z_j      (L/M)_j    YAV?  Mstars   component_j        a/Fe...       SSP_chi2r SSP_adev(%)   SSP_AV   SSP_x(%)
  1      0.0000     0.0000E+00    0.0000E+00    1.000000E+06  0.00010  8.160E-03    0   1.0000   age020_m22            0.0000     4.7239E+03    44.7002   4.0000   100.1700
  2      2.3414     6.8089E-04    1.3637E-03    3.160000E+06  0.00010  4.759E-02    0   1.0000   age045_m22            0.0000     3.1648E+02    10.1500   3.4103    95.6288
  3      4.4788     3.2083E-03    6.1570E-03    5.010000E+06  0.00010  1.932E-02    0   0.9582   age055_m22            0.0000     6.5264E+02    17.3677   3.6642    84.2300
  4      0.0605     8.3904E-05    1.5623E-04    6.610000E+06  0.00010  9.973E-03    0   0.9297   age061_m22            0.0000     4.6296E+03    43.7076   4.0000   102.9168
  5      0.0000     0.0000E+00    0.0000E+00    8.710000E+06  0.00010  7.690E-03    0   0.9030   age067_m22            0.0000     4.5428E+03    43.2703   4.0000   103.3525
  6      0.0000     0.0000E+00    0.0000E+00    1.000000E+07  0.00010  6.375E-03    0   0.8902   age070_m22            0.0000     4.5719E+03    43.1932   4.0000   103.6448
  7      0.0000     0.0000E+00    0.0000E+00    1.445000E+07  0.00010  4.874E-03    0   0.8589   age078_m22            0.0000     3.4764E+03    38.4183   4.0000   105.1442
  8      0.0000     0.0000E+00    0.0000E+00    2.512000E+07  0.00010  4.103E-03    0   0.8174   age090_m22            0.0000     1.6915E+03    27.2080   4.0000   106.2271
  9      0.0000     0.0000E+00    0.0000E+00    4.000000E+07  0.00010  3.654E-03    0   0.7830   age104_m22            0.0000     9.7973E+02    18.8348   4.0000   105.3475
 10      0.0000     0.0000E+00    0.0000E+00    5.500000E+07  0.00010  3.093E-03    0   0.7597   age110_m22            0.0000     8.2738E+02    16.3501   4.0000   104.6020
 11      0.0000     0.0000E+00    0.0000E+00    1.015200E+08  0.00010  2.431E-03    0   0.7138   age116_m22            0.0000     5.7882E+02    12.4740   4.0000    98.8689
 12      0.0000     0.0000E+00    0.0000E+00    1.609000E+08  0.00010  1.319E-03    0   0.6775   age120_m22            0.0000     5.3487E+02    11.5904   3.6127    98.7112
 13      0.0000     0.0000E+00    0.0000E+00    2.861200E+08  0.00010  1.075E-03    0   0.6412   age125_m22            0.0000     8.5131E+02    15.3336   3.7236   100.5395
 14      0.0000     0.0000E+00    0.0000E+00    5.088000E+08  0.00010  7.183E-04    0   0.6083   age130_m22            0.0000     9.4542E+02    16.3404   3.5026   101.8840
 15      0.0000     0.0000E+00    0.0000E+00    9.047900E+08  0.00010  4.524E-04    0   0.5785   age135_m22            0.0000     9.4030E+02    16.3824   3.3030   103.0712
 16      0.0000     0.0000E+00    0.0000E+00    1.278050E+09  0.00010  3.018E-04    0   0.5588   age138_m22            0.0000     5.9124E+02    12.5742   2.7420   102.5914
 17      0.0000     0.0000E+00    0.0000E+00    1.434000E+09  0.00010  2.691E-04    0   0.5532   age139_m22            0.0000     5.2729E+02    11.7799   2.5803   102.2956
 18      0.0000     0.0000E+00    0.0000E+00    2.500000E+09  0.00010  1.582E-04    0   0.5296   age150_m22            0.0000     4.9434E+02    11.4796   2.4574   103.3439
 19      0.0000     0.0000E+00    0.0000E+00    4.250000E+09  0.00010  1.007E-04    0   0.5110   age158_m22            0.0000     3.7036E+02     9.5878   2.2912   102.1677
 20      0.0000     0.0000E+00    0.0000E+00    6.250000E+09  0.00010  6.869E-05    0   0.4985   age166_m22            0.0000     2.8348E+02     8.0171   2.2181    99.8839
 21      0.0000     0.0000E+00    0.0000E+00    7.500000E+09  0.00010  5.873E-05    0   0.4931   age171_m22            0.0000     2.7862E+02     7.9657   2.2011    99.4990
 22      0.0869     2.6853E-02    2.6106E-02    1.000000E+10  0.00010  4.481E-05    0   0.4854   age181_m22            0.0000     2.7139E+02     7.8546   2.1633    99.1458
 23      0.0000     0.0000E+00    0.0000E+00    1.300000E+10  0.00010  3.489E-05    0   0.4791   age193_m22            0.0000     2.5673E+02     7.5913   2.1057    98.6596
 24      0.0000     0.0000E+00    0.0000E+00    1.500000E+10  0.00010  3.035E-05    0   0.4766   age201_m22            0.0000     2.4752E+02     7.4504   2.0650    98.5536
 25      2.1865     1.2056E+00    1.1433E+00    1.800000E+10  0.00010  2.510E-05    0   0.4735   age213_m22            0.0000     2.2884E+02     7.1559   1.9942    98.0760
 26      0.0000     0.0000E+00    0.0000E+00    1.000000E+06  0.00040  8.458E-03    0   1.0000   age020_m32            0.0000     4.8253E+03    44.7732   4.0000   100.9818
 27      0.0000     0.0000E+00    0.0000E+00    3.160000E+06  0.00040  3.973E-02    0   1.0000   age045_m32            0.0000     1.3711E+03    25.0526   4.0000   104.3570
 28      0.0000     0.0000E+00    0.0000E+00    5.010000E+06  0.00040  1.935E-02    0   0.9532   age055_m32            0.0000     2.3369E+03    33.2381   4.0000   101.8634
 29      0.5449     6.2630E-04    1.1594E-03    6.610000E+06  0.00040  1.204E-02    0   0.9243   age061_m32            0.0000     3.7674E+03    40.1940   4.0000   103.8759
 30      0.0000     0.0000E+00    0.0000E+00    8.710000E+06  0.00040  9.433E-03    0   0.9001   age067_m32            0.0000     3.5656E+03    39.1380   4.0000   104.6005
 31      0.0000     0.0000E+00    0.0000E+00    1.000000E+07  0.00040  8.053E-03    0   0.8877   age070_m32            0.0000     3.3724E+03    38.2279   4.0000   104.7000
 32      0.0000     0.0000E+00    0.0000E+00    1.445000E+07  0.00040  7.027E-03    0   0.8578   age078_m32            0.0000     1.3216E+03    25.3079   4.0000   102.1167
 33      0.0000     0.0000E+00    0.0000E+00    2.512000E+07  0.00040  4.707E-03    0   0.8166   age090_m32            0.0000     6.9877E+02    17.7237   4.0000    99.9085
 34      0.0000     0.0000E+00    0.0000E+00    4.000000E+07  0.00040  3.714E-03    0   0.7827   age104_m32            0.0000     5.1399E+02    13.3243   4.0000    98.3897
 35      0.0000     0.0000E+00    0.0000E+00    5.500000E+07  0.00040  2.982E-03    0   0.7593   age110_m32            0.0000     5.0908E+02    12.5401   4.0000    97.9550
 36      0.0000     0.0000E+00    0.0000E+00    1.015200E+08  0.00040  2.188E-03    0   0.7143   age116_m32            0.0000     6.4039E+02    13.0440   3.8728    98.3974
 37      0.0000     0.0000E+00    0.0000E+00    1.609000E+08  0.00040  1.690E-03    0   0.6856   age120_m32            0.0000     7.6128E+02    14.5081   3.6872   100.4294
 38      0.0000     0.0000E+00    0.0000E+00    2.861200E+08  0.00040  1.152E-03    0   0.6509   age125_m32            0.0000     8.6094E+02    15.5263   3.4797   101.5735
 39      0.0000     0.0000E+00    0.0000E+00    5.088000E+08  0.00040  7.331E-04    0   0.6182   age130_m32            0.0000     8.9674E+02    15.8525   3.3208   102.1464
 40      0.0000     0.0000E+00    0.0000E+00    9.047900E+08  0.00040  3.960E-04    0   0.5890   age135_m32            0.0000     6.0502E+02    12.7114   2.8389   101.6734
 41      0.0000     0.0000E+00    0.0000E+00    1.278050E+09  0.00040  2.854E-04    0   0.5687   age138_m32            0.0000     5.2562E+02    11.9459   2.5292   104.0986
 42      0.0000     0.0000E+00    0.0000E+00    1.434000E+09  0.00040  2.531E-04    0   0.5632   age139_m32            0.0000     5.1416E+02    11.8480   2.4670   104.1345
 43      0.0000     0.0000E+00    0.0000E+00    2.500000E+09  0.00040  1.488E-04    0   0.5386   age150_m32            0.0000     4.1251E+02    10.4844   2.2039   102.6610
 44      2.2949     3.4971E-01    3.6414E-01    4.250000E+09  0.00040  9.082E-05    0   0.5199   age158_m32            0.0000     2.5595E+02     7.6131   2.0828   100.1155
 45     10.7545     2.3395E+00    2.3784E+00    6.250000E+09  0.00040  6.362E-05    0   0.5076   age166_m32            0.0000     1.9219E+02     6.3898   2.0207    97.4277
 46      9.4968     2.4850E+00    2.5019E+00    7.500000E+09  0.00040  5.289E-05    0   0.5027   age171_m32            0.0000     1.7778E+02     6.2067   1.9823    96.2667
 47      8.1768     2.8490E+00    2.8234E+00    1.000000E+10  0.00040  3.972E-05    0   0.4948   age181_m32            0.0000     1.6424E+02     6.0304   1.9202    94.9633
 48      4.6838     1.9745E+00    1.9258E+00    1.300000E+10  0.00040  3.283E-05    0   0.4870   age193_m32            0.0000     1.7619E+02     6.1696   1.8855    97.4586
 49      1.5583     7.3729E-01    7.1677E-01    1.500000E+10  0.00040  2.925E-05    0   0.4854   age201_m32            0.0000     1.9235E+02     6.5050   1.8736    98.8752
 50      2.7523     1.5428E+00    1.4890E+00    1.800000E+10  0.00040  2.469E-05    0   0.4819   age213_m32            0.0000     1.9575E+02     6.6145   1.8353    99.3797
 51      0.3418     4.2459E-04    8.5036E-04    1.000000E+06  0.00400  1.114E-02    0   1.0000   age020_m42            0.0000     4.4073E+03    43.1751   4.0000   100.8844
 52      0.0000     0.0000E+00    0.0000E+00    3.160000E+06  0.00400  4.073E-02    0   0.9999   age045_m42            0.0000     6.5732E+02    17.0054   4.0000   100.7983
 53      0.0000     0.0000E+00    0.0000E+00    5.010000E+06  0.00400  2.534E-02    0   0.9488   age055_m42            0.0000     1.7315E+03    28.7192   4.0000   102.3642
 54      0.0000     0.0000E+00    0.0000E+00    6.610000E+06  0.00400  2.583E-02    0   0.9220   age061_m42            0.0000     4.7266E+02    13.8149   4.0000    97.4432
 55      0.2079     1.6867E-04    3.0346E-04    8.710000E+06  0.00400  1.706E-02    0   0.8983   age067_m42            0.0000     4.2225E+02    13.5826   4.0000    91.5045
 56      0.0000     0.0000E+00    0.0000E+00    1.000000E+07  0.00400  1.271E-02    0   0.8862   age070_m42            0.0000     4.9652E+02    15.1843   3.9771    90.4251
 57      0.0000     0.0000E+00    0.0000E+00    1.445000E+07  0.00400  7.666E-03    0   0.8571   age078_m42            0.0000     8.6242E+02    21.9124   4.0000    95.7616
 58      0.0000     0.0000E+00    0.0000E+00    2.512000E+07  0.00400  5.070E-03    0   0.8174   age090_m42            0.0000     4.5403E+02    14.5279   3.8515    91.9531
 59      0.0000     0.0000E+00    0.0000E+00    4.000000E+07  0.00400  3.505E-03    0   0.7851   age104_m42            0.0000     3.5005E+02    12.5795   3.5469    94.6630
 60      0.0000     0.0000E+00    0.0000E+00    5.500000E+07  0.00400  3.059E-03    0   0.7629   age110_m42            0.0000     3.7798E+02    10.7183   3.6423    97.9245
 61      0.0000     0.0000E+00    0.0000E+00    1.015200E+08  0.00400  2.268E-03    0   0.7207   age116_m42            0.0000     6.4309E+02    13.2611   3.5971   101.4752
 62      0.0000     0.0000E+00    0.0000E+00    1.609000E+08  0.00400  1.720E-03    0   0.6930   age120_m42            0.0000     6.6614E+02    13.4789   3.4656   102.6609
 63      0.0000     0.0000E+00    0.0000E+00    2.861200E+08  0.00400  1.079E-03    0   0.6613   age125_m42            0.0000     6.2561E+02    13.2159   3.1065   103.3259
 64      0.0000     0.0000E+00    0.0000E+00    5.088000E+08  0.00400  6.261E-04    0   0.6313   age130_m42            0.0000     6.7948E+02    14.1017   2.9128   106.2194
 65      0.0000     0.0000E+00    0.0000E+00    9.047900E+08  0.00400  3.535E-04    0   0.6024   age135_m42            0.0000     4.4511E+02    11.2560   2.4967   107.1919
 66      0.0000     0.0000E+00    0.0000E+00    1.278050E+09  0.00400  2.677E-04    0   0.5837   age138_m42            0.0000     1.4915E+02     6.5515   1.8028   105.4386
 67      0.6418     4.6501E-02    5.3235E-02    1.434000E+09  0.00400  1.910E-04    0   0.5716   age139_m42            0.0000     2.1392E+02     7.5216   1.9733   106.0541
 68      0.3953     5.5727E-02    6.0973E-02    2.500000E+09  0.00400  9.818E-05    0   0.5463   age150_m42            0.0000     6.6758E+01     3.8440   1.6924   101.6746
 69      0.0000     0.0000E+00    0.0000E+00    4.250000E+09  0.00400  5.491E-05    0   0.5269   age158_m42            0.0000     3.1035E+01     2.8820   1.5611    99.2181
 70      0.0000     0.0000E+00    0.0000E+00    6.250000E+09  0.00400  3.857E-05    0   0.5151   age166_m42            0.0000     2.5297E+01     2.8435   1.4361    97.9898
 71      0.2372     1.0124E-01    1.0361E-01    7.500000E+09  0.00400  3.243E-05    0   0.5110   age171_m42            0.0000     2.6794E+01     2.9817   1.3607    97.4403
 72      0.0181     1.0338E-02    1.0411E-02    1.000000E+10  0.00400  2.424E-05    0   0.5028   age181_m42            0.0000     3.3730E+01     3.3887   1.2853    96.7837
 73      0.0000     0.0000E+00    0.0000E+00    1.300000E+10  0.00400  1.883E-05    0   0.4927   age193_m42            0.0000     4.2905E+01     3.8836   1.2469    96.4911
 74      0.0000     0.0000E+00    0.0000E+00    1.500000E+10  0.00400  1.685E-05    0   0.4919   age201_m42            0.0000     3.9840E+01     3.7389   1.2511    96.5288
 75      0.0000     0.0000E+00    0.0000E+00    1.800000E+10  0.00400  1.452E-05    0   0.4874   age213_m42            0.0000     3.4860E+01     3.5004   1.2652    96.8331
 76      0.0000     0.0000E+00    0.0000E+00    1.000000E+06  0.00800  1.286E-02    0   1.0000   age020_m52            0.0000     4.2146E+03    42.0510   4.0000   102.6577
 77      0.0000     0.0000E+00    0.0000E+00    3.160000E+06  0.00800  3.147E-02    0   0.9966   age045_m52            0.0000     3.7933E+03    40.3246   4.0000   103.6116
 78      0.0000     0.0000E+00    0.0000E+00    5.010000E+06  0.00800  2.664E-02    0   0.9443   age055_m52            0.0000     2.2070E+03    32.1551   4.0000   103.2078
 79      0.0718     4.6216E-05    8.4944E-05    6.610000E+06  0.00800  2.151E-02    0   0.9177   age061_m52            0.0000     3.9171E+02    13.8540   3.5661    92.1662
 80      0.0000     0.0000E+00    0.0000E+00    8.710000E+06  0.00800  1.628E-02    0   0.8948   age067_m52            0.0000     4.4418E+02    14.3103   3.9551    92.0319
 81      0.0000     0.0000E+00    0.0000E+00    1.000000E+07  0.00800  1.215E-02    0   0.8827   age070_m52            0.0000     6.8664E+02    19.2118   4.0000    97.2725
 82      0.0000     0.0000E+00    0.0000E+00    1.445000E+07  0.00800  8.739E-03    0   0.8552   age078_m52            0.0000     7.3189E+02    19.1624   4.0000    99.4928
 83      0.0000     0.0000E+00    0.0000E+00    2.512000E+07  0.00800  5.676E-03    0   0.8162   age090_m52            0.0000     4.6004E+02    12.8466   3.9689    95.3703
 84      0.0000     0.0000E+00    0.0000E+00    4.000000E+07  0.00800  3.939E-03    0   0.7841   age104_m52            0.0000     4.5381E+02    11.8110   3.8255    97.1753
 85      0.0000     0.0000E+00    0.0000E+00    5.500000E+07  0.00800  3.155E-03    0   0.7627   age110_m52            0.0000     4.8800E+02    11.5104   3.8063    98.4231
 86      0.0000     0.0000E+00    0.0000E+00    1.015200E+08  0.00800  2.206E-03    0   0.7226   age116_m52            0.0000     5.7263E+02    12.1105   3.6411   101.6334
 87      0.0000     0.0000E+00    0.0000E+00    1.609000E+08  0.00800  1.596E-03    0   0.6963   age120_m52            0.0000     5.9687E+02    12.6572   3.4331   103.1044
 88      0.0000     0.0000E+00    0.0000E+00    2.861200E+08  0.00800  1.002E-03    0   0.6665   age125_m52            0.0000     7.0466E+02    14.2631   3.1610   105.2821
 89      0.0000     0.0000E+00    0.0000E+00    5.088000E+08  0.00800  5.759E-04    0   0.6377   age130_m52            0.0000     6.9505E+02    14.0980   2.8197   109.1250
 90      0.0000     0.0000E+00    0.0000E+00    9.047900E+08  0.00800  2.972E-04    0   0.6086   age135_m52            0.0000     4.0474E+02    10.1836   2.2734   108.2763
 91      0.0000     0.0000E+00    0.0000E+00    1.278050E+09  0.00800  2.242E-04    0   0.5907   age138_m52            0.0000     1.2368E+02     5.7605   1.6402   107.9955
 92      0.0000     0.0000E+00    0.0000E+00    1.434000E+09  0.00800  1.645E-04    0   0.5787   age139_m52            0.0000     1.1709E+02     5.4697   1.7855   107.3744
 93      0.0000     0.0000E+00    0.0000E+00    2.500000E+09  0.00800  7.723E-05    0   0.5519   age150_m52            0.0000     3.6204E+01     3.4907   1.4411   103.9571
 94      0.0000     0.0000E+00    0.0000E+00    4.250000E+09  0.00800  4.151E-05    0   0.5320   age158_m52            0.0000     2.7190E+01     3.2988   1.3657   101.6594
 95      0.0000     0.0000E+00    0.0000E+00    6.250000E+09  0.00800  3.010E-05    0   0.5197   age166_m52            0.0000     3.0309E+01     3.6717   1.1757   100.3269
 96      0.0000     0.0000E+00    0.0000E+00    7.500000E+09  0.00800  2.467E-05    0   0.5139   age171_m52            0.0000     3.4759E+01     3.8780   1.1360    99.9228
 97      0.0000     0.0000E+00    0.0000E+00    1.000000E+10  0.00800  1.862E-05    0   0.5054   age181_m52            0.0000     5.3112E+01     4.6602   1.0117    99.5024
