###################################################################
## OUTPUT of StarlightChains_v04.for    [Cid@UFSC - 01/Apr/2007] ##
###################################################################

## Some input info
NGC6284_a_2.cxt                          [arq_obs]
Base.BC03.S                              [arq_base]
NGC6284_a_2.msk                          [arq_masks]
StCv04.C11.config                        [arq_config]
  150                                    [N_base]
    0                                    [N_YAV_components = # of components with extra extinction!]
    0                                    [i_FitPowerLaw (1/0 = Yes/No)]
-9.99                                    [alpha_PowerLaw]
CCM                                      [red_law_option]
 1.458241                                [q_norm = A(l_norm)/A(V)]

## (Re)Sampling Parameters
 3359.00                                 [l_ini (A)]
 6428.00                                 [l_fin (A)]
    1.00                                 [dl    (A)]     (OBS: dl_cushion =    50.00 A)

## Normalization info
 4020.00                                 [l_norm (A) - for base]
 4010.00                                 [llow_norm (A) - window for f_obs]
 4060.00                                 [lupp_norm (A) - window for f_obs]
1.360561E-14                             [fobs_norm (in input units)]

## S/N
 4730.00                                 [llow_SN (A) - window for S/N]
 4780.00                                 [lupp_SN (A) - window for S/N]
  73.354                                 [S/N in S/N window]
  58.120                                 [S/N in norm. window]
  64.892                                 [S/N_err in S/N window]
  51.416                                 [S/N_err in norm. window]
  1.0000                                 [fscale_chi2]

## etc...
  2147483620                             [idum_orig]
  3068                                   [NOl_eff]
  2153                                   [Nl_eff]
   915    NSIGMA                         [Ntot_cliped & clip_method]
  2174200                                [Nglobal_steps]
   7                                     [N_chains]
  34                                     [NEX0s_base = N_base in EX0s-fits]
 0   0   1      379   2.0   9.368E+02    [Clip-Bug, RC-Crash & Burn-In warning-flags, n_censored_weights, wei_nsig_threshold & wei_limit]
    66     66.553     66.549      0.004  [idt_all, wdt_TotTime, wdt_UsrTime & wdt_SysTime (sec)]

## Synthesis Results - Best model ##

 2.10249E+00                             [chi2/Nl_eff]
     1.61439                             [adev (%)]

   101.74491                             [sum-of-x (%)]
 4.36033E-14                             [Flux_tot (units of input spectrum!)]
 1.03101E-09                             [Mini_tot (???)]
 5.22985E-10                             [Mcor_tot (???)]

 -18.12                                  [v0_min  (km/s)]
  81.80                                  [vd_min  (km/s)]
 0.8543                                  [AV_min  (mag)]
 0.0000                                  [YAV_min (mag)]

# j     x_j(%)      Mini_j(%)     Mcor_j(%)     age_j(yr)     Z_j      (L/M)_j    YAV?  Mstars   component_j        a/Fe...       SSP_chi2r SSP_adev(%)   SSP_AV   SSP_x(%)
  1      0.0000     0.0000E+00    0.0000E+00    1.000000E+06  0.00010  8.160E-03    0   1.0000   age020_m22            0.0000     4.4958E+02    18.6084   4.0000    73.1335
  2     12.0897     1.0559E-02    2.0817E-02    3.160000E+06  0.00010  4.759E-02    0   1.0000   age045_m22            0.0000     2.9194E+01     3.6072   2.4131    93.8500
  3      0.0000     0.0000E+00    0.0000E+00    5.010000E+06  0.00010  1.932E-02    0   0.9582   age055_m22            0.0000     1.9878E+02     9.3296   2.8027    77.7204
  4      0.0000     0.0000E+00    0.0000E+00    6.610000E+06  0.00010  9.973E-03    0   0.9297   age061_m22            0.0000     3.9195E+02    17.5926   4.0000    75.6968
  5      0.0000     0.0000E+00    0.0000E+00    8.710000E+06  0.00010  7.690E-03    0   0.9030   age067_m22            0.0000     3.7167E+02    17.1453   4.0000    76.2367
  6      0.0000     0.0000E+00    0.0000E+00    1.000000E+07  0.00010  6.375E-03    0   0.8902   age070_m22            0.0000     3.6801E+02    17.2591   4.0000    76.5514
  7      0.0000     0.0000E+00    0.0000E+00    1.445000E+07  0.00010  4.874E-03    0   0.8589   age078_m22            0.0000     2.0267E+02    11.4973   4.0000    79.5630
  8      0.0000     0.0000E+00    0.0000E+00    2.512000E+07  0.00010  4.103E-03    0   0.8174   age090_m22            0.0000     5.4679E+01     5.5943   3.8241    86.0147
  9      0.6874     7.8199E-03    1.2071E-02    4.000000E+07  0.00010  3.654E-03    0   0.7830   age104_m22            0.0000     7.3720E+01     4.4054   3.4930    91.8280
 10      0.3218     4.3249E-03    6.4774E-03    5.500000E+07  0.00010  3.093E-03    0   0.7597   age110_m22            0.0000     9.6599E+01     4.0307   3.3696    94.2904
 11      1.1217     1.9179E-02    2.6988E-02    1.015200E+08  0.00010  2.431E-03    0   0.7138   age116_m22            0.0000     1.6893E+02     3.9273   2.9978    98.1353
 12      0.0000     0.0000E+00    0.0000E+00    1.609000E+08  0.00010  1.319E-03    0   0.6775   age120_m22            0.0000     1.7889E+02     3.7669   2.4922   101.7252
 13      0.0000     0.0000E+00    0.0000E+00    2.861200E+08  0.00010  1.075E-03    0   0.6412   age125_m22            0.0000     5.0870E+02     6.5308   2.4611   109.3925
 14      0.0000     0.0000E+00    0.0000E+00    5.088000E+08  0.00010  7.183E-04    0   0.6083   age130_m22            0.0000     6.1872E+02     7.8361   2.1856   113.3213
 15      0.0000     0.0000E+00    0.0000E+00    9.047900E+08  0.00010  4.524E-04    0   0.5785   age135_m22            0.0000     6.1662E+02     8.1234   1.9755   115.2254
 16      0.0000     0.0000E+00    0.0000E+00    1.278050E+09  0.00010  3.018E-04    0   0.5588   age138_m22            0.0000     2.6773E+02     5.5976   1.5050   110.9191
 17      0.0000     0.0000E+00    0.0000E+00    1.434000E+09  0.00010  2.691E-04    0   0.5532   age139_m22            0.0000     2.0737E+02     5.1078   1.3601   109.9438
 18      0.0000     0.0000E+00    0.0000E+00    2.500000E+09  0.00010  1.582E-04    0   0.5296   age150_m22            0.0000     1.7511E+02     4.4068   1.2698   109.5470
 19      0.0000     0.0000E+00    0.0000E+00    4.250000E+09  0.00010  1.007E-04    0   0.5110   age158_m22            0.0000     8.0544E+01     3.2967   1.1492   106.5626
 20      0.0000     0.0000E+00    0.0000E+00    6.250000E+09  0.00010  6.869E-05    0   0.4985   age166_m22            0.0000     2.4945E+01     2.4600   1.1224   102.5013
 21      0.1151     8.1456E-02    7.9183E-02    7.500000E+09  0.00010  5.873E-05    0   0.4931   age171_m22            0.0000     2.0733E+01     2.3922   1.1204   101.4416
 22      0.0210     1.9458E-02    1.8620E-02    1.000000E+10  0.00010  4.481E-05    0   0.4854   age181_m22            0.0000     1.9403E+01     2.3511   1.0820   101.1230
 23      0.0000     0.0000E+00    0.0000E+00    1.300000E+10  0.00010  3.489E-05    0   0.4791   age193_m22            0.0000     1.5776E+01     2.2605   1.0250   100.6426
 24      0.0000     0.0000E+00    0.0000E+00    1.500000E+10  0.00010  3.035E-05    0   0.4766   age201_m22            0.0000     1.3800E+01     2.1983   0.9871   100.4128
 25      0.7006     1.1602E+00    1.0830E+00    1.800000E+10  0.00010  2.510E-05    0   0.4735   age213_m22            0.0000     9.6518E+00     2.0862   0.9231    99.6612
 26      0.0000     0.0000E+00    0.0000E+00    1.000000E+06  0.00040  8.458E-03    0   1.0000   age020_m32            0.0000     4.4927E+02    18.9023   4.0000    73.8025
 27      0.0000     0.0000E+00    0.0000E+00    3.160000E+06  0.00040  3.973E-02    0   1.0000   age045_m32            0.0000     5.7234E+01     5.7891   3.7287    85.6069
 28      0.0000     0.0000E+00    0.0000E+00    5.010000E+06  0.00040  1.935E-02    0   0.9532   age055_m32            0.0000     1.4888E+02     8.5324   4.0000    78.3121
 29      0.0000     0.0000E+00    0.0000E+00    6.610000E+06  0.00040  1.204E-02    0   0.9243   age061_m32            0.0000     2.5895E+02    13.2810   4.0000    77.6900
 30      0.0000     0.0000E+00    0.0000E+00    8.710000E+06  0.00040  9.433E-03    0   0.9001   age067_m32            0.0000     2.2059E+02    12.1633   4.0000    78.6935
 31      0.0000     0.0000E+00    0.0000E+00    1.000000E+07  0.00040  8.053E-03    0   0.8877   age070_m32            0.0000     1.9735E+02    11.0741   4.0000    79.1353
 32      0.0000     0.0000E+00    0.0000E+00    1.445000E+07  0.00040  7.027E-03    0   0.8578   age078_m32            0.0000     7.2972E+01     6.7105   3.7014    83.7031
 33      0.0000     0.0000E+00    0.0000E+00    2.512000E+07  0.00040  4.707E-03    0   0.8166   age090_m32            0.0000     4.8482E+01     5.4452   3.3792    88.5793
 34      1.0278     1.1503E-02    1.7749E-02    4.000000E+07  0.00040  3.714E-03    0   0.7827   age104_m32            0.0000     6.4086E+01     4.4336   3.1472    92.9987
 35      0.0000     0.0000E+00    0.0000E+00    5.500000E+07  0.00040  2.982E-03    0   0.7593   age110_m32            0.0000     8.6491E+01     4.1287   3.0695    94.8700
 36      0.0000     0.0000E+00    0.0000E+00    1.015200E+08  0.00040  2.188E-03    0   0.7143   age116_m32            0.0000     2.6091E+02     4.2770   2.7310   102.1991
 37      0.0000     0.0000E+00    0.0000E+00    1.609000E+08  0.00040  1.690E-03    0   0.6856   age120_m32            0.0000     4.1014E+02     5.1940   2.4812   106.6169
 38      0.0000     0.0000E+00    0.0000E+00    2.861200E+08  0.00040  1.152E-03    0   0.6509   age125_m32            0.0000     5.3186E+02     6.9364   2.1943   111.5070
 39      0.0000     0.0000E+00    0.0000E+00    5.088000E+08  0.00040  7.331E-04    0   0.6182   age130_m32            0.0000     5.7137E+02     7.6984   2.0066   113.5698
 40      0.0000     0.0000E+00    0.0000E+00    9.047900E+08  0.00040  3.960E-04    0   0.5890   age135_m32            0.0000     2.6645E+02     6.2241   1.5817   111.1088
 41      0.0000     0.0000E+00    0.0000E+00    1.278050E+09  0.00040  2.854E-04    0   0.5687   age138_m32            0.0000     2.0708E+02     4.9796   1.3214   111.2740
 42      0.0000     0.0000E+00    0.0000E+00    1.434000E+09  0.00040  2.531E-04    0   0.5632   age139_m32            0.0000     2.0002E+02     4.8048   1.2633   111.1001
 43      3.9318     1.0983E+00    1.1662E+00    2.500000E+09  0.00040  1.488E-04    0   0.5386   age150_m32            0.0000     1.1947E+02     4.0163   1.0203   108.7920
 44     51.0196     2.3351E+01    2.3933E+01    4.250000E+09  0.00040  9.082E-05    0   0.5199   age158_m32            0.0000     2.1275E+01     2.3769   0.9691   103.5169
 45      8.1666     5.3357E+00    5.3393E+00    6.250000E+09  0.00040  6.362E-05    0   0.5076   age166_m32            0.0000     6.8313E+00     1.9758   0.9711    98.2401
 46      0.6385     5.0178E-01    4.9728E-01    7.500000E+09  0.00040  5.289E-05    0   0.5027   age171_m32            0.0000     1.0470E+01     2.0318   0.9381    96.9335
 47      0.0058     6.1206E-03    5.9703E-03    1.000000E+10  0.00040  3.972E-05    0   0.4948   age181_m32            0.0000     1.5103E+01     2.1207   0.8746    95.8016
 48      0.0000     0.0000E+00    0.0000E+00    1.300000E+10  0.00040  3.283E-05    0   0.4870   age193_m32            0.0000     5.2644E+00     1.9586   0.8088    99.3944
 49      0.0062     8.8249E-03    8.4447E-03    1.500000E+10  0.00040  2.925E-05    0   0.4854   age201_m32            0.0000     7.9367E+00     2.0720   0.7777   101.4971
 50      0.0485     8.1666E-02    7.7584E-02    1.800000E+10  0.00040  2.469E-05    0   0.4819   age213_m32            0.0000     1.0685E+01     2.1736   0.7308   102.2908
 51      0.0000     0.0000E+00    0.0000E+00    1.000000E+06  0.00400  1.114E-02    0   1.0000   age020_m42            0.0000     3.9529E+02    16.8278   4.0000    74.3493
 52      1.0440     1.0654E-03    2.1002E-03    3.160000E+06  0.00400  4.073E-02    0   0.9999   age045_m42            0.0000     3.8094E+01     4.5154   3.4021    89.3025
 53      0.0000     0.0000E+00    0.0000E+00    5.010000E+06  0.00400  2.534E-02    0   0.9488   age055_m42            0.0000     9.7995E+01     6.8258   3.8566    81.4514
 54      1.1995     1.9302E-03    3.5084E-03    6.610000E+06  0.00400  2.583E-02    0   0.9220   age061_m42            0.0000     4.5595E+01     4.2951   3.2195    90.1650
 55      0.0000     0.0000E+00    0.0000E+00    8.710000E+06  0.00400  1.706E-02    0   0.8983   age067_m42            0.0000     5.0580E+01     5.6688   3.0768    86.8973
 56      0.3912     1.2794E-03    2.2352E-03    1.000000E+07  0.00400  1.271E-02    0   0.8862   age070_m42            0.0000     7.2270E+01     7.0910   3.0850    84.5268
 57      0.0000     0.0000E+00    0.0000E+00    1.445000E+07  0.00400  7.666E-03    0   0.8571   age078_m42            0.0000     1.1791E+02     7.6374   3.4966    81.3013
 58      0.0000     0.0000E+00    0.0000E+00    2.512000E+07  0.00400  5.070E-03    0   0.8174   age090_m42            0.0000     6.2742E+01     6.5210   2.9366    86.8104
 59      0.0000     0.0000E+00    0.0000E+00    4.000000E+07  0.00400  3.505E-03    0   0.7851   age104_m42            0.0000     4.2824E+01     4.8544   2.5817    91.3664
 60      0.0000     0.0000E+00    0.0000E+00    5.500000E+07  0.00400  3.059E-03    0   0.7629   age110_m42            0.0000     8.6339E+01     3.0189   2.5735    98.6174
 61      0.0000     0.0000E+00    0.0000E+00    1.015200E+08  0.00400  2.268E-03    0   0.7207   age116_m42            0.0000     3.5437E+02     5.0060   2.3976   107.4925
 62      0.0000     0.0000E+00    0.0000E+00    1.609000E+08  0.00400  1.720E-03    0   0.6930   age120_m42            0.0000     3.8471E+02     5.8135   2.2277   110.4751
 63      0.0000     0.0000E+00    0.0000E+00    2.861200E+08  0.00400  1.079E-03    0   0.6613   age125_m42            0.0000     3.9282E+02     6.2190   1.8499   112.1008
 64      0.0000     0.0000E+00    0.0000E+00    5.088000E+08  0.00400  6.261E-04    0   0.6313   age130_m42            0.0000     4.5515E+02     6.7665   1.6385   115.8222
 65      0.0000     0.0000E+00    0.0000E+00    9.047900E+08  0.00400  3.535E-04    0   0.6024   age135_m42            0.0000     2.3128E+02     5.5880   1.2661   115.3064
 66      0.0000     0.0000E+00    0.0000E+00    1.278050E+09  0.00400  2.677E-04    0   0.5837   age138_m42            0.0000     5.1205E+01     5.1574   0.5942   113.2230
 67      0.0000     0.0000E+00    0.0000E+00    1.434000E+09  0.00400  1.910E-04    0   0.5716   age139_m42            0.0000     7.3888E+01     5.2413   0.7559   114.1661
 68      0.0000     0.0000E+00    0.0000E+00    2.500000E+09  0.00400  9.818E-05    0   0.5463   age150_m42            0.0000     2.3357E+01     4.2852   0.5288   107.9359
 69      0.0000     0.0000E+00    0.0000E+00    4.250000E+09  0.00400  5.491E-05    0   0.5269   age158_m42            0.0000     4.9409E+01     3.9020   0.4285   104.1242
 70      0.0000     0.0000E+00    0.0000E+00    6.250000E+09  0.00400  3.857E-05    0   0.5151   age166_m42            0.0000     7.9494E+01     4.3854   0.3032   102.9687
 71      0.0732     9.3772E-02    9.4464E-02    7.500000E+09  0.00400  3.243E-05    0   0.5110   age171_m42            0.0000     1.0016E+02     4.7314   0.2227   102.6652
 72      0.1025     1.7584E-01    1.7429E-01    1.000000E+10  0.00400  2.424E-05    0   0.5028   age181_m42            0.0000     1.3516E+02     5.1685   0.1406   102.3234
 73      0.0000     0.0000E+00    0.0000E+00    1.300000E+10  0.00400  1.883E-05    0   0.4927   age193_m42            0.0000     1.6858E+02     5.4141   0.1023   102.0895
 74      1.1306     2.7889E+00    2.7045E+00    1.500000E+10  0.00400  1.685E-05    0   0.4919   age201_m42            0.0000     1.5971E+02     5.2870   0.1081   101.9962
 75      1.4897     4.2646E+00    4.0977E+00    1.800000E+10  0.00400  1.452E-05    0   0.4874   age213_m42            0.0000     1.4368E+02     5.0588   0.1251   102.0703
 76      0.0000     0.0000E+00    0.0000E+00    1.000000E+06  0.00800  1.286E-02    0   1.0000   age020_m52            0.0000     3.3035E+02    15.5009   4.0000    76.4337
 77      0.0000     0.0000E+00    0.0000E+00    3.160000E+06  0.00800  3.147E-02    0   0.9966   age045_m52            0.0000     2.6626E+02    13.2506   4.0000    77.6724
 78      0.0000     0.0000E+00    0.0000E+00    5.010000E+06  0.00800  2.664E-02    0   0.9443   age055_m52            0.0000     1.2233E+02     7.2418   3.9799    80.4096
 79      0.0000     0.0000E+00    0.0000E+00    6.610000E+06  0.00800  2.151E-02    0   0.9177   age061_m52            0.0000     7.1300E+01     5.7791   2.6534    87.5191
 80      0.0000     0.0000E+00    0.0000E+00    8.710000E+06  0.00800  1.628E-02    0   0.8948   age067_m52            0.0000     5.9071E+01     6.0456   3.0289    87.4498
 81      0.0000     0.0000E+00    0.0000E+00    1.000000E+07  0.00800  1.215E-02    0   0.8827   age070_m52            0.0000     7.4463E+01     6.6776   3.3792    85.2234
 82      0.0000     0.0000E+00    0.0000E+00    1.445000E+07  0.00800  8.739E-03    0   0.8552   age078_m52            0.0000     6.2781E+01     6.0094   3.4094    86.8608
 83      0.0000     0.0000E+00    0.0000E+00    2.512000E+07  0.00800  5.676E-03    0   0.8162   age090_m52            0.0000     7.6852E+01     5.0533   2.9823    92.3190
 84      0.0000     0.0000E+00    0.0000E+00    4.000000E+07  0.00800  3.939E-03    0   0.7841   age104_m52            0.0000     1.0833E+02     3.9220   2.7841    96.3990
 85      0.0000     0.0000E+00    0.0000E+00    5.500000E+07  0.00800  3.155E-03    0   0.7627   age110_m52            0.0000     1.5226E+02     3.5096   2.7237    99.5226
 86      0.0000     0.0000E+00    0.0000E+00    1.015200E+08  0.00800  2.206E-03    0   0.7226   age116_m52            0.0000     2.6399E+02     4.2474   2.4826   106.1471
 87      0.0000     0.0000E+00    0.0000E+00    1.609000E+08  0.00800  1.596E-03    0   0.6963   age120_m52            0.0000     3.1940E+02     5.1763   2.2350   109.3411
 88      0.0000     0.0000E+00    0.0000E+00    2.861200E+08  0.00800  1.002E-03    0   0.6665   age125_m52            0.0000     4.7886E+02     7.5327   1.8640   116.0442
 89      0.0000     0.0000E+00    0.0000E+00    5.088000E+08  0.00800  5.759E-04    0   0.6377   age130_m52            0.0000     4.5763E+02     8.7818   1.4657   123.2206
 90      0.0000     0.0000E+00    0.0000E+00    9.047900E+08  0.00800  2.972E-04    0   0.6086   age135_m52            0.0000     1.5617E+02     8.1499   0.9336   123.0065
 91      0.0000     0.0000E+00    0.0000E+00    1.278050E+09  0.00800  2.242E-04    0   0.5907   age138_m52            0.0000     4.9918E+01     6.5056   0.3834   118.9907
 92      0.0000     0.0000E+00    0.0000E+00    1.434000E+09  0.00800  1.645E-04    0   0.5787   age139_m52            0.0000     4.1367E+01     5.8577   0.5496   117.2822
 93      0.0000     0.0000E+00    0.0000E+00    2.500000E+09  0.00800  7.723E-05    0   0.5519   age150_m52            0.0000     6.4395E+01     5.6383   0.2459   112.1195
 94      0.0000     0.0000E+00    0.0000E+00    4.250000E+09  0.00800  4.151E-05    0   0.5320   age158_m52            0.0000     8.8794E+01     5.4392   0.1967   108.6408
 95      0.0000     0.0000E+00    0.0000E+00    6.250000E+09  0.00800  3.010E-05    0   0.5197   age166_m52            0.0000     1.4926E+02     6.1719  -0.0009   107.7246
 96      0.0000     0.0000E+00    0.0000E+00    7.500000E+09  0.00800  2.467E-05    0   0.5139   age171_m52            0.0000     1.6595E+02     6.4012  -0.0445   107.5244
 97      3.3008     7.3686E+00    7.3417E+00    1.000000E+10  0.00800  1.862E-05    0   0.5054   age181_m52            0.0000     2.1487E+02     7.1876  -0.1871   107.9842
