###################################################################
## OUTPUT of StarlightChains_v04.for    [Cid@UFSC - 01/Apr/2007] ##
###################################################################

## Some input info
NGC6356_a_1.cxt                          [arq_obs]
Base.BC03.S                              [arq_base]
NGC6356_a_1.msk                          [arq_masks]
StCv04.C11.config                        [arq_config]
  150                                    [N_base]
    0                                    [N_YAV_components = # of components with extra extinction!]
    0                                    [i_FitPowerLaw (1/0 = Yes/No)]
-9.99                                    [alpha_PowerLaw]
CCM                                      [red_law_option]
 1.458241                                [q_norm = A(l_norm)/A(V)]

## (Re)Sampling Parameters
 3359.00                                 [l_ini (A)]
 6428.00                                 [l_fin (A)]
    1.00                                 [dl    (A)]     (OBS: dl_cushion =    50.00 A)

## Normalization info
 4020.00                                 [l_norm (A) - for base]
 4010.00                                 [llow_norm (A) - window for f_obs]
 4060.00                                 [lupp_norm (A) - window for f_obs]
1.105556E-14                             [fobs_norm (in input units)]

## S/N
 4730.00                                 [llow_SN (A) - window for S/N]
 4780.00                                 [lupp_SN (A) - window for S/N]
  43.679                                 [S/N in S/N window]
  28.435                                 [S/N in norm. window]
  64.165                                 [S/N_err in S/N window]
  41.771                                 [S/N_err in norm. window]
  1.0000                                 [fscale_chi2]

## etc...
  2147483612                             [idum_orig]
  3068                                   [NOl_eff]
  1590                                   [Nl_eff]
  1478    NSIGMA                         [Ntot_cliped & clip_method]
  1962310                                [Nglobal_steps]
   7                                     [N_chains]
  31                                     [NEX0s_base = N_base in EX0s-fits]
 0   0   1      257   2.0   8.798E+02    [Clip-Bug, RC-Crash & Burn-In warning-flags, n_censored_weights, wei_nsig_threshold & wei_limit]
    60     60.124     60.107      0.016  [idt_all, wdt_TotTime, wdt_UsrTime & wdt_SysTime (sec)]

## Synthesis Results - Best model ##

 2.86498E+00                             [chi2/Nl_eff]
     1.91378                             [adev (%)]

   101.65421                             [sum-of-x (%)]
 3.07950E-14                             [Flux_tot (units of input spectrum!)]
 1.72723E-09                             [Mini_tot (???)]
 8.66168E-10                             [Mcor_tot (???)]

   6.08                                  [v0_min  (km/s)]
  71.06                                  [vd_min  (km/s)]
 0.7505                                  [AV_min  (mag)]
 0.0000                                  [YAV_min (mag)]

# j     x_j(%)      Mini_j(%)     Mcor_j(%)     age_j(yr)     Z_j      (L/M)_j    YAV?  Mstars   component_j        a/Fe...       SSP_chi2r SSP_adev(%)   SSP_AV   SSP_x(%)
  1      0.8057     1.7317E-03    3.4532E-03    1.000000E+06  0.00010  8.160E-03    0   1.0000   age020_m22            0.0000     1.4969E+03    31.2780   4.0000    77.7609
  2     11.9166     4.3918E-03    8.7577E-03    3.160000E+06  0.00010  4.759E-02    0   1.0000   age045_m22            0.0000     3.0106E+02     7.3983   3.0229    93.7013
  3      1.7375     1.5774E-03    3.0140E-03    5.010000E+06  0.00010  1.932E-02    0   0.9582   age055_m22            0.0000     4.7620E+02    12.3277   3.3769    81.0252
  4      0.0000     0.0000E+00    0.0000E+00    6.610000E+06  0.00010  9.973E-03    0   0.9297   age061_m22            0.0000     1.3962E+03    31.0102   4.0000    79.8776
  5      0.0000     0.0000E+00    0.0000E+00    8.710000E+06  0.00010  7.690E-03    0   0.9030   age067_m22            0.0000     1.3544E+03    30.6748   4.0000    80.3488
  6      0.0000     0.0000E+00    0.0000E+00    1.000000E+07  0.00010  6.375E-03    0   0.8902   age070_m22            0.0000     1.3419E+03    30.8131   4.0000    80.5537
  7      0.0000     0.0000E+00    0.0000E+00    1.445000E+07  0.00010  4.874E-03    0   0.8589   age078_m22            0.0000     1.0106E+03    26.0857   4.0000    83.5393
  8      0.0000     0.0000E+00    0.0000E+00    2.512000E+07  0.00010  4.103E-03    0   0.8174   age090_m22            0.0000     5.5424E+02    15.6530   4.0000    88.8115
  9      0.0000     0.0000E+00    0.0000E+00    4.000000E+07  0.00010  3.654E-03    0   0.7830   age104_m22            0.0000     5.2781E+02     9.1721   4.0000    91.4081
 10      0.0000     0.0000E+00    0.0000E+00    5.500000E+07  0.00010  3.093E-03    0   0.7597   age110_m22            0.0000     5.6387E+02     7.9475   4.0000    92.1375
 11      0.0000     0.0000E+00    0.0000E+00    1.015200E+08  0.00010  2.431E-03    0   0.7138   age116_m22            0.0000     6.8835E+02     8.0280   3.6642    94.3385
 12      0.0000     0.0000E+00    0.0000E+00    1.609000E+08  0.00010  1.319E-03    0   0.6775   age120_m22            0.0000     6.7710E+02     7.9412   3.1793    96.3764
 13      0.0000     0.0000E+00    0.0000E+00    2.861200E+08  0.00010  1.075E-03    0   0.6412   age125_m22            0.0000     1.1384E+03     8.4883   3.2213    99.5977
 14      0.0000     0.0000E+00    0.0000E+00    5.088000E+08  0.00010  7.183E-04    0   0.6083   age130_m22            0.0000     1.2678E+03     8.8715   2.9727   101.4949
 15      0.0000     0.0000E+00    0.0000E+00    9.047900E+08  0.00010  4.524E-04    0   0.5785   age135_m22            0.0000     1.2706E+03     9.0398   2.7649   102.7527
 16      0.0000     0.0000E+00    0.0000E+00    1.278050E+09  0.00010  3.018E-04    0   0.5588   age138_m22            0.0000     7.9657E+02     7.7906   2.2299   101.6855
 17      0.0000     0.0000E+00    0.0000E+00    1.434000E+09  0.00010  2.691E-04    0   0.5532   age139_m22            0.0000     7.0493E+02     7.4845   2.0732   101.3880
 18      0.0000     0.0000E+00    0.0000E+00    2.500000E+09  0.00010  1.582E-04    0   0.5296   age150_m22            0.0000     6.6645E+02     7.6446   1.9668   101.8177
 19      0.0000     0.0000E+00    0.0000E+00    4.250000E+09  0.00010  1.007E-04    0   0.5110   age158_m22            0.0000     4.8445E+02     7.0544   1.8175   100.6974
 20      0.0000     0.0000E+00    0.0000E+00    6.250000E+09  0.00010  6.869E-05    0   0.4985   age166_m22            0.0000     3.3442E+02     6.5823   1.7621    98.6354
 21      0.0000     0.0000E+00    0.0000E+00    7.500000E+09  0.00010  5.873E-05    0   0.4931   age171_m22            0.0000     3.2044E+02     6.6730   1.7553    98.0353
 22      0.0000     0.0000E+00    0.0000E+00    1.000000E+10  0.00010  4.481E-05    0   0.4854   age181_m22            0.0000     3.1383E+02     6.5927   1.7170    97.7247
 23      0.2725     1.3699E-01    1.3088E-01    1.300000E+10  0.00010  3.489E-05    0   0.4791   age193_m22            0.0000     2.9708E+02     6.4289   1.6585    97.3462
 24      0.0000     0.0000E+00    0.0000E+00    1.500000E+10  0.00010  3.035E-05    0   0.4766   age201_m22            0.0000     2.8761E+02     6.3498   1.6201    97.2194
 25      0.0000     0.0000E+00    0.0000E+00    1.800000E+10  0.00010  2.510E-05    0   0.4735   age213_m22            0.0000     2.6480E+02     6.2019   1.5515    96.7765
 26      0.0000     0.0000E+00    0.0000E+00    1.000000E+06  0.00040  8.458E-03    0   1.0000   age020_m32            0.0000     1.4917E+03    31.7154   4.0000    78.2305
 27      0.0000     0.0000E+00    0.0000E+00    3.160000E+06  0.00040  3.973E-02    0   1.0000   age045_m32            0.0000     5.0097E+02    13.1366   4.0000    88.5562
 28      0.0000     0.0000E+00    0.0000E+00    5.010000E+06  0.00040  1.935E-02    0   0.9532   age055_m32            0.0000     7.7598E+02    19.8975   4.0000    83.3793
 29      0.0000     0.0000E+00    0.0000E+00    6.610000E+06  0.00040  1.204E-02    0   0.9243   age061_m32            0.0000     1.1423E+03    27.4449   4.0000    81.9354
 30      0.0000     0.0000E+00    0.0000E+00    8.710000E+06  0.00040  9.433E-03    0   0.9001   age067_m32            0.0000     1.0683E+03    26.5829   4.0000    82.8460
 31      0.0000     0.0000E+00    0.0000E+00    1.000000E+07  0.00040  8.053E-03    0   0.8877   age070_m32            0.0000     1.0126E+03    25.6615   4.0000    83.2982
 32      0.0000     0.0000E+00    0.0000E+00    1.445000E+07  0.00040  7.027E-03    0   0.8578   age078_m32            0.0000     5.0470E+02    12.7363   4.0000    86.8982
 33      0.0000     0.0000E+00    0.0000E+00    2.512000E+07  0.00040  4.707E-03    0   0.8166   age090_m32            0.0000     4.2277E+02     9.1345   3.9904    88.7858
 34      0.0022     1.0157E-05    1.5853E-05    4.000000E+07  0.00040  3.714E-03    0   0.7827   age104_m32            0.0000     4.9024E+02     8.4166   3.7775    91.6582
 35      0.0000     0.0000E+00    0.0000E+00    5.500000E+07  0.00040  2.982E-03    0   0.7593   age110_m32            0.0000     5.3961E+02     8.2465   3.7109    92.6663
 36      0.0000     0.0000E+00    0.0000E+00    1.015200E+08  0.00040  2.188E-03    0   0.7143   age116_m32            0.0000     8.1629E+02     7.9615   3.4295    96.4146
 37      0.0000     0.0000E+00    0.0000E+00    1.609000E+08  0.00040  1.690E-03    0   0.6856   age120_m32            0.0000     1.0210E+03     8.2834   3.2136    98.6673
 38      0.0000     0.0000E+00    0.0000E+00    2.861200E+08  0.00040  1.152E-03    0   0.6509   age125_m32            0.0000     1.1561E+03     8.6167   2.9631   100.8045
 39      0.0000     0.0000E+00    0.0000E+00    5.088000E+08  0.00040  7.331E-04    0   0.6182   age130_m32            0.0000     1.1989E+03     8.7609   2.7863   101.8422
 40      0.0000     0.0000E+00    0.0000E+00    9.047900E+08  0.00040  3.960E-04    0   0.5890   age135_m32            0.0000     8.0460E+02     7.6926   2.3104   101.5802
 41      0.0000     0.0000E+00    0.0000E+00    1.278050E+09  0.00040  2.854E-04    0   0.5687   age138_m32            0.0000     7.3142E+02     7.7082   2.0317   102.7252
 42      0.0000     0.0000E+00    0.0000E+00    1.434000E+09  0.00040  2.531E-04    0   0.5632   age139_m32            0.0000     7.1416E+02     7.6896   1.9696   102.6925
 43      0.4974     5.8631E-02    6.2971E-02    2.500000E+09  0.00040  1.488E-04    0   0.5386   age150_m32            0.0000     5.5219E+02     7.0620   1.7079   101.5095
 44      0.7079     1.3672E-01    1.4174E-01    4.250000E+09  0.00040  9.082E-05    0   0.5199   age158_m32            0.0000     3.1469E+02     6.1389   1.6119    99.2037
 45      1.4570     4.0168E-01    4.0658E-01    6.250000E+09  0.00040  6.362E-05    0   0.5076   age166_m32            0.0000     2.0413E+02     5.8541   1.5809    96.4878
 46      0.0000     0.0000E+00    0.0000E+00    7.500000E+09  0.00040  5.289E-05    0   0.5027   age171_m32            0.0000     1.8292E+02     5.6490   1.5448    95.5274
 47      0.0036     1.5995E-03    1.5782E-03    1.000000E+10  0.00040  3.972E-05    0   0.4948   age181_m32            0.0000     1.6406E+02     5.4078   1.4790    94.5304
 48      0.0000     0.0000E+00    0.0000E+00    1.300000E+10  0.00040  3.283E-05    0   0.4870   age193_m32            0.0000     2.0912E+02     5.4424   1.4301    96.8279
 49      0.0000     0.0000E+00    0.0000E+00    1.500000E+10  0.00040  2.925E-05    0   0.4854   age201_m32            0.0000     2.4761E+02     5.5431   1.4101    98.1236
 50      0.0000     0.0000E+00    0.0000E+00    1.800000E+10  0.00040  2.469E-05    0   0.4819   age213_m32            0.0000     2.6337E+02     5.5269   1.3680    98.5754
 51      0.0000     0.0000E+00    0.0000E+00    1.000000E+06  0.00400  1.114E-02    0   1.0000   age020_m42            0.0000     1.3742E+03    29.9468   4.0000    78.8330
 52      0.0000     0.0000E+00    0.0000E+00    3.160000E+06  0.00400  4.073E-02    0   0.9999   age045_m42            0.0000     3.5331E+02     7.9525   4.0000    89.8385
 53      0.3644     2.5219E-04    4.7715E-04    5.010000E+06  0.00400  2.534E-02    0   0.9488   age055_m42            0.0000     5.8064E+02    15.8033   4.0000    85.7404
 54      3.0146     2.0470E-03    3.7635E-03    6.610000E+06  0.00400  2.583E-02    0   0.9220   age061_m42            0.0000     4.0240E+02     7.9073   3.8315    90.1861
 55      0.1678     1.7250E-04    3.0899E-04    8.710000E+06  0.00400  1.706E-02    0   0.8983   age067_m42            0.0000     3.8513E+02     9.1593   3.6730    88.1855
 56      0.0000     0.0000E+00    0.0000E+00    1.000000E+07  0.00400  1.271E-02    0   0.8862   age070_m42            0.0000     4.1142E+02    10.3480   3.6689    86.5766
 57      0.0000     0.0000E+00    0.0000E+00    1.445000E+07  0.00400  7.666E-03    0   0.8571   age078_m42            0.0000     4.3901E+02    10.6426   4.0000    84.3963
 58      0.0805     2.7848E-04    4.5392E-04    2.512000E+07  0.00400  5.070E-03    0   0.8174   age090_m42            0.0000     3.8524E+02     9.8482   3.5314    88.2456
 59      0.0000     0.0000E+00    0.0000E+00    4.000000E+07  0.00400  3.505E-03    0   0.7851   age104_m42            0.0000     3.4702E+02     8.4177   3.1964    91.4119
 60      0.0000     0.0000E+00    0.0000E+00    5.500000E+07  0.00400  3.059E-03    0   0.7629   age110_m42            0.0000     4.9157E+02     7.1220   3.2308    95.4700
 61      0.0000     0.0000E+00    0.0000E+00    1.015200E+08  0.00400  2.268E-03    0   0.7207   age116_m42            0.0000     9.1719E+02     7.5077   3.1212    99.8420
 62      0.0000     0.0000E+00    0.0000E+00    1.609000E+08  0.00400  1.720E-03    0   0.6930   age120_m42            0.0000     9.4282E+02     7.5926   2.9645   101.7178
 63      0.0000     0.0000E+00    0.0000E+00    2.861200E+08  0.00400  1.079E-03    0   0.6613   age125_m42            0.0000     9.1542E+02     7.5365   2.6009   102.2098
 64      0.0000     0.0000E+00    0.0000E+00    5.088000E+08  0.00400  6.261E-04    0   0.6313   age130_m42            0.0000     1.0054E+03     8.1354   2.4021   104.7407
 65      0.0000     0.0000E+00    0.0000E+00    9.047900E+08  0.00400  3.535E-04    0   0.6024   age135_m42            0.0000     6.8242E+02     7.1630   1.9897   105.8648
 66      0.0000     0.0000E+00    0.0000E+00    1.278050E+09  0.00400  2.677E-04    0   0.5837   age138_m42            0.0000     2.5799E+02     4.5213   1.2802   105.7804
 67      0.0000     0.0000E+00    0.0000E+00    1.434000E+09  0.00400  1.910E-04    0   0.5716   age139_m42            0.0000     3.6068E+02     5.1413   1.4502   106.1508
 68      0.0000     7.4573E-06    8.1238E-06    2.500000E+09  0.00400  9.818E-05    0   0.5463   age150_m42            0.0000     1.0956E+02     3.0554   1.1794   103.0454
 69      0.0000     0.0000E+00    0.0000E+00    4.250000E+09  0.00400  5.491E-05    0   0.5269   age158_m42            0.0000     4.4164E+01     2.4007   1.0623   100.8091
 70      0.0000     0.0000E+00    0.0000E+00    6.250000E+09  0.00400  3.857E-05    0   0.5151   age166_m42            0.0000     2.2450E+01     2.3217   0.9341   100.0581
 71      0.0000     0.0000E+00    0.0000E+00    7.500000E+09  0.00400  3.243E-05    0   0.5110   age171_m42            0.0000     1.5861E+01     2.4243   0.8531    99.8323
 72      0.0000     0.0000E+00    0.0000E+00    1.000000E+10  0.00400  2.424E-05    0   0.5028   age181_m42            0.0000     1.2039E+01     2.6146   0.7704    99.5941
 73      0.0000     0.0000E+00    0.0000E+00    1.300000E+10  0.00400  1.883E-05    0   0.4927   age193_m42            0.0000     1.3942E+01     2.7843   0.7300    99.5235
 74      0.0000     0.0000E+00    0.0000E+00    1.500000E+10  0.00400  1.685E-05    0   0.4919   age201_m42            0.0000     1.2948E+01     2.7039   0.7357    99.4850
 75      0.0000     0.0000E+00    0.0000E+00    1.800000E+10  0.00400  1.452E-05    0   0.4874   age213_m42            0.0000     1.1949E+01     2.5852   0.7523    99.6332
 76      0.0000     0.0000E+00    0.0000E+00    1.000000E+06  0.00800  1.286E-02    0   1.0000   age020_m52            0.0000     1.2729E+03    29.2408   4.0000    80.4686
 77      0.0000     0.0000E+00    0.0000E+00    3.160000E+06  0.00800  3.147E-02    0   0.9966   age045_m52            0.0000     1.1506E+03    27.4345   4.0000    81.8068
 78      0.0000     0.0000E+00    0.0000E+00    5.010000E+06  0.00800  2.664E-02    0   0.9443   age055_m52            0.0000     7.2581E+02    19.0329   4.0000    85.0284
 79      0.0000     0.0000E+00    0.0000E+00    6.610000E+06  0.00800  2.151E-02    0   0.9177   age061_m52            0.0000     3.2506E+02     9.0518   3.2491    89.0087
 80      0.0000     0.0000E+00    0.0000E+00    8.710000E+06  0.00800  1.628E-02    0   0.8948   age067_m52            0.0000     3.9924E+02     9.4717   3.6327    88.5156
 81      0.0000     0.0000E+00    0.0000E+00    1.000000E+07  0.00800  1.215E-02    0   0.8827   age070_m52            0.0000     4.3703E+02    10.0180   3.9828    86.6385
 82      0.0000     0.0000E+00    0.0000E+00    1.445000E+07  0.00800  8.739E-03    0   0.8552   age078_m52            0.0000     4.4995E+02     9.5069   4.0000    87.8803
 83      0.0000     0.0000E+00    0.0000E+00    2.512000E+07  0.00800  5.676E-03    0   0.8162   age090_m52            0.0000     5.0847E+02     8.8427   3.6113    91.6260
 84      0.0000     0.0000E+00    0.0000E+00    4.000000E+07  0.00800  3.939E-03    0   0.7841   age104_m52            0.0000     5.5248E+02     8.0588   3.4345    93.9702
 85      0.0000     0.0000E+00    0.0000E+00    5.500000E+07  0.00800  3.155E-03    0   0.7627   age110_m52            0.0000     6.2498E+02     7.7579   3.3925    95.6783
 86      0.0000     0.0000E+00    0.0000E+00    1.015200E+08  0.00800  2.206E-03    0   0.7226   age116_m52            0.0000     7.8738E+02     7.4535   3.1840    99.6503
 87      0.0000     0.0000E+00    0.0000E+00    1.609000E+08  0.00800  1.596E-03    0   0.6963   age120_m52            0.0000     8.5263E+02     7.4867   2.9571   101.3851
 88      0.0000     0.0000E+00    0.0000E+00    2.861200E+08  0.00800  1.002E-03    0   0.6665   age125_m52            0.0000     1.0463E+03     7.9010   2.6365   104.5038
 89      0.0000     0.0000E+00    0.0000E+00    5.088000E+08  0.00800  5.759E-04    0   0.6377   age130_m52            0.0000     1.0426E+03     8.1339   2.2587   109.1381
 90      0.0000     0.0000E+00    0.0000E+00    9.047900E+08  0.00800  2.972E-04    0   0.6086   age135_m52            0.0000     5.9410E+02     6.8466   1.6859   109.9069
 91      0.0000     0.0000E+00    0.0000E+00    1.278050E+09  0.00800  2.242E-04    0   0.5907   age138_m52            0.0000     2.1541E+02     4.5462   1.0784   109.8350
 92      0.0000     0.0000E+00    0.0000E+00    1.434000E+09  0.00800  1.645E-04    0   0.5787   age139_m52            0.0000     2.0810E+02     4.2238   1.2351   109.0738
 93      0.0000     0.0000E+00    0.0000E+00    2.500000E+09  0.00800  7.723E-05    0   0.5519   age150_m52            0.0000     6.3578E+01     3.0838   0.9034   106.3928
 94      0.0000     0.0000E+00    0.0000E+00    4.250000E+09  0.00800  4.151E-05    0   0.5320   age158_m52            0.0000     3.2256E+01     2.7515   0.8390   104.1062
 95      0.1572     9.1603E-02    9.4931E-02    6.250000E+09  0.00800  3.010E-05    0   0.5197   age166_m52            0.0000     1.7734E+01     3.0624   0.6408   103.4208
 96      0.0637     4.5307E-02    4.6429E-02    7.500000E+09  0.00800  2.467E-05    0   0.5139   age171_m52            0.0000     1.8104E+01     3.2530   0.5973   103.2074
 97     33.5921     3.1642E+01    3.1889E+01    1.000000E+10  0.00800  1.862E-05    0   0.5054   age181_m52            0.0000     2.7165E+01     3.9431   0.4586   103.3729
