###################################################################
## OUTPUT of StarlightChains_v04.for    [Cid@UFSC - 01/Apr/2007] ##
###################################################################

## Some input info
NGC6171_a_1.cxt                          [arq_obs]
Base.BC03.S                              [arq_base]
NGC6171_a_1.msk                          [arq_masks]
StCv04.C11.config                        [arq_config]
  150                                    [N_base]
    0                                    [N_YAV_components = # of components with extra extinction!]
    0                                    [i_FitPowerLaw (1/0 = Yes/No)]
-9.99                                    [alpha_PowerLaw]
CCM                                      [red_law_option]
 1.458241                                [q_norm = A(l_norm)/A(V)]

## (Re)Sampling Parameters
 3359.00                                 [l_ini (A)]
 6428.00                                 [l_fin (A)]
    1.00                                 [dl    (A)]     (OBS: dl_cushion =    50.00 A)

## Normalization info
 4020.00                                 [l_norm (A) - for base]
 4010.00                                 [llow_norm (A) - window for f_obs]
 4060.00                                 [lupp_norm (A) - window for f_obs]
4.369149E-15                             [fobs_norm (in input units)]

## S/N
 4730.00                                 [llow_SN (A) - window for S/N]
 4780.00                                 [lupp_SN (A) - window for S/N]
  52.314                                 [S/N in S/N window]
  35.378                                 [S/N in norm. window]
 244.302                                 [S/N_err in S/N window]
 165.214                                 [S/N_err in norm. window]
  1.0000                                 [fscale_chi2]

## etc...
  2147483627                             [idum_orig]
  3069                                   [NOl_eff]
   737                                   [Nl_eff]
  2332    NSIGMA                         [Ntot_cliped & clip_method]
  2198210                                [Nglobal_steps]
   7                                     [N_chains]
  26                                     [NEX0s_base = N_base in EX0s-fits]
 0   0   1      258   2.0   3.468E+02    [Clip-Bug, RC-Crash & Burn-In warning-flags, n_censored_weights, wei_nsig_threshold & wei_limit]
    86     86.590     86.582      0.008  [idt_all, wdt_TotTime, wdt_UsrTime & wdt_SysTime (sec)]

## Synthesis Results - Best model ##

 2.73791E+00                             [chi2/Nl_eff]
     1.22738                             [adev (%)]

    99.94869                             [sum-of-x (%)]
 2.49473E-14                             [Flux_tot (units of input spectrum!)]
 8.01583E-10                             [Mini_tot (???)]
 4.02984E-10                             [Mcor_tot (???)]

  -5.72                                  [v0_min  (km/s)]
  40.15                                  [vd_min  (km/s)]
 1.2975                                  [AV_min  (mag)]
 0.0000                                  [YAV_min (mag)]

# j     x_j(%)      Mini_j(%)     Mcor_j(%)     age_j(yr)     Z_j      (L/M)_j    YAV?  Mstars   component_j        a/Fe...       SSP_chi2r SSP_adev(%)   SSP_AV   SSP_x(%)
  1      0.0000     0.0000E+00    0.0000E+00    1.000000E+06  0.00010  8.160E-03    0   1.0000   age020_m22            0.0000     2.0065E+03    24.9931   4.0000    95.1217
  2      5.0029     3.2735E-03    6.5113E-03    3.160000E+06  0.00010  4.759E-02    0   1.0000   age045_m22            0.0000     1.9240E+02     5.8921   2.8594   100.2000
  3     15.2747     2.4619E-02    4.6922E-02    5.010000E+06  0.00010  1.932E-02    0   0.9582   age055_m22            0.0000     4.2991E+02    11.8844   3.1018    89.1750
  4      0.0000     0.0000E+00    0.0000E+00    6.610000E+06  0.00010  9.973E-03    0   0.9297   age061_m22            0.0000     1.9017E+03    24.0079   4.0000    97.9323
  5      0.0000     0.0000E+00    0.0000E+00    8.710000E+06  0.00010  7.690E-03    0   0.9030   age067_m22            0.0000     1.8442E+03    23.5894   4.0000    98.2618
  6      0.0000     0.0000E+00    0.0000E+00    1.000000E+07  0.00010  6.375E-03    0   0.8902   age070_m22            0.0000     1.8623E+03    23.5087   4.0000    98.5415
  7      0.0000     0.0000E+00    0.0000E+00    1.445000E+07  0.00010  4.874E-03    0   0.8589   age078_m22            0.0000     1.1962E+03    19.2536   4.0000    99.0823
  8      0.0000     0.0000E+00    0.0000E+00    2.512000E+07  0.00010  4.103E-03    0   0.8174   age090_m22            0.0000     3.8590E+02    10.4720   4.0000    98.4081
  9      0.0000     0.0000E+00    0.0000E+00    4.000000E+07  0.00010  3.654E-03    0   0.7830   age104_m22            0.0000     3.6833E+02     8.7214   3.9503    97.6792
 10      0.0000     0.0000E+00    0.0000E+00    5.500000E+07  0.00010  3.093E-03    0   0.7597   age110_m22            0.0000     4.0867E+02     9.1209   3.8604    98.8193
 11      0.0000     0.0000E+00    0.0000E+00    1.015200E+08  0.00010  2.431E-03    0   0.7138   age116_m22            0.0000     5.2063E+02    10.2730   3.5300   101.1984
 12      0.0000     0.0000E+00    0.0000E+00    1.609000E+08  0.00010  1.319E-03    0   0.6775   age120_m22            0.0000     5.1219E+02     9.8871   3.0605   103.1765
 13      0.0000     0.0000E+00    0.0000E+00    2.861200E+08  0.00010  1.075E-03    0   0.6412   age125_m22            0.0000     1.0188E+03    13.9142   3.1657   105.0934
 14      0.0000     0.0000E+00    0.0000E+00    5.088000E+08  0.00010  7.183E-04    0   0.6083   age130_m22            0.0000     1.1822E+03    14.9878   2.9430   106.3612
 15      0.0000     0.0000E+00    0.0000E+00    9.047900E+08  0.00010  4.524E-04    0   0.5785   age135_m22            0.0000     1.1915E+03    15.1273   2.7420   107.5170
 16      0.0000     0.0000E+00    0.0000E+00    1.278050E+09  0.00010  3.018E-04    0   0.5588   age138_m22            0.0000     6.8020E+02    11.4657   2.1870   106.7492
 17      0.0000     0.0000E+00    0.0000E+00    1.434000E+09  0.00010  2.691E-04    0   0.5532   age139_m22            0.0000     5.8469E+02    10.6759   2.0267   106.3859
 18      0.0000     0.0000E+00    0.0000E+00    2.500000E+09  0.00010  1.582E-04    0   0.5296   age150_m22            0.0000     5.2797E+02    10.3078   1.9075   107.4185
 19      0.0000     0.0000E+00    0.0000E+00    4.250000E+09  0.00010  1.007E-04    0   0.5110   age158_m22            0.0000     3.5259E+02     8.5024   1.7421   106.2198
 20      0.0000     0.0000E+00    0.0000E+00    6.250000E+09  0.00010  6.869E-05    0   0.4985   age166_m22            0.0000     2.1131E+02     6.6389   1.6681   103.9910
 21      0.0000     0.0000E+00    0.0000E+00    7.500000E+09  0.00010  5.873E-05    0   0.4931   age171_m22            0.0000     1.9409E+02     6.4283   1.6534   103.5664
 22      0.0000     0.0000E+00    0.0000E+00    1.000000E+10  0.00010  4.481E-05    0   0.4854   age181_m22            0.0000     1.8802E+02     6.3223   1.6147   103.1871
 23      0.0000     0.0000E+00    0.0000E+00    1.300000E+10  0.00010  3.489E-05    0   0.4791   age193_m22            0.0000     1.7344E+02     6.0539   1.5566   102.6518
 24      0.0000     0.0000E+00    0.0000E+00    1.500000E+10  0.00010  3.035E-05    0   0.4766   age201_m22            0.0000     1.6419E+02     5.8903   1.5168   102.4969
 25      0.0000     0.0000E+00    0.0000E+00    1.800000E+10  0.00010  2.510E-05    0   0.4735   age213_m22            0.0000     1.4265E+02     5.4886   1.4465   101.9679
 26      1.5566     5.7307E-03    1.1399E-02    1.000000E+06  0.00040  8.458E-03    0   1.0000   age020_m32            0.0000     2.0537E+03    24.9727   4.0000    96.0440
 27      0.0000     0.0000E+00    0.0000E+00    3.160000E+06  0.00040  3.973E-02    0   1.0000   age045_m32            0.0000     3.1090E+02     9.5001   4.0000    96.4729
 28      0.0000     0.0000E+00    0.0000E+00    5.010000E+06  0.00040  1.935E-02    0   0.9532   age055_m32            0.0000     6.5172E+02    15.3254   4.0000    95.1963
 29      0.0455     1.1777E-04    2.1652E-04    6.610000E+06  0.00040  1.204E-02    0   0.9243   age061_m32            0.0000     1.3736E+03    20.8891   4.0000    98.1766
 30      0.0000     0.0000E+00    0.0000E+00    8.710000E+06  0.00040  9.433E-03    0   0.9001   age067_m32            0.0000     1.2564E+03    19.9480   4.0000    98.6760
 31      0.0000     0.0000E+00    0.0000E+00    1.000000E+07  0.00040  8.053E-03    0   0.8877   age070_m32            0.0000     1.1454E+03    19.1513   4.0000    98.6159
 32      0.0000     0.0000E+00    0.0000E+00    1.445000E+07  0.00040  7.027E-03    0   0.8578   age078_m32            0.0000     3.2343E+02     9.9445   4.0000    94.3402
 33      0.0000     0.0000E+00    0.0000E+00    2.512000E+07  0.00040  4.707E-03    0   0.8166   age090_m32            0.0000     2.8514E+02     8.1825   3.7789    96.4654
 34      0.0000     0.0000E+00    0.0000E+00    4.000000E+07  0.00040  3.714E-03    0   0.7827   age104_m32            0.0000     3.3560E+02     8.2627   3.5994    99.0690
 35      0.0000     0.0000E+00    0.0000E+00    5.500000E+07  0.00040  2.982E-03    0   0.7593   age110_m32            0.0000     3.7938E+02     8.7219   3.5469    99.9148
 36      0.0000     0.0000E+00    0.0000E+00    1.015200E+08  0.00040  2.188E-03    0   0.7143   age116_m32            0.0000     6.5651E+02    11.3754   3.3185   102.8913
 37      0.0000     0.0000E+00    0.0000E+00    1.609000E+08  0.00040  1.690E-03    0   0.6856   age120_m32            0.0000     8.6621E+02    12.9507   3.1361   104.8200
 38      0.0000     0.0000E+00    0.0000E+00    2.861200E+08  0.00040  1.152E-03    0   0.6509   age125_m32            0.0000     1.0540E+03    14.1679   2.9238   105.9940
 39      0.0000     0.0000E+00    0.0000E+00    5.088000E+08  0.00040  7.331E-04    0   0.6182   age130_m32            0.0000     1.1229E+03    14.6134   2.7621   106.5206
 40      0.0000     0.0000E+00    0.0000E+00    9.047900E+08  0.00040  3.960E-04    0   0.5890   age135_m32            0.0000     7.0547E+02    11.7454   2.2779   105.9709
 41      0.0000     0.0000E+00    0.0000E+00    1.278050E+09  0.00040  2.854E-04    0   0.5687   age138_m32            0.0000     5.9448E+02    10.9135   1.9792   108.1481
 42      0.0000     0.0000E+00    0.0000E+00    1.434000E+09  0.00040  2.531E-04    0   0.5632   age139_m32            0.0000     5.7857E+02    10.7865   1.9180   108.1506
 43      0.0000     0.0000E+00    0.0000E+00    2.500000E+09  0.00040  1.488E-04    0   0.5386   age150_m32            0.0000     4.3551E+02     9.4437   1.6562   106.5873
 44      0.0000     0.0000E+00    0.0000E+00    4.250000E+09  0.00040  9.082E-05    0   0.5199   age158_m32            0.0000     2.0413E+02     6.4776   1.5343   104.0937
 45     15.0649     7.3734E+00    7.4448E+00    6.250000E+09  0.00040  6.362E-05    0   0.5076   age166_m32            0.0000     8.9887E+01     4.3041   1.4730   101.4498
 46     16.5126     9.7217E+00    9.7210E+00    7.500000E+09  0.00040  5.289E-05    0   0.5027   age171_m32            0.0000     7.1931E+01     3.8678   1.4333   100.2775
 47     10.2747     8.0549E+00    7.9278E+00    1.000000E+10  0.00040  3.972E-05    0   0.4948   age181_m32            0.0000     5.9812E+01     3.5691   1.3689    98.9311
 48      0.0000     0.0000E+00    0.0000E+00    1.300000E+10  0.00040  3.283E-05    0   0.4870   age193_m32            0.0000     1.0310E+02     4.6175   1.3378   101.2986
 49      0.0004     4.2951E-04    4.1470E-04    1.500000E+10  0.00040  2.925E-05    0   0.4854   age201_m32            0.0000     1.4004E+02     5.3891   1.3274   102.6626
 50      0.0004     5.5092E-04    5.2808E-04    1.800000E+10  0.00040  2.469E-05    0   0.4819   age213_m32            0.0000     1.5519E+02     5.6662   1.2918   103.0650
 51      0.0000     0.0000E+00    0.0000E+00    1.000000E+06  0.00400  1.114E-02    0   1.0000   age020_m42            0.0000     1.7768E+03    23.5263   4.0000    95.6972
 52      0.0000     0.0000E+00    0.0000E+00    3.160000E+06  0.00400  4.073E-02    0   0.9999   age045_m42            0.0000     2.3039E+02     7.1806   3.8255    96.3794
 53      0.0000     0.0000E+00    0.0000E+00    5.010000E+06  0.00400  2.534E-02    0   0.9488   age055_m42            0.0000     3.9451E+02    11.9349   4.0000    95.0682
 54      0.0000     0.0000E+00    0.0000E+00    6.610000E+06  0.00400  2.583E-02    0   0.9220   age061_m42            0.0000     2.5812E+02     7.4022   3.6488    97.0224
 55      0.0000     0.0000E+00    0.0000E+00    8.710000E+06  0.00400  1.706E-02    0   0.8983   age067_m42            0.0000     2.4305E+02     8.1224   3.4560    95.9559
 56      0.0000     0.0000E+00    0.0000E+00    1.000000E+07  0.00400  1.271E-02    0   0.8862   age070_m42            0.0000     2.9541E+02     9.5665   3.4331    94.9539
 57      0.0000     0.0000E+00    0.0000E+00    1.445000E+07  0.00400  7.666E-03    0   0.8571   age078_m42            0.0000     3.3290E+02    10.7500   3.8182    91.9593
 58      0.0000     0.0000E+00    0.0000E+00    2.512000E+07  0.00400  5.070E-03    0   0.8174   age090_m42            0.0000     2.5310E+02     8.8284   3.3075    96.5169
 59      0.0000     0.0000E+00    0.0000E+00    4.000000E+07  0.00400  3.505E-03    0   0.7851   age104_m42            0.0000     1.8381E+02     7.0180   3.0037    99.0869
 60      0.0000     0.0000E+00    0.0000E+00    5.500000E+07  0.00400  3.059E-03    0   0.7629   age110_m42            0.0000     3.1272E+02     7.3323   3.0977   102.2179
 61      0.0000     0.0000E+00    0.0000E+00    1.015200E+08  0.00400  2.268E-03    0   0.7207   age116_m42            0.0000     7.6105E+02    11.9791   3.0517   105.6427
 62      0.0000     0.0000E+00    0.0000E+00    1.609000E+08  0.00400  1.720E-03    0   0.6930   age120_m42            0.0000     8.2951E+02    12.5217   2.9188   106.8852
 63      0.0000     0.0000E+00    0.0000E+00    2.861200E+08  0.00400  1.079E-03    0   0.6613   age125_m42            0.0000     8.2483E+02    12.5123   2.5647   107.1870
 64      0.0000     0.0000E+00    0.0000E+00    5.088000E+08  0.00400  6.261E-04    0   0.6313   age130_m42            0.0000     9.1956E+02    13.3494   2.3770   109.8646
 65      0.0000     0.0000E+00    0.0000E+00    9.047900E+08  0.00400  3.535E-04    0   0.6024   age135_m42            0.0000     6.0792E+02    10.9949   1.9645   110.6550
 66      0.0000     0.0000E+00    0.0000E+00    1.278050E+09  0.00400  2.677E-04    0   0.5837   age138_m42            0.0000     2.9215E+02     8.7137   1.2712   108.5242
 67      0.0000     0.0000E+00    0.0000E+00    1.434000E+09  0.00400  1.910E-04    0   0.5716   age139_m42            0.0000     3.5083E+02     8.9452   1.4406   109.3263
 68      2.3062     7.3142E-01    7.9480E-01    2.500000E+09  0.00400  9.818E-05    0   0.5463   age150_m42            0.0000     1.5702E+02     6.5067   1.1537   105.0641
 69      2.5105     1.4237E+00    1.4921E+00    4.250000E+09  0.00400  5.491E-05    0   0.5269   age158_m42            0.0000     1.1017E+02     5.6934   1.0250   102.5413
 70      0.4563     3.6839E-01    3.7746E-01    6.250000E+09  0.00400  3.857E-05    0   0.5151   age166_m42            0.0000     1.3312E+02     6.1089   0.9022   101.1035
 71      0.9829     9.4378E-01    9.5930E-01    7.500000E+09  0.00400  3.243E-05    0   0.5110   age171_m42            0.0000     1.6000E+02     6.5712   0.8285   100.4254
 72      0.7138     9.1695E-01    9.1707E-01    1.000000E+10  0.00400  2.424E-05    0   0.5028   age181_m42            0.0000     1.9988E+02     7.1984   0.7537    99.6699
 73      0.9654     1.5965E+00    1.5647E+00    1.300000E+10  0.00400  1.883E-05    0   0.4927   age193_m42            0.0000     2.3132E+02     7.6204   0.7156    99.3403
 74      0.1617     2.9876E-01    2.9232E-01    1.500000E+10  0.00400  1.685E-05    0   0.4919   age201_m42            0.0000     2.2248E+02     7.4688   0.7216    99.3715
 75      0.0000     0.0000E+00    0.0000E+00    1.800000E+10  0.00400  1.452E-05    0   0.4874   age213_m42            0.0000     2.0631E+02     7.2061   0.7373    99.7005
 76      0.0000     0.0000E+00    0.0000E+00    1.000000E+06  0.00800  1.286E-02    0   1.0000   age020_m52            0.0000     1.6378E+03    22.3894   4.0000    97.3417
 77      0.0000     0.0000E+00    0.0000E+00    3.160000E+06  0.00800  3.147E-02    0   0.9966   age045_m52            0.0000     1.3831E+03    20.9223   4.0000    97.9602
 78      0.0000     0.0000E+00    0.0000E+00    5.010000E+06  0.00800  2.664E-02    0   0.9443   age055_m52            0.0000     5.7435E+02    14.3188   4.0000    96.2958
 79      0.0000     0.0000E+00    0.0000E+00    6.610000E+06  0.00800  2.151E-02    0   0.9177   age061_m52            0.0000     1.8915E+02     8.1205   3.0156    96.8327
 80      0.0000     0.0000E+00    0.0000E+00    8.710000E+06  0.00800  1.628E-02    0   0.8948   age067_m52            0.0000     2.5411E+02     8.6832   3.4080    96.7019
 81      0.0000     0.0000E+00    0.0000E+00    1.000000E+07  0.00800  1.215E-02    0   0.8827   age070_m52            0.0000     2.9568E+02     9.6375   3.7487    94.8566
 82      0.0000     0.0000E+00    0.0000E+00    1.445000E+07  0.00800  8.739E-03    0   0.8552   age078_m52            0.0000     2.9594E+02     9.0437   3.7967    95.8403
 83      0.0000     0.0000E+00    0.0000E+00    2.512000E+07  0.00800  5.676E-03    0   0.8162   age090_m52            0.0000     3.3646E+02     8.1283   3.4295    99.8272
 84      0.0000     0.0000E+00    0.0000E+00    4.000000E+07  0.00800  3.939E-03    0   0.7841   age104_m52            0.0000     3.7948E+02     8.1730   3.2824   101.6813
 85      0.0000     0.0000E+00    0.0000E+00    5.500000E+07  0.00800  3.155E-03    0   0.7627   age110_m52            0.0000     4.5528E+02     8.9324   3.2586   102.9458
 86      0.0000     0.0000E+00    0.0000E+00    1.015200E+08  0.00800  2.206E-03    0   0.7226   age116_m52            0.0000     6.3799E+02    10.8408   3.0901   106.0307
 87      0.0000     0.0000E+00    0.0000E+00    1.609000E+08  0.00800  1.596E-03    0   0.6963   age120_m52            0.0000     7.2512E+02    11.6401   2.8863   107.2744
 88      0.0000     0.0000E+00    0.0000E+00    2.861200E+08  0.00800  1.002E-03    0   0.6665   age125_m52            0.0000     9.6625E+02    13.6581   2.6150   109.1582
 89      0.0000     0.0000E+00    0.0000E+00    5.088000E+08  0.00800  5.759E-04    0   0.6377   age130_m52            0.0000     1.0055E+03    14.2491   2.2734   112.8934
 90      0.0000     0.0000E+00    0.0000E+00    9.047900E+08  0.00800  2.972E-04    0   0.6086   age135_m52            0.0000     6.3921E+02    11.7035   1.7170   112.2063
 91      0.0000     0.0000E+00    0.0000E+00    1.278050E+09  0.00800  2.242E-04    0   0.5907   age138_m52            0.0000     3.1326E+02     8.8663   1.0911   111.6862
 92      0.0000     0.0000E+00    0.0000E+00    1.434000E+09  0.00800  1.645E-04    0   0.5787   age139_m52            0.0000     2.7362E+02     8.1903   1.2365   111.2157
 93      0.0000     0.0000E+00    0.0000E+00    2.500000E+09  0.00800  7.723E-05    0   0.5519   age150_m52            0.0000     1.9493E+02     7.2967   0.8934   107.6666
 94      1.4788     1.1093E+00    1.1739E+00    4.250000E+09  0.00800  4.151E-05    0   0.5320   age158_m52            0.0000     1.7878E+02     7.0897   0.8240   105.0466
 95      2.0574     2.1284E+00    2.2002E+00    6.250000E+09  0.00800  3.010E-05    0   0.5197   age166_m52            0.0000     2.3815E+02     7.9056   0.6368   103.4968
 96      0.9897     1.2492E+00    1.2769E+00    7.500000E+09  0.00800  2.467E-05    0   0.5139   age171_m52            0.0000     2.5946E+02     8.1935   0.5967   103.0419
 97      2.9724     4.9707E+00    4.9971E+00    1.000000E+10  0.00800  1.862E-05    0   0.5054   age181_m52            0.0000     3.3727E+02     9.1392   0.4712   102.5250
