###################################################################
## OUTPUT of StarlightChains_v04.for    [Cid@UFSC - 01/Apr/2007] ##
###################################################################

## Some input info
NGC6624_a_2.cxt                          [arq_obs]
Base.BC03.S                              [arq_base]
NGC6624_a_2.msk                          [arq_masks]
StCv04.C11.config                        [arq_config]
  150                                    [N_base]
    0                                    [N_YAV_components = # of components with extra extinction!]
    0                                    [i_FitPowerLaw (1/0 = Yes/No)]
-9.99                                    [alpha_PowerLaw]
CCM                                      [red_law_option]
 1.458241                                [q_norm = A(l_norm)/A(V)]

## (Re)Sampling Parameters
 3359.00                                 [l_ini (A)]
 6428.00                                 [l_fin (A)]
    1.00                                 [dl    (A)]     (OBS: dl_cushion =    50.00 A)

## Normalization info
 4020.00                                 [l_norm (A) - for base]
 4010.00                                 [llow_norm (A) - window for f_obs]
 4060.00                                 [lupp_norm (A) - window for f_obs]
2.206219E-14                             [fobs_norm (in input units)]

## S/N
 4730.00                                 [llow_SN (A) - window for S/N]
 4780.00                                 [lupp_SN (A) - window for S/N]
  40.676                                 [S/N in S/N window]
  27.417                                 [S/N in norm. window]
 123.712                                 [S/N_err in S/N window]
  83.385                                 [S/N_err in norm. window]
  1.0000                                 [fscale_chi2]

## etc...
  2147483596                             [idum_orig]
  3068                                   [NOl_eff]
  1234                                   [Nl_eff]
  1834    NSIGMA                         [Ntot_cliped & clip_method]
  1334970                                [Nglobal_steps]
   7                                     [N_chains]
  19                                     [NEX0s_base = N_base in EX0s-fits]
 0   0   1      121   2.0   9.130E+02    [Clip-Bug, RC-Crash & Burn-In warning-flags, n_censored_weights, wei_nsig_threshold & wei_limit]
    56     56.221     56.201      0.020  [idt_all, wdt_TotTime, wdt_UsrTime & wdt_SysTime (sec)]

## Synthesis Results - Best model ##

 2.43416E+00                             [chi2/Nl_eff]
     1.27481                             [adev (%)]

    99.06500                             [sum-of-x (%)]
 4.95789E-14                             [Flux_tot (units of input spectrum!)]
 2.23800E-09                             [Mini_tot (???)]
 1.12989E-09                             [Mcor_tot (???)]

  27.10                                  [v0_min  (km/s)]
  48.54                                  [vd_min  (km/s)]
 0.6099                                  [AV_min  (mag)]
 0.0000                                  [YAV_min (mag)]

# j     x_j(%)      Mini_j(%)     Mcor_j(%)     age_j(yr)     Z_j      (L/M)_j    YAV?  Mstars   component_j        a/Fe...       SSP_chi2r SSP_adev(%)   SSP_AV   SSP_x(%)
  1      0.0000     0.0000E+00    0.0000E+00    1.000000E+06  0.00010  8.160E-03    0   1.0000   age020_m22            0.0000     1.1447E+03    25.0067   4.0000    84.7316
  2      0.0000     0.0000E+00    0.0000E+00    3.160000E+06  0.00010  4.759E-02    0   1.0000   age045_m22            0.0000     1.5832E+02    10.2312   2.8055    95.3886
  3      0.0000     0.0000E+00    0.0000E+00    5.010000E+06  0.00010  1.932E-02    0   0.9582   age055_m22            0.0000     4.0989E+02    15.7437   3.1705    80.0100
  4      0.0000     0.0000E+00    0.0000E+00    6.610000E+06  0.00010  9.973E-03    0   0.9297   age061_m22            0.0000     1.0942E+03    24.2956   4.0000    87.4313
  5      0.0000     0.0000E+00    0.0000E+00    8.710000E+06  0.00010  7.690E-03    0   0.9030   age067_m22            0.0000     1.0567E+03    23.9505   4.0000    87.9701
  6      0.0000     0.0000E+00    0.0000E+00    1.000000E+07  0.00010  6.375E-03    0   0.8902   age070_m22            0.0000     1.0521E+03    23.9151   4.0000    88.4200
  7      0.0000     0.0000E+00    0.0000E+00    1.445000E+07  0.00010  4.874E-03    0   0.8589   age078_m22            0.0000     7.1490E+02    20.2399   4.0000    90.2703
  8      0.0000     0.0000E+00    0.0000E+00    2.512000E+07  0.00010  4.103E-03    0   0.8174   age090_m22            0.0000     2.7550E+02    13.5700   4.0000    91.8093
  9      0.0000     0.0000E+00    0.0000E+00    4.000000E+07  0.00010  3.654E-03    0   0.7830   age104_m22            0.0000     2.1089E+02    12.3714   3.8776    93.7766
 10      0.0000     0.0000E+00    0.0000E+00    5.500000E+07  0.00010  3.093E-03    0   0.7597   age110_m22            0.0000     2.0786E+02    11.9981   3.7657    95.7465
 11      0.0000     0.0000E+00    0.0000E+00    1.015200E+08  0.00010  2.431E-03    0   0.7138   age116_m22            0.0000     2.2725E+02    11.9340   3.4007    99.3643
 12      0.0000     0.0000E+00    0.0000E+00    1.609000E+08  0.00010  1.319E-03    0   0.6775   age120_m22            0.0000     2.0987E+02    11.2659   2.9238   101.6152
 13      0.0000     0.0000E+00    0.0000E+00    2.861200E+08  0.00010  1.075E-03    0   0.6412   age125_m22            0.0000     3.4781E+02    12.6371   2.9535   106.7214
 14      0.0000     0.0000E+00    0.0000E+00    5.088000E+08  0.00010  7.183E-04    0   0.6083   age130_m22            0.0000     3.9757E+02    13.0823   2.7110   108.9769
 15      0.0000     0.0000E+00    0.0000E+00    9.047900E+08  0.00010  4.524E-04    0   0.5785   age135_m22            0.0000     3.9903E+02    12.9999   2.5040   110.4208
 16      0.0000     0.0000E+00    0.0000E+00    1.278050E+09  0.00010  3.018E-04    0   0.5588   age138_m22            0.0000     2.3305E+02    10.3991   1.9919   107.7871
 17      0.0000     0.0000E+00    0.0000E+00    1.434000E+09  0.00010  2.691E-04    0   0.5532   age139_m22            0.0000     2.0400E+02     9.8364   1.8403   107.0278
 18      0.0000     0.0000E+00    0.0000E+00    2.500000E+09  0.00010  1.582E-04    0   0.5296   age150_m22            0.0000     1.9192E+02     9.8581   1.7257   107.7305
 19      0.0000     0.0000E+00    0.0000E+00    4.250000E+09  0.00010  1.007E-04    0   0.5110   age158_m22            0.0000     1.4137E+02     8.7987   1.5882   105.3720
 20      0.0000     0.0000E+00    0.0000E+00    6.250000E+09  0.00010  6.869E-05    0   0.4985   age166_m22            0.0000     1.0897E+02     8.0106   1.5470   101.8593
 21      0.0000     0.0000E+00    0.0000E+00    7.500000E+09  0.00010  5.873E-05    0   0.4931   age171_m22            0.0000     1.0962E+02     8.1405   1.5374   101.2057
 22      0.0134     6.6685E-03    6.4114E-03    1.000000E+10  0.00010  4.481E-05    0   0.4854   age181_m22            0.0000     1.0676E+02     8.0436   1.4996   100.8339
 23      0.0000     0.0000E+00    0.0000E+00    1.300000E+10  0.00010  3.489E-05    0   0.4791   age193_m22            0.0000     1.0040E+02     7.8088   1.4443   100.2385
 24      0.0029     2.1014E-03    1.9837E-03    1.500000E+10  0.00010  3.035E-05    0   0.4766   age201_m22            0.0000     9.7049E+01     7.6990   1.4059   100.0261
 25      0.0030     2.6632E-03    2.4977E-03    1.800000E+10  0.00010  2.510E-05    0   0.4735   age213_m22            0.0000     9.0698E+01     7.4815   1.3401    99.3147
 26      0.0000     0.0000E+00    0.0000E+00    1.000000E+06  0.00040  8.458E-03    0   1.0000   age020_m32            0.0000     1.1615E+03    25.1012   4.0000    85.5915
 27      0.0000     0.0000E+00    0.0000E+00    3.160000E+06  0.00040  3.973E-02    0   1.0000   age045_m32            0.0000     2.6073E+02    13.2342   4.0000    89.7254
 28      0.0000     0.0000E+00    0.0000E+00    5.010000E+06  0.00040  1.935E-02    0   0.9532   age055_m32            0.0000     5.0805E+02    17.0693   4.0000    86.8179
 29      0.0000     0.0000E+00    0.0000E+00    6.610000E+06  0.00040  1.204E-02    0   0.9243   age061_m32            0.0000     8.3542E+02    21.5746   4.0000    88.6074
 30      0.0000     0.0000E+00    0.0000E+00    8.710000E+06  0.00040  9.433E-03    0   0.9001   age067_m32            0.0000     7.6415E+02    20.7867   4.0000    89.4774
 31      0.0000     0.0000E+00    0.0000E+00    1.000000E+07  0.00040  8.053E-03    0   0.8877   age070_m32            0.0000     7.0978E+02    20.1084   4.0000    89.6289
 32      0.0000     0.0000E+00    0.0000E+00    1.445000E+07  0.00040  7.027E-03    0   0.8578   age078_m32            0.0000     2.9079E+02    14.1553   4.0000    87.4148
 33      0.0000     0.0000E+00    0.0000E+00    2.512000E+07  0.00040  4.707E-03    0   0.8166   age090_m32            0.0000     2.3267E+02    13.0557   3.7538    90.7117
 34      0.0000     0.0000E+00    0.0000E+00    4.000000E+07  0.00040  3.714E-03    0   0.7827   age104_m32            0.0000     2.0748E+02    12.2850   3.5263    95.0746
 35      0.0000     0.0000E+00    0.0000E+00    5.500000E+07  0.00040  2.982E-03    0   0.7593   age110_m32            0.0000     2.0692E+02    12.0730   3.4560    96.6106
 36      0.0000     0.0000E+00    0.0000E+00    1.015200E+08  0.00040  2.188E-03    0   0.7143   age116_m32            0.0000     2.5151E+02    11.8884   3.1610   102.2217
 37      0.0000     0.0000E+00    0.0000E+00    1.609000E+08  0.00040  1.690E-03    0   0.6856   age120_m32            0.0000     3.1054E+02    12.2861   2.9366   105.7385
 38      0.0000     0.0000E+00    0.0000E+00    2.861200E+08  0.00040  1.152E-03    0   0.6509   age125_m32            0.0000     3.5736E+02    12.6093   2.7000   108.1495
 39      0.0000     0.0000E+00    0.0000E+00    5.088000E+08  0.00040  7.331E-04    0   0.6182   age130_m32            0.0000     3.7534E+02    12.6536   2.5306   109.1248
 40      0.0000     0.0000E+00    0.0000E+00    9.047900E+08  0.00040  3.960E-04    0   0.5890   age135_m32            0.0000     2.3432E+02    10.3266   2.0842   107.0249
 41      0.0000     0.0000E+00    0.0000E+00    1.278050E+09  0.00040  2.854E-04    0   0.5687   age138_m32            0.0000     2.0607E+02    10.0121   1.7873   108.9317
 42      0.0000     0.0000E+00    0.0000E+00    1.434000E+09  0.00040  2.531E-04    0   0.5632   age139_m32            0.0000     2.0263E+02     9.9428   1.7257   108.9307
 43      0.0000     0.0000E+00    0.0000E+00    2.500000E+09  0.00040  1.488E-04    0   0.5386   age150_m32            0.0000     1.6108E+02     8.9370   1.4758   106.8548
 44      0.0000     0.0000E+00    0.0000E+00    4.250000E+09  0.00040  9.082E-05    0   0.5199   age158_m32            0.0000     9.6960E+01     7.3765   1.4022   102.4092
 45      7.3132     2.5706E+00    2.5845E+00    6.250000E+09  0.00040  6.362E-05    0   0.5076   age166_m32            0.0000     8.1112E+01     6.9942   1.3830    98.0572
 46      6.6545     2.8136E+00    2.8015E+00    7.500000E+09  0.00040  5.289E-05    0   0.5027   age171_m32            0.0000     7.7030E+01     6.8058   1.3516    96.6208
 47     14.3441     8.0757E+00    7.9147E+00    1.000000E+10  0.00040  3.972E-05    0   0.4948   age181_m32            0.0000     7.1245E+01     6.5320   1.2926    95.1661
 48      0.0000     0.0000E+00    0.0000E+00    1.300000E+10  0.00040  3.283E-05    0   0.4870   age193_m32            0.0000     7.0033E+01     6.5043   1.2359    98.4344
 49      0.0000     0.0000E+00    0.0000E+00    1.500000E+10  0.00040  2.925E-05    0   0.4854   age201_m32            0.0000     7.4174E+01     6.6359   1.2099   100.3608
 50      0.0000     3.3423E-05    3.1903E-05    1.800000E+10  0.00040  2.469E-05    0   0.4819   age213_m32            0.0000     7.4820E+01     6.6269   1.1661   101.0516
 51      0.0000     0.0000E+00    0.0000E+00    1.000000E+06  0.00400  1.114E-02    0   1.0000   age020_m42            0.0000     1.0371E+03    23.8234   4.0000    85.5987
 52      0.0000     0.0000E+00    0.0000E+00    3.160000E+06  0.00400  4.073E-02    0   0.9999   age045_m42            0.0000     1.9411E+02    11.6182   3.8063    90.5841
 53      0.0000     0.0000E+00    0.0000E+00    5.010000E+06  0.00400  2.534E-02    0   0.9488   age055_m42            0.0000     3.3770E+02    14.4261   4.0000    87.6374
 54      0.0000     0.0000E+00    0.0000E+00    6.610000E+06  0.00400  2.583E-02    0   0.9220   age061_m42            0.0000     1.8892E+02    11.7435   3.6031    92.0809
 55      0.0000     0.0000E+00    0.0000E+00    8.710000E+06  0.00400  1.706E-02    0   0.8983   age067_m42            0.0000     2.2914E+02    13.0094   3.4405    89.6141
 56      0.7856     1.3822E-03    2.4262E-03    1.000000E+07  0.00400  1.271E-02    0   0.8862   age070_m42            0.0000     2.7967E+02    14.3270   3.4368    87.6999
 57      0.0000     0.0000E+00    0.0000E+00    1.445000E+07  0.00400  7.666E-03    0   0.8571   age078_m42            0.0000     3.1761E+02    14.9228   3.8529    83.9259
 58      0.0000     0.0000E+00    0.0000E+00    2.512000E+07  0.00400  5.070E-03    0   0.8174   age090_m42            0.0000     2.5603E+02    13.7037   3.3038    89.3933
 59      0.0000     0.0000E+00    0.0000E+00    4.000000E+07  0.00400  3.505E-03    0   0.7851   age104_m42            0.0000     1.9628E+02    11.9355   2.9823    92.6212
 60      0.0000     0.0000E+00    0.0000E+00    5.500000E+07  0.00400  3.059E-03    0   0.7629   age110_m42            0.0000     1.6502E+02    10.6158   2.9992    98.8817
 61      0.0000     0.0000E+00    0.0000E+00    1.015200E+08  0.00400  2.268E-03    0   0.7207   age116_m42            0.0000     2.6576E+02    11.3032   2.8580   106.2564
 62      0.0000     0.0000E+00    0.0000E+00    1.609000E+08  0.00400  1.720E-03    0   0.6930   age120_m42            0.0000     2.7850E+02    11.1371   2.7110   108.1748
 63      0.0000     0.0000E+00    0.0000E+00    2.861200E+08  0.00400  1.079E-03    0   0.6613   age125_m42            0.0000     2.6467E+02    10.8784   2.3541   108.8375
 64      0.0000     0.0000E+00    0.0000E+00    5.088000E+08  0.00400  6.261E-04    0   0.6313   age130_m42            0.0000     2.9980E+02    11.3648   2.1404   112.5627
 65      0.0000     0.0000E+00    0.0000E+00    9.047900E+08  0.00400  3.535E-04    0   0.6024   age135_m42            0.0000     1.9254E+02     9.2737   1.7472   112.4095
 66      0.0000     0.0000E+00    0.0000E+00    1.278050E+09  0.00400  2.677E-04    0   0.5837   age138_m42            0.0000     6.1571E+01     5.3546   1.0939   108.6877
 67      0.0000     0.0000E+00    0.0000E+00    1.434000E+09  0.00400  1.910E-04    0   0.5716   age139_m42            0.0000     8.8677E+01     6.1000   1.2588   109.6678
 68      0.0000     7.5012E-06    8.1168E-06    2.500000E+09  0.00400  9.818E-05    0   0.5463   age150_m42            0.0000     2.1769E+01     3.1152   1.0222   103.4140
 69      0.0000     0.0000E+00    0.0000E+00    4.250000E+09  0.00400  5.491E-05    0   0.5269   age158_m42            0.0000     9.1270E+00     2.1778   0.9121   100.1263
 70      0.0000     0.0000E+00    0.0000E+00    6.250000E+09  0.00400  3.857E-05    0   0.5151   age166_m42            0.0000     5.2665E+00     1.6847   0.7921    98.6187
 71      0.0000     0.0000E+00    0.0000E+00    7.500000E+09  0.00400  3.243E-05    0   0.5110   age171_m42            0.0000     4.9451E+00     1.6619   0.7162    98.0371
 72     11.5422     1.0648E+01    1.0604E+01    1.000000E+10  0.00400  2.424E-05    0   0.5028   age181_m42            0.0000     6.5959E+00     1.9509   0.6382    97.4186
 73      0.0000     0.0000E+00    0.0000E+00    1.300000E+10  0.00400  1.883E-05    0   0.4927   age193_m42            0.0000     1.0010E+01     2.4050   0.5996    97.1102
 74      0.0000     0.0000E+00    0.0000E+00    1.500000E+10  0.00400  1.685E-05    0   0.4919   age201_m42            0.0000     9.4438E+00     2.3133   0.6050    97.1092
 75      0.0000     0.0000E+00    0.0000E+00    1.800000E+10  0.00400  1.452E-05    0   0.4874   age213_m42            0.0000     8.7733E+00     2.1768   0.6211    97.3457
 76      0.0000     0.0000E+00    0.0000E+00    1.000000E+06  0.00800  1.286E-02    0   1.0000   age020_m52            0.0000     9.7081E+02    22.8891   4.0000    87.4000
 77      0.0000     0.0000E+00    0.0000E+00    3.160000E+06  0.00800  3.147E-02    0   0.9966   age045_m52            0.0000     8.4461E+02    21.5744   4.0000    88.2844
 78      0.0000     0.0000E+00    0.0000E+00    5.010000E+06  0.00800  2.664E-02    0   0.9443   age055_m52            0.0000     4.4480E+02    16.0158   4.0000    88.1845
 79      0.0000     0.0000E+00    0.0000E+00    6.610000E+06  0.00800  2.151E-02    0   0.9177   age061_m52            0.0000     2.3067E+02    12.3532   3.0462    88.8474
 80      0.0000     0.0000E+00    0.0000E+00    8.710000E+06  0.00800  1.628E-02    0   0.8948   age067_m52            0.0000     2.5193E+02    13.3738   3.4117    89.3867
 81      0.0000     0.0000E+00    0.0000E+00    1.000000E+07  0.00800  1.215E-02    0   0.8827   age070_m52            0.0000     2.8685E+02    14.2344   3.7620    87.1480
 82      0.0000     0.0000E+00    0.0000E+00    1.445000E+07  0.00800  8.739E-03    0   0.8552   age078_m52            0.0000     2.6163E+02    13.7579   3.7931    88.8059
 83      0.0000     0.0000E+00    0.0000E+00    2.512000E+07  0.00800  5.676E-03    0   0.8162   age090_m52            0.0000     2.2678E+02    12.9895   3.3637    94.7126
 84      0.0000     0.0000E+00    0.0000E+00    4.000000E+07  0.00800  3.939E-03    0   0.7841   age104_m52            0.0000     2.0542E+02    12.0140   3.1888    97.8269
 85      0.0000     0.0000E+00    0.0000E+00    5.500000E+07  0.00800  3.155E-03    0   0.7627   age110_m52            0.0000     2.0438E+02    11.4878   3.1427   100.2098
 86      0.0000     0.0000E+00    0.0000E+00    1.015200E+08  0.00800  2.206E-03    0   0.7226   age116_m52            0.0000     2.2861E+02    10.9498   2.9298   105.3553
 87      0.0000     0.0000E+00    0.0000E+00    1.609000E+08  0.00800  1.596E-03    0   0.6963   age120_m52            0.0000     2.4298E+02    10.8667   2.7028   107.6355
 88      0.0000     0.0000E+00    0.0000E+00    2.861200E+08  0.00800  1.002E-03    0   0.6665   age125_m52            0.0000     3.0404E+02    11.2721   2.3903   111.4575
 89      0.0000     0.0000E+00    0.0000E+00    5.088000E+08  0.00800  5.759E-04    0   0.6377   age130_m52            0.0000     3.0765E+02    10.7971   2.0349   115.8979
 90      0.0000     0.0000E+00    0.0000E+00    9.047900E+08  0.00800  2.972E-04    0   0.6086   age135_m52            0.0000     1.6364E+02     7.9950   1.5278   113.3875
 91      0.0000     0.0000E+00    0.0000E+00    1.278050E+09  0.00800  2.242E-04    0   0.5907   age138_m52            0.0000     4.9888E+01     4.7158   0.9400   110.8628
 92      0.0000     0.0000E+00    0.0000E+00    1.434000E+09  0.00800  1.645E-04    0   0.5787   age139_m52            0.0000     4.5975E+01     4.4797   1.0916   110.0632
 93      0.0000     0.0000E+00    0.0000E+00    2.500000E+09  0.00800  7.723E-05    0   0.5519   age150_m52            0.0000     1.2324E+01     2.5180   0.7723   105.4842
 94      0.0000     0.0000E+00    0.0000E+00    4.250000E+09  0.00800  4.151E-05    0   0.5320   age158_m52            0.0000     6.3323E+00     1.8419   0.7066   102.7173
 95      0.3093     2.2977E-01    2.3652E-01    6.250000E+09  0.00800  3.010E-05    0   0.5197   age166_m52            0.0000     7.4232E+00     2.1048   0.5199   101.1769
 96      0.0833     7.5536E-02    7.6888E-02    7.500000E+09  0.00800  2.467E-05    0   0.5139   age171_m52            0.0000     9.0982E+00     2.3303   0.4790   100.7820
 97     40.7451     4.8934E+01    4.8986E+01    1.000000E+10  0.00800  1.862E-05    0   0.5054   age181_m52            0.0000     1.7270E+01     3.1928   0.3508   100.4116
