###################################################################
## OUTPUT of StarlightChains_v04.for    [Cid@UFSC - 01/Apr/2007] ##
###################################################################

## Some input info
NGC6266_a_1.cxt                          [arq_obs]
Base.BC03.S                              [arq_base]
NGC6266_a_1.msk                          [arq_masks]
StCv04.C11.config                        [arq_config]
  150                                    [N_base]
    0                                    [N_YAV_components = # of components with extra extinction!]
    0                                    [i_FitPowerLaw (1/0 = Yes/No)]
-9.99                                    [alpha_PowerLaw]
CCM                                      [red_law_option]
 1.458241                                [q_norm = A(l_norm)/A(V)]

## (Re)Sampling Parameters
 3359.00                                 [l_ini (A)]
 6428.00                                 [l_fin (A)]
    1.00                                 [dl    (A)]     (OBS: dl_cushion =    50.00 A)

## Normalization info
 4020.00                                 [l_norm (A) - for base]
 4010.00                                 [llow_norm (A) - window for f_obs]
 4060.00                                 [lupp_norm (A) - window for f_obs]
4.260575E-14                             [fobs_norm (in input units)]

## S/N
 4730.00                                 [llow_SN (A) - window for S/N]
 4780.00                                 [lupp_SN (A) - window for S/N]
  58.893                                 [S/N in S/N window]
  42.056                                 [S/N in norm. window]
 225.721                                 [S/N_err in S/N window]
 161.191                                 [S/N_err in norm. window]
  1.0000                                 [fscale_chi2]

## etc...
  2147483622                             [idum_orig]
  3068                                   [NOl_eff]
   763                                   [Nl_eff]
  2305    NSIGMA                         [Ntot_cliped & clip_method]
  1941450                                [Nglobal_steps]
   7                                     [N_chains]
  21                                     [NEX0s_base = N_base in EX0s-fits]
 0   0   1        2   2.0   4.774E+02    [Clip-Bug, RC-Crash & Burn-In warning-flags, n_censored_weights, wei_nsig_threshold & wei_limit]
    86     85.434     85.430      0.004  [idt_all, wdt_TotTime, wdt_UsrTime & wdt_SysTime (sec)]

## Synthesis Results - Best model ##

 2.49609E+00                             [chi2/Nl_eff]
     1.10180                             [adev (%)]

    97.14711                             [sum-of-x (%)]
 2.40575E-13                             [Flux_tot (units of input spectrum!)]
 8.38780E-09                             [Mini_tot (???)]
 4.15286E-09                             [Mcor_tot (???)]

 -11.12                                  [v0_min  (km/s)]
  18.87                                  [vd_min  (km/s)]
 1.3104                                  [AV_min  (mag)]
 0.0000                                  [YAV_min (mag)]

# j     x_j(%)      Mini_j(%)     Mcor_j(%)     age_j(yr)     Z_j      (L/M)_j    YAV?  Mstars   component_j        a/Fe...       SSP_chi2r SSP_adev(%)   SSP_AV   SSP_x(%)
  1      0.0000     0.0000E+00    0.0000E+00    1.000000E+06  0.00010  8.160E-03    0   1.0000   age020_m22            0.0000     3.3395E+03    29.4054   4.0000    91.2915
  2      5.6706     3.5179E-03    7.1054E-03    3.160000E+06  0.00010  4.759E-02    0   1.0000   age045_m22            0.0000     7.6413E+01     4.4733   2.8809    94.3990
  3      3.9220     5.9934E-03    1.1599E-02    5.010000E+06  0.00010  1.932E-02    0   0.9582   age055_m22            0.0000     5.0542E+02    11.8780   3.1628    80.0815
  4      0.0000     0.0000E+00    0.0000E+00    6.610000E+06  0.00010  9.973E-03    0   0.9297   age061_m22            0.0000     3.0592E+03    27.9968   4.0000    93.8611
  5      0.0000     0.0000E+00    0.0000E+00    8.710000E+06  0.00010  7.690E-03    0   0.9030   age067_m22            0.0000     2.9656E+03    27.5525   4.0000    94.3694
  6      0.0000     0.0000E+00    0.0000E+00    1.000000E+07  0.00010  6.375E-03    0   0.8902   age070_m22            0.0000     3.0112E+03    27.6177   4.0000    94.8919
  7      0.0000     0.0000E+00    0.0000E+00    1.445000E+07  0.00010  4.874E-03    0   0.8589   age078_m22            0.0000     1.8511E+03    22.2623   4.0000    95.6034
  8      0.0000     0.0000E+00    0.0000E+00    2.512000E+07  0.00010  4.103E-03    0   0.8174   age090_m22            0.0000     3.5764E+02    10.8874   4.0000    94.3783
  9      0.0000     0.0000E+00    0.0000E+00    4.000000E+07  0.00010  3.654E-03    0   0.7830   age104_m22            0.0000     1.7341E+02     6.4599   3.9521    93.1590
 10      0.0000     0.0000E+00    0.0000E+00    5.500000E+07  0.00010  3.093E-03    0   0.7597   age110_m22            0.0000     2.0497E+02     6.4915   3.8529    94.9859
 11      0.0000     0.0000E+00    0.0000E+00    1.015200E+08  0.00010  2.431E-03    0   0.7138   age116_m22            0.0000     2.9151E+02     7.2495   3.4989    98.4504
 12      0.0000     0.0000E+00    0.0000E+00    1.609000E+08  0.00010  1.319E-03    0   0.6775   age120_m22            0.0000     2.7029E+02     6.7990   3.0203   100.8224
 13      0.0000     0.0000E+00    0.0000E+00    2.861200E+08  0.00010  1.075E-03    0   0.6412   age125_m22            0.0000     7.4783E+02    12.0696   3.0989   105.0725
 14      0.0000     0.0000E+00    0.0000E+00    5.088000E+08  0.00010  7.183E-04    0   0.6083   age130_m22            0.0000     9.2193E+02    13.6237   2.8722   106.9828
 15      0.0000     0.0000E+00    0.0000E+00    9.047900E+08  0.00010  4.524E-04    0   0.5785   age135_m22            0.0000     9.3978E+02    13.7998   2.6689   108.3182
 16      0.0000     0.0000E+00    0.0000E+00    1.278050E+09  0.00010  3.018E-04    0   0.5588   age138_m22            0.0000     4.6236E+02     9.3808   2.1249   106.4570
 17      0.0000     0.0000E+00    0.0000E+00    1.434000E+09  0.00010  2.691E-04    0   0.5532   age139_m22            0.0000     3.8265E+02     8.4708   1.9682   105.8323
 18      0.0000     0.0000E+00    0.0000E+00    2.500000E+09  0.00010  1.582E-04    0   0.5296   age150_m22            0.0000     3.2172E+02     7.6367   1.8463   106.5467
 19      0.0000     0.0000E+00    0.0000E+00    4.250000E+09  0.00010  1.007E-04    0   0.5110   age158_m22            0.0000     1.7997E+02     5.6148   1.6983   104.3241
 20      0.0000     0.0000E+00    0.0000E+00    6.250000E+09  0.00010  6.869E-05    0   0.4985   age166_m22            0.0000     8.2166E+01     3.7230   1.6461   100.9455
 21      0.0000     0.0000E+00    0.0000E+00    7.500000E+09  0.00010  5.873E-05    0   0.4931   age171_m22            0.0000     6.9498E+01     3.4550   1.6320   100.3241
 22      0.0000     0.0000E+00    0.0000E+00    1.000000E+10  0.00010  4.481E-05    0   0.4854   age181_m22            0.0000     6.6030E+01     3.3697   1.5941    99.9650
 23      0.0364     3.0835E-02    2.9838E-02    1.300000E+10  0.00010  3.489E-05    0   0.4791   age193_m22            0.0000     5.7836E+01     3.1454   1.5397    99.3605
 24      0.0010     9.6596E-04    9.2986E-04    1.500000E+10  0.00010  3.035E-05    0   0.4766   age201_m22            0.0000     5.2157E+01     2.9915   1.5010    99.1582
 25      3.3004     3.8821E+00    3.7127E+00    1.800000E+10  0.00010  2.510E-05    0   0.4735   age213_m22            0.0000     3.9960E+01     2.6344   1.4338    98.4817
 26      0.0000     0.0000E+00    0.0000E+00    1.000000E+06  0.00040  8.458E-03    0   1.0000   age020_m32            0.0000     3.4137E+03    29.4857   4.0000    92.2607
 27      0.0000     0.0000E+00    0.0000E+00    3.160000E+06  0.00040  3.973E-02    0   1.0000   age045_m32            0.0000     2.4124E+02     9.3132   4.0000    91.3940
 28      0.0000     0.0000E+00    0.0000E+00    5.010000E+06  0.00040  1.935E-02    0   0.9532   age055_m32            0.0000     8.7843E+02    16.7168   4.0000    89.8084
 29      0.0000     0.0000E+00    0.0000E+00    6.610000E+06  0.00040  1.204E-02    0   0.9243   age061_m32            0.0000     2.1418E+03    23.9914   4.0000    94.1198
 30      0.0000     0.0000E+00    0.0000E+00    8.710000E+06  0.00040  9.433E-03    0   0.9001   age067_m32            0.0000     1.9363E+03    22.8751   4.0000    94.8313
 31      0.0000     0.0000E+00    0.0000E+00    1.000000E+07  0.00040  8.053E-03    0   0.8877   age070_m32            0.0000     1.7456E+03    21.8762   4.0000    94.7340
 32      0.0000     0.0000E+00    0.0000E+00    1.445000E+07  0.00040  7.027E-03    0   0.8578   age078_m32            0.0000     2.5432E+02     9.6621   4.0000    88.4854
 33      0.0000     0.0000E+00    0.0000E+00    2.512000E+07  0.00040  4.707E-03    0   0.8166   age090_m32            0.0000     1.5067E+02     7.1928   3.7931    90.5430
 34      0.0000     0.0000E+00    0.0000E+00    4.000000E+07  0.00040  3.714E-03    0   0.7827   age104_m32            0.0000     1.5224E+02     6.1484   3.5921    94.5664
 35      0.0000     0.0000E+00    0.0000E+00    5.500000E+07  0.00040  2.982E-03    0   0.7593   age110_m32            0.0000     1.7838E+02     6.1824   3.5314    96.0119
 36      0.0000     0.0000E+00    0.0000E+00    1.015200E+08  0.00040  2.188E-03    0   0.7143   age116_m32            0.0000     4.0953E+02     8.5634   3.2764   101.0670
 37      0.0000     0.0000E+00    0.0000E+00    1.609000E+08  0.00040  1.690E-03    0   0.6856   age120_m32            0.0000     6.1123E+02    10.6272   3.0700   104.2572
 38      0.0000     0.0000E+00    0.0000E+00    2.861200E+08  0.00040  1.152E-03    0   0.6509   age125_m32            0.0000     7.9470E+02    12.5248   2.8552   106.2181
 39      0.0000     0.0000E+00    0.0000E+00    5.088000E+08  0.00040  7.331E-04    0   0.6182   age130_m32            0.0000     8.7465E+02    13.2694   2.6940   107.0463
 40      0.0000     0.0000E+00    0.0000E+00    9.047900E+08  0.00040  3.960E-04    0   0.5890   age135_m32            0.0000     4.9506E+02     9.9692   2.2268   105.6087
 41      0.0000     0.0000E+00    0.0000E+00    1.278050E+09  0.00040  2.854E-04    0   0.5687   age138_m32            0.0000     3.7977E+02     8.4676   1.9180   107.4995
 42      0.0000     0.0000E+00    0.0000E+00    1.434000E+09  0.00040  2.531E-04    0   0.5632   age139_m32            0.0000     3.6809E+02     8.2974   1.8558   107.4949
 43      0.0000     0.0000E+00    0.0000E+00    2.500000E+09  0.00040  1.488E-04    0   0.5386   age150_m32            0.0000     2.6710E+02     7.0525   1.6032   105.5171
 44      1.3764     4.4744E-01    4.6984E-01    4.250000E+09  0.00040  9.082E-05    0   0.5199   age158_m32            0.0000     8.5393E+01     3.7722   1.5114   101.3576
 45     16.4873     7.6512E+00    7.8442E+00    6.250000E+09  0.00040  6.362E-05    0   0.5076   age166_m32            0.0000     1.6594E+01     1.8314   1.4736    97.2477
 46     26.3306     1.4698E+01    1.4923E+01    7.500000E+09  0.00040  5.289E-05    0   0.5027   age171_m32            0.0000     1.1459E+01     1.6081   1.4397    95.9062
 47      8.4163     6.2558E+00    6.2520E+00    1.000000E+10  0.00040  3.972E-05    0   0.4948   age181_m32            0.0000     9.5958E+00     1.5084   1.3807    94.5403
 48      8.3211     7.4831E+00    7.3606E+00    1.300000E+10  0.00040  3.283E-05    0   0.4870   age193_m32            0.0000     2.1769E+01     2.0244   1.3342    97.6735
 49      4.6264     4.6697E+00    4.5782E+00    1.500000E+10  0.00040  2.925E-05    0   0.4854   age201_m32            0.0000     4.0025E+01     2.6897   1.3141    99.5071
 50      7.9509     9.5076E+00    9.2540E+00    1.800000E+10  0.00040  2.469E-05    0   0.4819   age213_m32            0.0000     4.8742E+01     2.9974   1.2734   100.1615
 51      0.0000     0.0000E+00    0.0000E+00    1.000000E+06  0.00400  1.114E-02    0   1.0000   age020_m42            0.0000     2.9443E+03    27.6515   4.0000    91.8265
 52      0.0000     0.0000E+00    0.0000E+00    3.160000E+06  0.00400  4.073E-02    0   0.9999   age045_m42            0.0000     1.1508E+02     6.0791   3.8670    89.9291
 53      0.0000     0.0000E+00    0.0000E+00    5.010000E+06  0.00400  2.534E-02    0   0.9488   age055_m42            0.0000     4.6319E+02    12.6362   4.0000    89.9656
 54      0.3875     4.4289E-04    8.2476E-04    6.610000E+06  0.00400  2.583E-02    0   0.9220   age061_m42            0.0000     1.1520E+02     5.8978   3.6700    91.4491
 55      0.0000     0.0000E+00    0.0000E+00    8.710000E+06  0.00400  1.706E-02    0   0.8983   age067_m42            0.0000     1.5419E+02     7.5584   3.4760    89.4665
 56      0.0000     0.0000E+00    0.0000E+00    1.000000E+07  0.00400  1.271E-02    0   0.8862   age070_m42            0.0000     2.4639E+02     9.4690   3.4546    87.7863
 57      0.0000     0.0000E+00    0.0000E+00    1.445000E+07  0.00400  7.666E-03    0   0.8571   age078_m42            0.0000     3.0778E+02    10.3560   3.8622    84.0803
 58      0.0000     0.0000E+00    0.0000E+00    2.512000E+07  0.00400  5.070E-03    0   0.8174   age090_m42            0.0000     2.0979E+02     8.8999   3.3244    89.5911
 59      0.0000     0.0000E+00    0.0000E+00    4.000000E+07  0.00400  3.505E-03    0   0.7851   age104_m42            0.0000     1.2488E+02     7.0262   3.0155    92.8922
 60      0.0000     0.0000E+00    0.0000E+00    5.500000E+07  0.00400  3.059E-03    0   0.7629   age110_m42            0.0000     1.3414E+02     5.2055   3.0747    98.6735
 61      0.0000     0.0000E+00    0.0000E+00    1.015200E+08  0.00400  2.268E-03    0   0.7207   age116_m42            0.0000     5.1888E+02     9.9019   2.9889   105.0379
 62      0.0000     0.0000E+00    0.0000E+00    1.609000E+08  0.00400  1.720E-03    0   0.6930   age120_m42            0.0000     5.9798E+02    10.8873   2.8617   106.3929
 63      0.0000     0.0000E+00    0.0000E+00    2.861200E+08  0.00400  1.079E-03    0   0.6613   age125_m42            0.0000     5.6727E+02    10.7259   2.4967   107.2968
 64      0.0000     0.0000E+00    0.0000E+00    5.088000E+08  0.00400  6.261E-04    0   0.6313   age130_m42            0.0000     6.6226E+02    11.5524   2.2898   110.7516
 65      0.0000     0.0000E+00    0.0000E+00    9.047900E+08  0.00400  3.535E-04    0   0.6024   age135_m42            0.0000     3.9399E+02     8.9117   1.8914   110.7062
 66      0.0000     0.0000E+00    0.0000E+00    1.278050E+09  0.00400  2.677E-04    0   0.5837   age138_m42            0.0000     1.7098E+02     6.3052   1.2300   107.8055
 67      0.0000     0.0000E+00    0.0000E+00    1.434000E+09  0.00400  1.910E-04    0   0.5716   age139_m42            0.0000     2.1454E+02     6.8491   1.3999   108.5526
 68      0.0000     0.0000E+00    0.0000E+00    2.500000E+09  0.00400  9.818E-05    0   0.5463   age150_m42            0.0000     1.0036E+02     5.0010   1.1583   102.4563
 69      0.0000     0.0000E+00    0.0000E+00    4.250000E+09  0.00400  5.491E-05    0   0.5269   age158_m42            0.0000     8.8135E+01     4.4450   1.0400    99.3358
 70      0.0000     0.0000E+00    0.0000E+00    6.250000E+09  0.00400  3.857E-05    0   0.5151   age166_m42            0.0000     1.2295E+02     5.0288   0.9245    97.8472
 71      0.0000     0.0000E+00    0.0000E+00    7.500000E+09  0.00400  3.243E-05    0   0.5110   age171_m42            0.0000     1.5208E+02     5.4847   0.8528    97.2496
 72      0.0000     0.0000E+00    0.0000E+00    1.000000E+10  0.00400  2.424E-05    0   0.5028   age181_m42            0.0000     1.9661E+02     6.1431   0.7805    96.5556
 73      0.0000     0.0000E+00    0.0000E+00    1.300000E+10  0.00400  1.883E-05    0   0.4927   age193_m42            0.0000     2.3464E+02     6.6594   0.7450    96.1724
 74      0.0000     0.0000E+00    0.0000E+00    1.500000E+10  0.00400  1.685E-05    0   0.4919   age201_m42            0.0000     2.2439E+02     6.5119   0.7486    96.2168
 75      0.0000     0.0000E+00    0.0000E+00    1.800000E+10  0.00400  1.452E-05    0   0.4874   age213_m42            0.0000     2.0589E+02     6.2430   0.7613    96.5376
 76      0.0000     0.0000E+00    0.0000E+00    1.000000E+06  0.00800  1.286E-02    0   1.0000   age020_m52            0.0000     2.7387E+03    26.3566   4.0000    93.6895
 77      0.0000     0.0000E+00    0.0000E+00    3.160000E+06  0.00800  3.147E-02    0   0.9966   age045_m52            0.0000     2.2156E+03    24.1800   4.0000    94.0389
 78      0.0000     0.0000E+00    0.0000E+00    5.010000E+06  0.00800  2.664E-02    0   0.9443   age055_m52            0.0000     7.8778E+02    15.7166   4.0000    91.5580
 79      0.0000     0.0000E+00    0.0000E+00    6.610000E+06  0.00800  2.151E-02    0   0.9177   age061_m52            0.0000     1.8935E+02     8.0754   3.0663    89.1606
 80      0.0000     0.0000E+00    0.0000E+00    8.710000E+06  0.00800  1.628E-02    0   0.8948   age067_m52            0.0000     1.8890E+02     8.4429   3.4331    89.7777
 81      0.0000     0.0000E+00    0.0000E+00    1.000000E+07  0.00800  1.215E-02    0   0.8827   age070_m52            0.0000     2.3458E+02     9.2806   3.7775    87.6118
 82      0.0000     0.0000E+00    0.0000E+00    1.445000E+07  0.00800  8.739E-03    0   0.8552   age078_m52            0.0000     1.8747E+02     8.3402   3.8182    89.1867
 83      0.0000     0.0000E+00    0.0000E+00    2.512000E+07  0.00800  5.676E-03    0   0.8162   age090_m52            0.0000     1.6157E+02     6.9126   3.4080    95.0053
 84      0.0000     0.0000E+00    0.0000E+00    4.000000E+07  0.00800  3.939E-03    0   0.7841   age104_m52            0.0000     1.6603E+02     6.0097   3.2513    97.8963
 85      0.0000     0.0000E+00    0.0000E+00    5.500000E+07  0.00800  3.155E-03    0   0.7627   age110_m52            0.0000     2.1462E+02     6.1782   3.2217   100.0132
 86      0.0000     0.0000E+00    0.0000E+00    1.015200E+08  0.00800  2.206E-03    0   0.7226   age116_m52            0.0000     3.8999E+02     8.2913   3.0451   104.4288
 87      0.0000     0.0000E+00    0.0000E+00    1.609000E+08  0.00800  1.596E-03    0   0.6963   age120_m52            0.0000     4.7586E+02     9.5024   2.8338   106.3474
 88      0.0000     0.0000E+00    0.0000E+00    2.861200E+08  0.00800  1.002E-03    0   0.6665   age125_m52            0.0000     7.2301E+02    12.3367   2.5484   109.7655
 89      0.0000     0.0000E+00    0.0000E+00    5.088000E+08  0.00800  5.759E-04    0   0.6377   age130_m52            0.0000     8.0025E+02    13.0911   2.2113   113.8992
 90      0.0000     0.0000E+00    0.0000E+00    9.047900E+08  0.00800  2.972E-04    0   0.6086   age135_m52            0.0000     4.8973E+02    10.2467   1.6955   111.8716
 91      0.0000     0.0000E+00    0.0000E+00    1.278050E+09  0.00800  2.242E-04    0   0.5907   age138_m52            0.0000     2.2526E+02     7.0516   1.0789   110.5616
 92      0.0000     0.0000E+00    0.0000E+00    1.434000E+09  0.00800  1.645E-04    0   0.5787   age139_m52            0.0000     1.8849E+02     6.4847   1.2291   109.6033
 93      0.0000     0.0000E+00    0.0000E+00    2.500000E+09  0.00800  7.723E-05    0   0.5519   age150_m52            0.0000     1.7678E+02     6.2362   0.9126   104.9970
 94      0.0000     0.0000E+00    0.0000E+00    4.250000E+09  0.00800  4.151E-05    0   0.5320   age158_m52            0.0000     1.8015E+02     6.3047   0.8514   101.9906
 95      0.0000     0.0000E+00    0.0000E+00    6.250000E+09  0.00800  3.010E-05    0   0.5197   age166_m52            0.0000     2.5754E+02     7.2901   0.6720   100.4659
 96      0.0000     0.0000E+00    0.0000E+00    7.500000E+09  0.00800  2.467E-05    0   0.5139   age171_m52            0.0000     2.8091E+02     7.5625   0.6335   100.0707
 97      0.0000     0.0000E+00    0.0000E+00    1.000000E+10  0.00800  1.862E-05    0   0.5054   age181_m52            0.0000     3.6335E+02     8.4625   0.5132    99.7183
