###################################################################
## OUTPUT of StarlightChains_v04.for    [Cid@UFSC - 01/Apr/2007] ##
###################################################################

## Some input info
NGC6626_a_1.cxt                          [arq_obs]
Base.BC03.S                              [arq_base]
NGC6626_a_1.msk                          [arq_masks]
StCv04.C11.config                        [arq_config]
  150                                    [N_base]
    0                                    [N_YAV_components = # of components with extra extinction!]
    0                                    [i_FitPowerLaw (1/0 = Yes/No)]
-9.99                                    [alpha_PowerLaw]
CCM                                      [red_law_option]
 1.458241                                [q_norm = A(l_norm)/A(V)]

## (Re)Sampling Parameters
 3359.00                                 [l_ini (A)]
 6428.00                                 [l_fin (A)]
    1.00                                 [dl    (A)]     (OBS: dl_cushion =    50.00 A)

## Normalization info
 4020.00                                 [l_norm (A) - for base]
 4010.00                                 [llow_norm (A) - window for f_obs]
 4060.00                                 [lupp_norm (A) - window for f_obs]
2.684846E-14                             [fobs_norm (in input units)]

## S/N
 4730.00                                 [llow_SN (A) - window for S/N]
 4780.00                                 [lupp_SN (A) - window for S/N]
  76.546                                 [S/N in S/N window]
  58.380                                 [S/N in norm. window]
 133.097                                 [S/N_err in S/N window]
 101.509                                 [S/N_err in norm. window]
  1.0000                                 [fscale_chi2]

## etc...
  2147483595                             [idum_orig]
  3069                                   [NOl_eff]
  1200                                   [Nl_eff]
  1869    NSIGMA                         [Ntot_cliped & clip_method]
  1538810                                [Nglobal_steps]
   7                                     [N_chains]
  20                                     [NEX0s_base = N_base in EX0s-fits]
 0   0   1      124   2.0   2.431E+02    [Clip-Bug, RC-Crash & Burn-In warning-flags, n_censored_weights, wei_nsig_threshold & wei_limit]
    67     66.729     66.705      0.024  [idt_all, wdt_TotTime, wdt_UsrTime & wdt_SysTime (sec)]

## Synthesis Results - Best model ##

 2.66836E+00                             [chi2/Nl_eff]
     1.42831                             [adev (%)]

    97.65979                             [sum-of-x (%)]
 1.15109E-13                             [Flux_tot (units of input spectrum!)]
 3.60923E-09                             [Mini_tot (???)]
 1.78743E-09                             [Mcor_tot (???)]

  -7.40                                  [v0_min  (km/s)]
  29.33                                  [vd_min  (km/s)]
 1.1015                                  [AV_min  (mag)]
 0.0000                                  [YAV_min (mag)]

# j     x_j(%)      Mini_j(%)     Mcor_j(%)     age_j(yr)     Z_j      (L/M)_j    YAV?  Mstars   component_j        a/Fe...       SSP_chi2r SSP_adev(%)   SSP_AV   SSP_x(%)
  1      0.0000     0.0000E+00    0.0000E+00    1.000000E+06  0.00010  8.160E-03    0   1.0000   age020_m22            0.0000     5.4140E+02    19.4506   4.0000    88.7140
  2      0.0000     0.0000E+00    0.0000E+00    3.160000E+06  0.00010  4.759E-02    0   1.0000   age045_m22            0.0000     2.7848E+01     4.3789   2.6091    95.1344
  3      1.2863     2.1742E-03    4.2068E-03    5.010000E+06  0.00010  1.932E-02    0   0.9582   age055_m22            0.0000     1.9298E+02    11.9470   2.8640    82.2314
  4      0.0000     0.0000E+00    0.0000E+00    6.610000E+06  0.00010  9.973E-03    0   0.9297   age061_m22            0.0000     4.9738E+02    18.4574   4.0000    91.0014
  5      0.0000     0.0000E+00    0.0000E+00    8.710000E+06  0.00010  7.690E-03    0   0.9030   age067_m22            0.0000     4.7758E+02    18.0504   4.0000    91.3434
  6      0.0000     0.0000E+00    0.0000E+00    1.000000E+07  0.00010  6.375E-03    0   0.8902   age070_m22            0.0000     4.8329E+02    18.0195   4.0000    91.8414
  7      0.0000     0.0000E+00    0.0000E+00    1.445000E+07  0.00010  4.874E-03    0   0.8589   age078_m22            0.0000     2.6881E+02    13.8842   4.0000    91.0739
  8      0.0001     4.2745E-07    7.0552E-07    2.512000E+07  0.00010  4.103E-03    0   0.8174   age090_m22            0.0000     6.3955E+01     7.0822   3.9689    88.4379
  9      0.0000     0.0000E+00    0.0000E+00    4.000000E+07  0.00010  3.654E-03    0   0.7830   age104_m22            0.0000     4.7422E+01     5.2014   3.6795    93.6474
 10      0.0000     0.0000E+00    0.0000E+00    5.500000E+07  0.00010  3.093E-03    0   0.7597   age110_m22            0.0000     4.9430E+01     4.8444   3.5875    95.1119
 11      0.0000     0.0000E+00    0.0000E+00    1.015200E+08  0.00010  2.431E-03    0   0.7138   age116_m22            0.0000     6.3422E+01     4.9515   3.2381    98.3813
 12      0.0000     0.0000E+00    0.0000E+00    1.609000E+08  0.00010  1.319E-03    0   0.6775   age120_m22            0.0000     5.7630E+01     4.5858   2.7685   100.2906
 13      0.0000     0.0000E+00    0.0000E+00    2.861200E+08  0.00010  1.075E-03    0   0.6412   age125_m22            0.0000     1.7634E+02     8.3531   2.8722   103.1474
 14      0.0000     0.0000E+00    0.0000E+00    5.088000E+08  0.00010  7.183E-04    0   0.6083   age130_m22            0.0000     2.2148E+02     9.6834   2.6593   104.3640
 15      0.0000     0.0000E+00    0.0000E+00    9.047900E+08  0.00010  4.524E-04    0   0.5785   age135_m22            0.0000     2.2421E+02     9.8647   2.4620   105.4477
 16      0.0000     0.0000E+00    0.0000E+00    1.278050E+09  0.00010  3.018E-04    0   0.5588   age138_m22            0.0000     9.9071E+01     6.4872   1.9106   104.0768
 17      0.0000     0.0000E+00    0.0000E+00    1.434000E+09  0.00010  2.691E-04    0   0.5532   age139_m22            0.0000     7.8647E+01     5.7983   1.7531   103.5052
 18      0.0000     0.0000E+00    0.0000E+00    2.500000E+09  0.00010  1.582E-04    0   0.5296   age150_m22            0.0000     6.3911E+01     5.1255   1.6269   104.5147
 19      0.0000     7.6437E-06    7.8870E-06    4.250000E+09  0.00010  1.007E-04    0   0.5110   age158_m22            0.0000     3.1496E+01     3.6258   1.4736   102.6397
 20      0.0000     0.0000E+00    0.0000E+00    6.250000E+09  0.00010  6.869E-05    0   0.4985   age166_m22            0.0000     1.2643E+01     2.3800   1.4146    99.6121
 21      6.4290     3.5749E+00    3.5595E+00    7.500000E+09  0.00010  5.873E-05    0   0.4931   age171_m22            0.0000     1.1250E+01     2.2634   1.3977    99.1505
 22      4.4175     3.2194E+00    3.1555E+00    1.000000E+10  0.00010  4.481E-05    0   0.4854   age181_m22            0.0000     1.0564E+01     2.2026   1.3601    98.7771
 23      3.3158     3.1036E+00    3.0025E+00    1.300000E+10  0.00010  3.489E-05    0   0.4791   age193_m22            0.0000     9.1950E+00     2.0715   1.3059    98.1603
 24      5.9218     6.3719E+00    6.1321E+00    1.500000E+10  0.00010  3.035E-05    0   0.4766   age201_m22            0.0000     8.3373E+00     1.9878   1.2670    97.9702
 25     11.6054     1.5100E+01    1.4437E+01    1.800000E+10  0.00010  2.510E-05    0   0.4735   age213_m22            0.0000     6.7755E+00     1.8112   1.1989    97.3361
 26      0.0000     0.0000E+00    0.0000E+00    1.000000E+06  0.00040  8.458E-03    0   1.0000   age020_m32            0.0000     5.5699E+02    19.5228   4.0000    89.7315
 27      0.0000     0.0000E+00    0.0000E+00    3.160000E+06  0.00040  3.973E-02    0   1.0000   age045_m32            0.0000     6.8239E+01     7.4156   3.8604    88.5917
 28      0.0000     0.0000E+00    0.0000E+00    5.010000E+06  0.00040  1.935E-02    0   0.9532   age055_m32            0.0000     1.6241E+02    11.3470   4.0000    84.4333
 29      0.0000     0.0000E+00    0.0000E+00    6.610000E+06  0.00040  1.204E-02    0   0.9243   age061_m32            0.0000     3.2599E+02    15.3337   4.0000    90.1807
 30      0.0000     0.0000E+00    0.0000E+00    8.710000E+06  0.00040  9.433E-03    0   0.9001   age067_m32            0.0000     2.8620E+02    14.4407   4.0000    90.5607
 31      0.0000     0.0000E+00    0.0000E+00    1.000000E+07  0.00040  8.053E-03    0   0.8877   age070_m32            0.0000     2.5446E+02    13.7130   4.0000    90.2152
 32      0.0000     0.0000E+00    0.0000E+00    1.445000E+07  0.00040  7.027E-03    0   0.8578   age078_m32            0.0000     9.1461E+01     8.6354   3.8004    87.5055
 33      0.0000     0.0000E+00    0.0000E+00    2.512000E+07  0.00040  4.707E-03    0   0.8166   age090_m32            0.0000     5.6890E+01     6.7410   3.5158    91.4953
 34      0.0000     0.0000E+00    0.0000E+00    4.000000E+07  0.00040  3.714E-03    0   0.7827   age104_m32            0.0000     4.1925E+01     5.0866   3.3230    95.0594
 35      0.0000     0.0000E+00    0.0000E+00    5.500000E+07  0.00040  2.982E-03    0   0.7593   age110_m32            0.0000     4.3549E+01     4.7445   3.2668    96.2661
 36      0.0000     0.0000E+00    0.0000E+00    1.015200E+08  0.00040  2.188E-03    0   0.7143   age116_m32            0.0000     9.1090E+01     5.6629   3.0261   100.4551
 37      0.0000     0.0000E+00    0.0000E+00    1.609000E+08  0.00040  1.690E-03    0   0.6856   age120_m32            0.0000     1.3760E+02     7.0821   2.8301   103.0205
 38      0.0000     0.0000E+00    0.0000E+00    2.861200E+08  0.00040  1.152E-03    0   0.6509   age125_m32            0.0000     1.8723E+02     8.7666   2.6342   104.0195
 39      0.0000     0.0000E+00    0.0000E+00    5.088000E+08  0.00040  7.331E-04    0   0.6182   age130_m32            0.0000     2.0832E+02     9.4574   2.4834   104.3702
 40      0.0000     0.0000E+00    0.0000E+00    9.047900E+08  0.00040  3.960E-04    0   0.5890   age135_m32            0.0000     1.0847E+02     7.0132   2.0171   102.9615
 41      0.0000     0.0000E+00    0.0000E+00    1.278050E+09  0.00040  2.854E-04    0   0.5687   age138_m32            0.0000     7.8574E+01     5.8045   1.7023   105.2918
 42      0.0000     0.0000E+00    0.0000E+00    1.434000E+09  0.00040  2.531E-04    0   0.5632   age139_m32            0.0000     7.4981E+01     5.6591   1.6393   105.3210
 43      7.8869     1.7309E+00    1.8825E+00    2.500000E+09  0.00040  1.488E-04    0   0.5386   age150_m32            0.0000     4.8983E+01     4.6764   1.3867   103.3572
 44     11.2462     4.0439E+00    4.2453E+00    4.250000E+09  0.00040  9.082E-05    0   0.5199   age158_m32            0.0000     1.1983E+01     2.3738   1.2867    99.6980
 45     21.7576     1.1169E+01    1.1447E+01    6.250000E+09  0.00040  6.362E-05    0   0.5076   age166_m32            0.0000     5.9885E+00     1.8474   1.2379    96.1831
 46     17.1307     1.0577E+01    1.0737E+01    7.500000E+09  0.00040  5.289E-05    0   0.5027   age171_m32            0.0000     6.8619E+00     2.0202   1.2040    94.8371
 47      0.0049     4.0061E-03    4.0026E-03    1.000000E+10  0.00040  3.972E-05    0   0.4948   age181_m32            0.0000     7.7819E+00     2.1132   1.1464    93.3838
 48      0.0000     3.3100E-05    3.2549E-05    1.300000E+10  0.00040  3.283E-05    0   0.4870   age193_m32            0.0000     4.1452E+00     1.5872   1.1035    96.2781
 49      0.0084     9.3488E-03    9.1631E-03    1.500000E+10  0.00040  2.925E-05    0   0.4854   age201_m32            0.0000     5.3940E+00     1.8412   1.0862    97.9505
 50      0.0056     7.4445E-03    7.2440E-03    1.800000E+10  0.00040  2.469E-05    0   0.4819   age213_m32            0.0000     6.5331E+00     2.0227   1.0470    98.5106
 51      0.0000     0.0000E+00    0.0000E+00    1.000000E+06  0.00400  1.114E-02    0   1.0000   age020_m42            0.0000     4.7087E+02    18.1051   4.0000    88.7747
 52      0.0000     0.0000E+00    0.0000E+00    3.160000E+06  0.00400  4.073E-02    0   0.9999   age045_m42            0.0000     4.3959E+01     5.7759   3.5861    90.9017
 53      0.0000     0.0000E+00    0.0000E+00    5.010000E+06  0.00400  2.534E-02    0   0.9488   age055_m42            0.0000     1.0058E+02     8.9081   3.9667    84.7150
 54      0.0000     0.0000E+00    0.0000E+00    6.610000E+06  0.00400  2.583E-02    0   0.9220   age061_m42            0.0000     3.7624E+01     5.2704   3.3925    92.3008
 55      0.0000     0.0000E+00    0.0000E+00    8.710000E+06  0.00400  1.706E-02    0   0.8983   age067_m42            0.0000     6.0086E+01     7.1934   3.1924    90.7916
 56      0.0000     0.0000E+00    0.0000E+00    1.000000E+07  0.00400  1.271E-02    0   0.8862   age070_m42            0.0000     9.6995E+01     9.1814   3.1639    89.4772
 57      0.0000     0.0000E+00    0.0000E+00    1.445000E+07  0.00400  7.666E-03    0   0.8571   age078_m42            0.0000     1.2666E+02    10.1049   3.5743    85.6025
 58      0.0000     0.0000E+00    0.0000E+00    2.512000E+07  0.00400  5.070E-03    0   0.8174   age090_m42            0.0000     8.3351E+01     8.5718   3.0415    90.9419
 59      0.0000     0.0000E+00    0.0000E+00    4.000000E+07  0.00400  3.505E-03    0   0.7851   age104_m42            0.0000     4.6872E+01     6.5469   2.7398    93.8313
 60      0.0000     0.0000E+00    0.0000E+00    5.500000E+07  0.00400  3.059E-03    0   0.7629   age110_m42            0.0000     2.8691E+01     3.8388   2.8174    98.5331
 61      0.0000     0.0000E+00    0.0000E+00    1.015200E+08  0.00400  2.268E-03    0   0.7207   age116_m42            0.0000     1.1433E+02     6.5500   2.7553   103.5557
 62      0.0000     0.0000E+00    0.0000E+00    1.609000E+08  0.00400  1.720E-03    0   0.6930   age120_m42            0.0000     1.3461E+02     7.4380   2.6328   104.5435
 63      0.0000     0.0000E+00    0.0000E+00    2.861200E+08  0.00400  1.079E-03    0   0.6613   age125_m42            0.0000     1.3000E+02     7.4014   2.2793   104.8841
 64      0.0000     0.0000E+00    0.0000E+00    5.088000E+08  0.00400  6.261E-04    0   0.6313   age130_m42            0.0000     1.5148E+02     8.0996   2.0820   107.9358
 65      0.0000     0.0000E+00    0.0000E+00    9.047900E+08  0.00400  3.535E-04    0   0.6024   age135_m42            0.0000     8.3768E+01     6.2511   1.6845   107.9299
 66      0.0000     0.0000E+00    0.0000E+00    1.278050E+09  0.00400  2.677E-04    0   0.5837   age138_m42            0.0000     4.6628E+01     5.1923   1.0358   104.2124
 67      0.0000     0.0000E+00    0.0000E+00    1.434000E+09  0.00400  1.910E-04    0   0.5716   age139_m42            0.0000     4.8837E+01     5.2081   1.2003   105.2258
 68      0.0000     0.0000E+00    0.0000E+00    2.500000E+09  0.00400  9.818E-05    0   0.5463   age150_m42            0.0000     3.4539E+01     4.4519   0.9555    99.3264
 69      0.0000     0.0000E+00    0.0000E+00    4.250000E+09  0.00400  5.491E-05    0   0.5269   age158_m42            0.0000     4.0728E+01     4.5424   0.8339    96.3678
 70      0.0000     0.0000E+00    0.0000E+00    6.250000E+09  0.00400  3.857E-05    0   0.5151   age166_m42            0.0000     5.7485E+01     5.1979   0.7212    94.6878
 71      0.0000     0.0000E+00    0.0000E+00    7.500000E+09  0.00400  3.243E-05    0   0.5110   age171_m42            0.0000     7.0046E+01     5.6243   0.6532    93.8870
 72      0.0000     0.0000E+00    0.0000E+00    1.000000E+10  0.00400  2.424E-05    0   0.5028   age181_m42            0.0000     8.8040E+01     6.2130   0.5860    92.9433
 73      0.0000     0.0000E+00    0.0000E+00    1.300000E+10  0.00400  1.883E-05    0   0.4927   age193_m42            0.0000     1.0312E+02     6.6902   0.5535    92.4222
 74      0.0000     0.0000E+00    0.0000E+00    1.500000E+10  0.00400  1.685E-05    0   0.4919   age201_m42            0.0000     9.9595E+01     6.5970   0.5553    92.5294
 75      0.0000     0.0000E+00    0.0000E+00    1.800000E+10  0.00400  1.452E-05    0   0.4874   age213_m42            0.0000     9.3236E+01     6.4264   0.5649    92.9542
 76      0.0000     0.0000E+00    0.0000E+00    1.000000E+06  0.00800  1.286E-02    0   1.0000   age020_m52            0.0000     4.2229E+02    17.0324   4.0000    90.3320
 77      0.0000     0.0000E+00    0.0000E+00    3.160000E+06  0.00800  3.147E-02    0   0.9966   age045_m52            0.0000     3.3557E+02    15.4941   4.0000    90.1168
 78      0.0000     0.0000E+00    0.0000E+00    5.010000E+06  0.00800  2.664E-02    0   0.9443   age055_m52            0.0000     1.2856E+02    10.0854   4.0000    85.8290
 79      0.0000     0.0000E+00    0.0000E+00    6.610000E+06  0.00800  2.151E-02    0   0.9177   age061_m52            0.0000     7.6011E+01     7.9560   2.7790    90.6276
 80      0.0000     0.0000E+00    0.0000E+00    8.710000E+06  0.00800  1.628E-02    0   0.8948   age067_m52            0.0000     7.2191E+01     7.9917   3.1438    91.2849
 81      0.0000     0.0000E+00    0.0000E+00    1.000000E+07  0.00800  1.215E-02    0   0.8827   age070_m52            0.0000     8.9730E+01     8.8253   3.4834    89.2590
 82      0.0000     0.0000E+00    0.0000E+00    1.445000E+07  0.00800  8.739E-03    0   0.8552   age078_m52            0.0000     7.0376E+01     7.7976   3.5254    90.7052
 83      0.0000     0.0000E+00    0.0000E+00    2.512000E+07  0.00800  5.676E-03    0   0.8162   age090_m52            0.0000     4.7828E+01     6.0025   3.1255    96.1056
 84      0.0000     0.0000E+00    0.0000E+00    4.000000E+07  0.00800  3.939E-03    0   0.7841   age104_m52            0.0000     4.0791E+01     4.7753   2.9800    98.4104
 85      0.0000     0.0000E+00    0.0000E+00    5.500000E+07  0.00800  3.155E-03    0   0.7627   age110_m52            0.0000     4.8896E+01     4.5016   2.9622    99.9540
 86      0.0000     0.0000E+00    0.0000E+00    1.015200E+08  0.00800  2.206E-03    0   0.7226   age116_m52            0.0000     8.5764E+01     5.5022   2.8041   103.3961
 87      0.0000     0.0000E+00    0.0000E+00    1.609000E+08  0.00800  1.596E-03    0   0.6963   age120_m52            0.0000     1.0490E+02     6.3447   2.6031   104.7002
 88      0.0000     0.0000E+00    0.0000E+00    2.861200E+08  0.00800  1.002E-03    0   0.6665   age125_m52            0.0000     1.6791E+02     8.7485   2.3414   106.8007
 89      0.0000     0.0000E+00    0.0000E+00    5.088000E+08  0.00800  5.759E-04    0   0.6377   age130_m52            0.0000     1.8741E+02     9.6648   2.0207   110.0193
 90      0.0000     0.0000E+00    0.0000E+00    9.047900E+08  0.00800  2.972E-04    0   0.6086   age135_m52            0.0000     1.1604E+02     7.8530   1.5106   107.7120
 91      0.0000     0.0000E+00    0.0000E+00    1.278050E+09  0.00800  2.242E-04    0   0.5907   age138_m52            0.0000     7.0081E+01     6.2164   0.8971   106.1332
 92      0.0000     0.0000E+00    0.0000E+00    1.434000E+09  0.00800  1.645E-04    0   0.5787   age139_m52            0.0000     5.6245E+01     5.6638   1.0419   105.5469
 93      0.0000     0.0000E+00    0.0000E+00    2.500000E+09  0.00800  7.723E-05    0   0.5519   age150_m52            0.0000     6.8999E+01     5.9082   0.7244   100.9885
 94      0.0000     0.0000E+00    0.0000E+00    4.250000E+09  0.00800  4.151E-05    0   0.5320   age158_m52            0.0000     7.3809E+01     6.0179   0.6605    98.1611
 95      0.0000     0.0000E+00    0.0000E+00    6.250000E+09  0.00800  3.010E-05    0   0.5197   age166_m52            0.0000     1.0535E+02     6.9429   0.4878    96.2325
 96      0.0000     0.0000E+00    0.0000E+00    7.500000E+09  0.00800  2.467E-05    0   0.5139   age171_m52            0.0000     1.1425E+02     7.1752   0.4520    95.7058
 97      0.0000     0.0000E+00    0.0000E+00    1.000000E+10  0.00800  1.862E-05    0   0.5054   age181_m52            0.0000     1.4493E+02     7.9520   0.3393    94.9415
