###################################################################
## OUTPUT of StarlightChains_v04.for    [Cid@UFSC - 01/Apr/2007] ##
###################################################################

## Some input info
NGC6316_a_1.cxt                          [arq_obs]
Base.BC03.S                              [arq_base]
NGC6316_a_1.msk                          [arq_masks]
StCv04.C11.config                        [arq_config]
  150                                    [N_base]
    0                                    [N_YAV_components = # of components with extra extinction!]
    0                                    [i_FitPowerLaw (1/0 = Yes/No)]
-9.99                                    [alpha_PowerLaw]
CCM                                      [red_law_option]
 1.458241                                [q_norm = A(l_norm)/A(V)]

## (Re)Sampling Parameters
 3359.00                                 [l_ini (A)]
 6428.00                                 [l_fin (A)]
    1.00                                 [dl    (A)]     (OBS: dl_cushion =    50.00 A)

## Normalization info
 4020.00                                 [l_norm (A) - for base]
 4010.00                                 [llow_norm (A) - window for f_obs]
 4060.00                                 [lupp_norm (A) - window for f_obs]
3.447620E-15                             [fobs_norm (in input units)]

## S/N
 4730.00                                 [llow_SN (A) - window for S/N]
 4780.00                                 [lupp_SN (A) - window for S/N]
  41.849                                 [S/N in S/N window]
  23.735                                 [S/N in norm. window]
 229.586                                 [S/N_err in S/N window]
 130.210                                 [S/N_err in norm. window]
  1.0000                                 [fscale_chi2]

## etc...
  2147483618                             [idum_orig]
  3065                                   [NOl_eff]
   579                                   [Nl_eff]
  2486    NSIGMA                         [Ntot_cliped & clip_method]
  3006990                                [Nglobal_steps]
   7                                     [N_chains]
  42                                     [NEX0s_base = N_base in EX0s-fits]
 0   0   1      227   2.0   2.812E+02    [Clip-Bug, RC-Crash & Burn-In warning-flags, n_censored_weights, wei_nsig_threshold & wei_limit]
   113    113.183    113.175      0.008  [idt_all, wdt_TotTime, wdt_UsrTime & wdt_SysTime (sec)]

## Synthesis Results - Best model ##

 2.72155E+00                             [chi2/Nl_eff]
     1.82328                             [adev (%)]

   100.64227                             [sum-of-x (%)]
 3.84310E-14                             [Flux_tot (units of input spectrum!)]
 2.19500E-09                             [Mini_tot (???)]
 1.10026E-09                             [Mcor_tot (???)]

 -28.02                                  [v0_min  (km/s)]
  57.87                                  [vd_min  (km/s)]
 1.7905                                  [AV_min  (mag)]
 0.0000                                  [YAV_min (mag)]

# j     x_j(%)      Mini_j(%)     Mcor_j(%)     age_j(yr)     Z_j      (L/M)_j    YAV?  Mstars   component_j        a/Fe...       SSP_chi2r SSP_adev(%)   SSP_AV   SSP_x(%)
  1      1.4566     3.1054E-03    6.1953E-03    1.000000E+06  0.00010  8.160E-03    0   1.0000   age020_m22            0.0000     6.3606E+03    45.4039   4.0000   105.7390
  2      1.4650     5.3555E-04    1.0684E-03    3.160000E+06  0.00010  4.759E-02    0   1.0000   age045_m22            0.0000     2.2876E+02     7.5761   3.6919    98.2575
  3     10.1042     9.0983E-03    1.7392E-02    5.010000E+06  0.00010  1.932E-02    0   0.9582   age055_m22            0.0000     3.3262E+02    12.4095   3.8776    87.8657
  4      2.9281     5.1077E-03    9.4734E-03    6.610000E+06  0.00010  9.973E-03    0   0.9297   age061_m22            0.0000     6.2012E+03    44.5432   4.0000   108.6888
  5      1.7022     3.8507E-03    6.9369E-03    8.710000E+06  0.00010  7.690E-03    0   0.9030   age067_m22            0.0000     6.1240E+03    44.1574   4.0000   109.1906
  6      0.6424     1.7531E-03    3.1134E-03    1.000000E+07  0.00010  6.375E-03    0   0.8902   age070_m22            0.0000     6.1835E+03    44.0763   4.0000   109.4604
  7      0.0000     0.0000E+00    0.0000E+00    1.445000E+07  0.00010  4.874E-03    0   0.8589   age078_m22            0.0000     4.9677E+03    39.9307   4.0000   111.8793
  8      0.0000     0.0000E+00    0.0000E+00    2.512000E+07  0.00010  4.103E-03    0   0.8174   age090_m22            0.0000     2.8173E+03    29.5555   4.0000   114.8202
  9      0.6081     2.8950E-03    4.5222E-03    4.000000E+07  0.00010  3.654E-03    0   0.7830   age104_m22            0.0000     1.8165E+03    20.8975   4.0000   114.9895
 10      0.0000     0.0000E+00    0.0000E+00    5.500000E+07  0.00010  3.093E-03    0   0.7597   age110_m22            0.0000     1.5634E+03    18.2296   4.0000   114.6329
 11      0.3369     2.4112E-03    3.4336E-03    1.015200E+08  0.00010  2.431E-03    0   0.7138   age116_m22            0.0000     8.6374E+02    14.4937   4.0000   109.4548
 12      0.0534     7.0481E-04    9.5262E-04    1.609000E+08  0.00010  1.319E-03    0   0.6775   age120_m22            0.0000     5.2475E+02    12.5872   3.9210   100.5039
 13      0.0000     0.0000E+00    0.0000E+00    2.861200E+08  0.00010  1.075E-03    0   0.6412   age125_m22            0.0000     9.2581E+02    17.2759   4.0000   103.7257
 14      0.0000     0.0000E+00    0.0000E+00    5.088000E+08  0.00010  7.183E-04    0   0.6083   age130_m22            0.0000     1.0470E+03    18.3758   3.8493   103.0618
 15      0.0000     0.0000E+00    0.0000E+00    9.047900E+08  0.00010  4.524E-04    0   0.5785   age135_m22            0.0000     1.0616E+03    18.6644   3.6536   104.0774
 16      0.0000     0.0000E+00    0.0000E+00    1.278050E+09  0.00010  3.018E-04    0   0.5588   age138_m22            0.0000     6.8720E+02    15.0900   3.0711   103.9378
 17      0.0000     0.0000E+00    0.0000E+00    1.434000E+09  0.00010  2.691E-04    0   0.5532   age139_m22            0.0000     6.1611E+02    14.3398   2.9046   103.7503
 18      0.0000     0.0000E+00    0.0000E+00    2.500000E+09  0.00010  1.582E-04    0   0.5296   age150_m22            0.0000     5.7313E+02    13.9687   2.7790   104.7181
 19      0.0000     0.0000E+00    0.0000E+00    4.250000E+09  0.00010  1.007E-04    0   0.5110   age158_m22            0.0000     4.2717E+02    12.0481   2.6031   103.8123
 20      0.0000     0.0000E+00    0.0000E+00    6.250000E+09  0.00010  6.869E-05    0   0.4985   age166_m22            0.0000     3.0273E+02     9.9895   2.5159   101.9769
 21      0.0000     0.0000E+00    0.0000E+00    7.500000E+09  0.00010  5.873E-05    0   0.4931   age171_m22            0.0000     2.8661E+02     9.6774   2.4967   101.6046
 22      0.0000     0.0000E+00    0.0000E+00    1.000000E+10  0.00010  4.481E-05    0   0.4854   age181_m22            0.0000     2.8113E+02     9.5702   2.4583   101.2637
 23      0.0070     3.4763E-03    3.3226E-03    1.300000E+10  0.00010  3.489E-05    0   0.4791   age193_m22            0.0000     2.6694E+02     9.2922   2.4013   100.7789
 24      0.0000     0.0000E+00    0.0000E+00    1.500000E+10  0.00010  3.035E-05    0   0.4766   age201_m22            0.0000     2.5736E+02     9.1107   2.3592   100.7076
 25      0.0000     0.0000E+00    0.0000E+00    1.800000E+10  0.00010  2.510E-05    0   0.4735   age213_m22            0.0000     2.3495E+02     8.6618   2.2861   100.2847
 26      1.1193     2.3023E-03    4.5929E-03    1.000000E+06  0.00040  8.458E-03    0   1.0000   age020_m32            0.0000     6.4711E+03    45.4485   4.0000   106.5247
 27      0.0000     0.0000E+00    0.0000E+00    3.160000E+06  0.00040  3.973E-02    0   1.0000   age045_m32            0.0000     2.3316E+03    27.5893   4.0000   113.2681
 28      0.8884     7.9869E-04    1.5188E-03    5.010000E+06  0.00040  1.935E-02    0   0.9532   age055_m32            0.0000     3.4018E+03    35.2116   4.0000   109.5155
 29      0.7952     1.1491E-03    2.1188E-03    6.610000E+06  0.00040  1.204E-02    0   0.9243   age061_m32            0.0000     5.2394E+03    41.5435   4.0000   110.3159
 30      1.3042     2.4052E-03    4.3189E-03    8.710000E+06  0.00040  9.433E-03    0   0.9001   age067_m32            0.0000     5.0387E+03    40.6148   4.0000   111.2066
 31      0.0000     0.0000E+00    0.0000E+00    1.000000E+07  0.00040  8.053E-03    0   0.8877   age070_m32            0.0000     4.8112E+03    39.7997   4.0000   111.4851
 32      0.0000     0.0000E+00    0.0000E+00    1.445000E+07  0.00040  7.027E-03    0   0.8578   age078_m32            0.0000     2.1266E+03    27.5207   4.0000   110.9003
 33      0.0000     0.0000E+00    0.0000E+00    2.512000E+07  0.00040  4.707E-03    0   0.8166   age090_m32            0.0000     1.1593E+03    19.2975   4.0000   109.5953
 34      0.0000     0.0000E+00    0.0000E+00    4.000000E+07  0.00040  3.714E-03    0   0.7827   age104_m32            0.0000     7.9844E+02    14.1237   4.0000   108.5631
 35      0.2461     1.4356E-03    2.1746E-03    5.500000E+07  0.00040  2.982E-03    0   0.7593   age110_m32            0.0000     7.5223E+02    13.3055   4.0000   108.2975
 36      0.0000     0.0000E+00    0.0000E+00    1.015200E+08  0.00040  2.188E-03    0   0.7143   age116_m32            0.0000     7.2190E+02    14.8964   4.0000   105.7175
 37      0.0000     0.0000E+00    0.0000E+00    1.609000E+08  0.00040  1.690E-03    0   0.6856   age120_m32            0.0000     8.1084E+02    16.2353   4.0000   102.2654
 38      0.0000     0.0000E+00    0.0000E+00    2.861200E+08  0.00040  1.152E-03    0   0.6509   age125_m32            0.0000     9.5209E+02    17.5019   3.8219   102.7830
 39      0.0000     0.0000E+00    0.0000E+00    5.088000E+08  0.00040  7.331E-04    0   0.6182   age130_m32            0.0000     1.0081E+03    18.1079   3.6700   103.2188
 40      0.0000     0.0000E+00    0.0000E+00    9.047900E+08  0.00040  3.960E-04    0   0.5890   age135_m32            0.0000     7.0535E+02    15.2900   3.1734   103.1193
 41      0.0000     0.0000E+00    0.0000E+00    1.278050E+09  0.00040  2.854E-04    0   0.5687   age138_m32            0.0000     6.2161E+02    14.5787   2.8603   105.2952
 42      0.0000     0.0000E+00    0.0000E+00    1.434000E+09  0.00040  2.531E-04    0   0.5632   age139_m32            0.0000     6.1121E+02    14.4789   2.7968   105.3166
 43      0.0000     0.0000E+00    0.0000E+00    2.500000E+09  0.00040  1.488E-04    0   0.5386   age150_m32            0.0000     5.0170E+02    13.1734   2.5269   104.0918
 44      0.2955     5.6608E-02    5.8714E-02    4.250000E+09  0.00040  9.082E-05    0   0.5199   age158_m32            0.0000     2.9580E+02     9.9689   2.3857   102.1700
 45      6.5294     1.7854E+00    1.8080E+00    6.250000E+09  0.00040  6.362E-05    0   0.5076   age166_m32            0.0000     1.7649E+02     7.3808   2.3044    99.9476
 46      9.0609     2.9803E+00    2.9889E+00    7.500000E+09  0.00040  5.289E-05    0   0.5027   age171_m32            0.0000     1.5575E+02     6.8443   2.2624    98.9092
 47      2.6663     1.1678E+00    1.1528E+00    1.000000E+10  0.00040  3.972E-05    0   0.4948   age181_m32            0.0000     1.4160E+02     6.4726   2.1966    97.7472
 48      0.6499     3.4438E-01    3.3458E-01    1.300000E+10  0.00040  3.283E-05    0   0.4870   age193_m32            0.0000     1.9033E+02     7.8191   2.1737    99.8764
 49      0.0000     0.0000E+00    0.0000E+00    1.500000E+10  0.00040  2.925E-05    0   0.4854   age201_m32            0.0000     2.2731E+02     8.6852   2.1678   101.0919
 50      0.6367     4.4860E-01    4.3128E-01    1.800000E+10  0.00040  2.469E-05    0   0.4819   age213_m32            0.0000     2.4104E+02     8.9932   2.1322   101.4959
 51      0.3348     5.2285E-04    1.0431E-03    1.000000E+06  0.00400  1.114E-02    0   1.0000   age020_m42            0.0000     5.9798E+03    44.0811   4.0000   106.8094
 52      0.0000     0.0000E+00    0.0000E+00    3.160000E+06  0.00400  4.073E-02    0   0.9999   age045_m42            0.0000     1.2406E+03    19.2780   4.0000   110.7900
 53      0.0000     0.0000E+00    0.0000E+00    5.010000E+06  0.00400  2.534E-02    0   0.9488   age055_m42            0.0000     2.7339E+03    31.0405   4.0000   110.8151
 54      0.0000     0.0000E+00    0.0000E+00    6.610000E+06  0.00400  2.583E-02    0   0.9220   age061_m42            0.0000     8.1855E+02    15.0136   4.0000   107.6050
 55      0.0000     0.0000E+00    0.0000E+00    8.710000E+06  0.00400  1.706E-02    0   0.8983   age067_m42            0.0000     4.1381E+02    12.2857   4.0000   101.2385
 56      0.0000     0.0000E+00    0.0000E+00    1.000000E+07  0.00400  1.271E-02    0   0.8862   age070_m42            0.0000     3.9696E+02    13.0143   4.0000    99.2339
 57      0.0000     0.0000E+00    0.0000E+00    1.445000E+07  0.00400  7.666E-03    0   0.8571   age078_m42            0.0000     1.2263E+03    23.0476   4.0000   104.9097
 58      0.0000     0.0000E+00    0.0000E+00    2.512000E+07  0.00400  5.070E-03    0   0.8174   age090_m42            0.0000     2.6989E+02    10.2918   4.0000    97.5934
 59      0.0000     0.0000E+00    0.0000E+00    4.000000E+07  0.00400  3.505E-03    0   0.7851   age104_m42            0.0000     2.1236E+02     7.9739   3.8041    97.4899
 60      0.0000     0.0000E+00    0.0000E+00    5.500000E+07  0.00400  3.059E-03    0   0.7629   age110_m42            0.0000     3.4841E+02     9.7737   3.9342   100.0839
 61      0.0000     0.0000E+00    0.0000E+00    1.015200E+08  0.00400  2.268E-03    0   0.7207   age116_m42            0.0000     7.1926E+02    15.1907   3.9320   102.6752
 62      0.0000     0.0000E+00    0.0000E+00    1.609000E+08  0.00400  1.720E-03    0   0.6930   age120_m42            0.0000     7.7308E+02    15.7483   3.8041   103.8462
 63      0.0000     0.0000E+00    0.0000E+00    2.861200E+08  0.00400  1.079E-03    0   0.6613   age125_m42            0.0000     7.5993E+02    15.7609   3.4427   104.4411
 64      0.0000     0.0000E+00    0.0000E+00    5.088000E+08  0.00400  6.261E-04    0   0.6313   age130_m42            0.0000     8.4901E+02    16.9565   3.2623   106.7448
 65      0.0000     0.0000E+00    0.0000E+00    9.047900E+08  0.00400  3.535E-04    0   0.6024   age135_m42            0.0000     6.1477E+02    14.6689   2.8403   107.8407
 66      0.0000     0.0000E+00    0.0000E+00    1.278050E+09  0.00400  2.677E-04    0   0.5837   age138_m42            0.0000     3.1115E+02    11.1341   2.1212   107.1385
 67      0.0000     0.0000E+00    0.0000E+00    1.434000E+09  0.00400  1.910E-04    0   0.5716   age139_m42            0.0000     3.7864E+02    11.8572   2.3030   107.4649
 68      0.0000     0.0000E+00    0.0000E+00    2.500000E+09  0.00400  9.818E-05    0   0.5463   age150_m42            0.0000     1.7685E+02     8.2493   1.9970   104.1434
 69      2.2418     7.1025E-01    7.4658E-01    4.250000E+09  0.00400  5.491E-05    0   0.5269   age158_m42            0.0000     1.0857E+02     6.5626   1.8477   102.1651
 70      1.7287     7.7971E-01    8.0124E-01    6.250000E+09  0.00400  3.857E-05    0   0.5151   age166_m42            0.0000     1.0060E+02     6.4085   1.7175   101.1521
 71      2.7507     1.4756E+00    1.5043E+00    7.500000E+09  0.00400  3.243E-05    0   0.5110   age171_m42            0.0000     1.0459E+02     6.5950   1.6385   100.7476
 72      1.1075     7.9487E-01    7.9731E-01    1.000000E+10  0.00400  2.424E-05    0   0.5028   age181_m42            0.0000     1.1284E+02     6.9768   1.5580   100.2855
 73      0.2583     2.3862E-01    2.3454E-01    1.300000E+10  0.00400  1.883E-05    0   0.4927   age193_m42            0.0000     1.1753E+02     7.2146   1.5151   100.1415
 74      1.3735     1.4181E+00    1.3916E+00    1.500000E+10  0.00400  1.685E-05    0   0.4919   age201_m42            0.0000     1.1287E+02     7.0167   1.5188   100.1635
 75      2.3546     2.8211E+00    2.7431E+00    1.800000E+10  0.00400  1.452E-05    0   0.4874   age213_m42            0.0000     1.0499E+02     6.7015   1.5324   100.4298
 76      0.0000     0.0000E+00    0.0000E+00    1.000000E+06  0.00800  1.286E-02    0   1.0000   age020_m52            0.0000     5.8117E+03    43.1785   4.0000   108.7998
 77      0.0000     0.0000E+00    0.0000E+00    3.160000E+06  0.00800  3.147E-02    0   0.9966   age045_m52            0.0000     5.2923E+03    41.6749   4.0000   110.1095
 78      0.0000     0.0000E+00    0.0000E+00    5.010000E+06  0.00800  2.664E-02    0   0.9443   age055_m52            0.0000     3.3507E+03    34.2610   4.0000   111.2132
 79      0.0000     0.0000E+00    0.0000E+00    6.610000E+06  0.00800  2.151E-02    0   0.9177   age061_m52            0.0000     1.8349E+02     8.4173   3.8205    95.2729
 80      0.0000     0.0000E+00    0.0000E+00    8.710000E+06  0.00800  1.628E-02    0   0.8948   age067_m52            0.0000     3.5554E+02    11.9349   4.0000   100.5564
 81      0.0000     0.0000E+00    0.0000E+00    1.000000E+07  0.00800  1.215E-02    0   0.8827   age070_m52            0.0000     1.0128E+03    20.4237   4.0000   106.5963
 82      0.0000     0.0000E+00    0.0000E+00    1.445000E+07  0.00800  8.739E-03    0   0.8552   age078_m52            0.0000     1.1734E+03    20.7589   4.0000   108.8865
 83      0.0000     0.0000E+00    0.0000E+00    2.512000E+07  0.00800  5.676E-03    0   0.8162   age090_m52            0.0000     4.8142E+02    11.5145   4.0000   104.3559
 84      0.0000     0.0000E+00    0.0000E+00    4.000000E+07  0.00800  3.939E-03    0   0.7841   age104_m52            0.0000     4.1496E+02    10.2962   4.0000   102.5626
 85      0.0000     0.0000E+00    0.0000E+00    5.500000E+07  0.00800  3.155E-03    0   0.7627   age110_m52            0.0000     4.7830E+02    11.5110   4.0000   103.5279
 86      0.0000     0.0000E+00    0.0000E+00    1.015200E+08  0.00800  2.206E-03    0   0.7226   age116_m52            0.0000     6.1386E+02    13.8731   3.9689   103.0202
 87      0.0000     0.0000E+00    0.0000E+00    1.609000E+08  0.00800  1.596E-03    0   0.6963   age120_m52            0.0000     6.8100E+02    14.8250   3.7679   104.2722
 88      0.0000     0.0000E+00    0.0000E+00    2.861200E+08  0.00800  1.002E-03    0   0.6665   age125_m52            0.0000     8.6417E+02    17.0453   3.5122   106.1274
 89      0.0000     0.0000E+00    0.0000E+00    5.088000E+08  0.00800  5.759E-04    0   0.6377   age130_m52            0.0000     9.0165E+02    17.7552   3.1840   109.6904
 90      0.0000     0.0000E+00    0.0000E+00    9.047900E+08  0.00800  2.972E-04    0   0.6086   age135_m52            0.0000     6.0445E+02    14.6663   2.6215   109.6859
 91      0.0000     0.0000E+00    0.0000E+00    1.278050E+09  0.00800  2.242E-04    0   0.5907   age138_m52            0.0000     2.9665E+02    10.8744   1.9549   110.4374
 92      0.0000     0.0000E+00    0.0000E+00    1.434000E+09  0.00800  1.645E-04    0   0.5787   age139_m52            0.0000     2.7553E+02    10.3238   2.0998   109.8185
 93      0.0000     0.0000E+00    0.0000E+00    2.500000E+09  0.00800  7.723E-05    0   0.5519   age150_m52            0.0000     1.6405E+02     8.2972   1.7362   107.1802
 94      0.0000     0.0000E+00    0.0000E+00    4.250000E+09  0.00800  4.151E-05    0   0.5320   age158_m52            0.0000     1.3711E+02     7.6575   1.6548   105.0329
 95      0.6614     3.8225E-01    3.9631E-01    6.250000E+09  0.00800  3.010E-05    0   0.5197   age166_m52            0.0000     1.4444E+02     8.1293   1.4575   104.0245
 96      0.6761     4.7675E-01    4.8877E-01    7.500000E+09  0.00800  2.467E-05    0   0.5139   age171_m52            0.0000     1.5201E+02     8.3827   1.4160   103.6955
 97      0.6115     5.7132E-01    5.7604E-01    1.000000E+10  0.00800  1.862E-05    0   0.5054   age181_m52            0.0000     1.8493E+02     9.2521   1.2890   103.4862
