###################################################################
## OUTPUT of StarlightChains_v04.for    [Cid@UFSC - 01/Apr/2007] ##
###################################################################

## Some input info
NGC6528_a_2.cxt                          [arq_obs]
Base.BC03.S                              [arq_base]
NGC6528_a_2.msk                          [arq_masks]
StCv04.C11.config                        [arq_config]
  150                                    [N_base]
    0                                    [N_YAV_components = # of components with extra extinction!]
    0                                    [i_FitPowerLaw (1/0 = Yes/No)]
-9.99                                    [alpha_PowerLaw]
CCM                                      [red_law_option]
 1.458241                                [q_norm = A(l_norm)/A(V)]

## (Re)Sampling Parameters
 3359.00                                 [l_ini (A)]
 6428.00                                 [l_fin (A)]
    1.00                                 [dl    (A)]     (OBS: dl_cushion =    50.00 A)

## Normalization info
 4020.00                                 [l_norm (A) - for base]
 4010.00                                 [llow_norm (A) - window for f_obs]
 4060.00                                 [lupp_norm (A) - window for f_obs]
4.643135E-15                             [fobs_norm (in input units)]

## S/N
 4730.00                                 [llow_SN (A) - window for S/N]
 4780.00                                 [lupp_SN (A) - window for S/N]
  27.089                                 [S/N in S/N window]
  13.711                                 [S/N in norm. window]
 346.459                                 [S/N_err in S/N window]
 175.352                                 [S/N_err in norm. window]
  1.0000                                 [fscale_chi2]

## etc...
  2147483605                             [idum_orig]
  3068                                   [NOl_eff]
  1217                                   [Nl_eff]
  1851    NSIGMA                         [Ntot_cliped & clip_method]
  2388400                                [Nglobal_steps]
   7                                     [N_chains]
  34                                     [NEX0s_base = N_base in EX0s-fits]
 0   0   1      164   2.0   3.956E+02    [Clip-Bug, RC-Crash & Burn-In warning-flags, n_censored_weights, wei_nsig_threshold & wei_limit]
    83     83.617     83.613      0.004  [idt_all, wdt_TotTime, wdt_UsrTime & wdt_SysTime (sec)]

## Synthesis Results - Best model ##

 2.17480E+00                             [chi2/Nl_eff]
     1.86972                             [adev (%)]

    99.06323                             [sum-of-x (%)]
 4.41028E-14                             [Flux_tot (units of input spectrum!)]
 3.86451E-09                             [Mini_tot (???)]
 1.93464E-09                             [Mcor_tot (???)]

   7.74                                  [v0_min  (km/s)]
  20.66                                  [vd_min  (km/s)]
 1.6831                                  [AV_min  (mag)]
 0.0000                                  [YAV_min (mag)]

# j     x_j(%)      Mini_j(%)     Mcor_j(%)     age_j(yr)     Z_j      (L/M)_j    YAV?  Mstars   component_j        a/Fe...       SSP_chi2r SSP_adev(%)   SSP_AV   SSP_x(%)
  1      2.7832     3.9293E-03    7.8489E-03    1.000000E+06  0.00010  8.160E-03    0   1.0000   age020_m22            0.0000     3.4429E+03    45.0869   4.0000    93.9115
  2      6.2035     1.5017E-03    2.9997E-03    3.160000E+06  0.00010  4.759E-02    0   1.0000   age045_m22            0.0000     4.0592E+02    10.5823   4.0000   100.7218
  3      3.4131     2.0352E-03    3.8954E-03    5.010000E+06  0.00010  1.932E-02    0   0.9582   age055_m22            0.0000     7.3235E+02    14.3631   4.0000    93.1293
  4      0.8987     1.0381E-03    1.9278E-03    6.610000E+06  0.00010  9.973E-03    0   0.9297   age061_m22            0.0000     3.4058E+03    44.5363   4.0000    96.5787
  5      1.1058     1.6566E-03    2.9882E-03    8.710000E+06  0.00010  7.690E-03    0   0.9030   age067_m22            0.0000     3.3342E+03    44.2137   4.0000    97.0991
  6      1.5798     2.8548E-03    5.0764E-03    1.000000E+07  0.00010  6.375E-03    0   0.8902   age070_m22            0.0000     3.3089E+03    44.2532   4.0000    97.2794
  7      0.2514     5.9426E-04    1.0196E-03    1.445000E+07  0.00010  4.874E-03    0   0.8589   age078_m22            0.0000     2.7327E+03    40.3343   4.0000   100.7283
  8      0.0000     0.0000E+00    0.0000E+00    2.512000E+07  0.00010  4.103E-03    0   0.8174   age090_m22            0.0000     1.7216E+03    31.3531   4.0000   106.9488
  9      0.0000     0.0000E+00    0.0000E+00    4.000000E+07  0.00010  3.654E-03    0   0.7830   age104_m22            0.0000     1.2394E+03    24.5231   4.0000   110.0797
 10      0.0000     0.0000E+00    0.0000E+00    5.500000E+07  0.00010  3.093E-03    0   0.7597   age110_m22            0.0000     1.1094E+03    22.3078   4.0000   110.5743
 11      0.0000     0.0000E+00    0.0000E+00    1.015200E+08  0.00010  2.431E-03    0   0.7138   age116_m22            0.0000     8.8615E+02    16.4351   4.0000   109.8657
 12      0.0000     0.0000E+00    0.0000E+00    1.609000E+08  0.00010  1.319E-03    0   0.6775   age120_m22            0.0000     6.9269E+02    10.5811   4.0000   105.7892
 13      0.0000     0.0000E+00    0.0000E+00    2.861200E+08  0.00010  1.075E-03    0   0.6412   age125_m22            0.0000     1.0459E+03    13.8031   4.0000   108.5327
 14      0.0000     0.0000E+00    0.0000E+00    5.088000E+08  0.00010  7.183E-04    0   0.6083   age130_m22            0.0000     1.1405E+03    13.2745   3.9416   106.9905
 15      0.0000     0.0000E+00    0.0000E+00    9.047900E+08  0.00010  4.524E-04    0   0.5785   age135_m22            0.0000     1.1338E+03    13.3317   3.7310   108.2787
 16      0.0000     0.0000E+00    0.0000E+00    1.278050E+09  0.00010  3.018E-04    0   0.5588   age138_m22            0.0000     7.5279E+02    11.0658   3.2107   107.0081
 17      0.0000     0.0000E+00    0.0000E+00    1.434000E+09  0.00010  2.691E-04    0   0.5532   age139_m22            0.0000     6.8025E+02    10.6289   3.0576   106.4755
 18      0.0000     0.0000E+00    0.0000E+00    2.500000E+09  0.00010  1.582E-04    0   0.5296   age150_m22            0.0000     6.4580E+02    10.6442   2.9681   107.4769
 19      0.0000     0.0000E+00    0.0000E+00    4.250000E+09  0.00010  1.007E-04    0   0.5110   age158_m22            0.0000     5.0525E+02     9.9709   2.8338   106.0728
 20      0.0000     0.0000E+00    0.0000E+00    6.250000E+09  0.00010  6.869E-05    0   0.4985   age166_m22            0.0000     3.9618E+02     9.5505   2.7982   103.4656
 21      0.0000     0.0000E+00    0.0000E+00    7.500000E+09  0.00010  5.873E-05    0   0.4931   age171_m22            0.0000     3.8684E+02     9.7301   2.7982   102.9885
 22      0.0000     0.0000E+00    0.0000E+00    1.000000E+10  0.00010  4.481E-05    0   0.4854   age181_m22            0.0000     3.7781E+02     9.6019   2.7561   102.6278
 23      0.0000     0.0000E+00    0.0000E+00    1.300000E+10  0.00010  3.489E-05    0   0.4791   age193_m22            0.0000     3.5786E+02     9.3745   2.6954   102.0822
 24      0.0000     0.0000E+00    0.0000E+00    1.500000E+10  0.00010  3.035E-05    0   0.4766   age201_m22            0.0000     3.4509E+02     9.2609   2.6548   101.9487
 25      0.0000     0.0000E+00    0.0000E+00    1.800000E+10  0.00010  2.510E-05    0   0.4735   age213_m22            0.0000     3.1908E+02     9.0571   2.5862   101.4106
 26      1.5592     2.1236E-03    4.2421E-03    1.000000E+06  0.00040  8.458E-03    0   1.0000   age020_m32            0.0000     3.4693E+03    45.2863   4.0000    94.4728
 27      0.0000     0.0000E+00    0.0000E+00    3.160000E+06  0.00040  3.973E-02    0   1.0000   age045_m32            0.0000     1.6016E+03    29.5347   4.0000   106.6683
 28      0.0000     0.0000E+00    0.0000E+00    5.010000E+06  0.00040  1.935E-02    0   0.9532   age055_m32            0.0000     2.3252E+03    35.7681   4.0000   100.7240
 29      1.6344     1.5638E-03    2.8873E-03    6.610000E+06  0.00040  1.204E-02    0   0.9243   age061_m32            0.0000     2.9766E+03    41.6119   4.0000    99.0485
 30      0.0000     0.0000E+00    0.0000E+00    8.710000E+06  0.00040  9.433E-03    0   0.9001   age067_m32            0.0000     2.8397E+03    40.8002   4.0000   100.1247
 31      0.0000     0.0000E+00    0.0000E+00    1.000000E+07  0.00040  8.053E-03    0   0.8877   age070_m32            0.0000     2.7390E+03    40.0449   4.0000   100.6338
 32      0.0104     1.7042E-05    2.9201E-05    1.445000E+07  0.00040  7.027E-03    0   0.8578   age078_m32            0.0000     1.6417E+03    29.3057   4.0000   104.9162
 33      0.0000     0.0000E+00    0.0000E+00    2.512000E+07  0.00040  4.707E-03    0   0.8166   age090_m32            0.0000     1.1431E+03    22.6520   4.0000   106.9074
 34      0.0000     0.0000E+00    0.0000E+00    4.000000E+07  0.00040  3.714E-03    0   0.7827   age104_m32            0.0000     9.0777E+02    18.0097   4.0000   108.3123
 35      0.0000     0.0000E+00    0.0000E+00    5.500000E+07  0.00040  2.982E-03    0   0.7593   age110_m32            0.0000     8.6809E+02    16.8045   4.0000   108.6400
 36      0.0000     0.0000E+00    0.0000E+00    1.015200E+08  0.00040  2.188E-03    0   0.7143   age116_m32            0.0000     8.5043E+02    13.8783   4.0000   108.9108
 37      0.0000     0.0000E+00    0.0000E+00    1.609000E+08  0.00040  1.690E-03    0   0.6856   age120_m32            0.0000     9.3121E+02    12.8037   4.0000   108.1701
 38      0.0000     0.0000E+00    0.0000E+00    2.861200E+08  0.00040  1.152E-03    0   0.6509   age125_m32            0.0000     1.0502E+03    12.7350   3.9438   106.5813
 39      0.0000     0.0000E+00    0.0000E+00    5.088000E+08  0.00040  7.331E-04    0   0.6182   age130_m32            0.0000     1.0829E+03    13.0338   3.7561   107.2414
 40      0.0000     0.0000E+00    0.0000E+00    9.047900E+08  0.00040  3.960E-04    0   0.5890   age135_m32            0.0000     7.6618E+02    11.2180   3.2897   106.1554
 41      0.0000     0.0000E+00    0.0000E+00    1.278050E+09  0.00040  2.854E-04    0   0.5687   age138_m32            0.0000     6.7880E+02    10.7427   3.0207   108.5874
 42      0.0000     0.0000E+00    0.0000E+00    1.434000E+09  0.00040  2.531E-04    0   0.5632   age139_m32            0.0000     6.6662E+02    10.6799   2.9608   108.5454
 43      0.0000     0.0000E+00    0.0000E+00    2.500000E+09  0.00040  1.488E-04    0   0.5386   age150_m32            0.0000     5.4922E+02     9.9617   2.7087   106.7179
 44      0.0000     0.0000E+00    0.0000E+00    4.250000E+09  0.00040  9.082E-05    0   0.5199   age158_m32            0.0000     3.6639E+02     8.9517   2.6393   103.6236
 45      0.0000     0.0000E+00    0.0000E+00    6.250000E+09  0.00040  6.362E-05    0   0.5076   age166_m32            0.0000     2.7005E+02     8.7728   2.6319   100.6245
 46      0.0000     0.0000E+00    0.0000E+00    7.500000E+09  0.00040  5.289E-05    0   0.5027   age171_m32            0.0000     2.4848E+02     8.5754   2.5963    99.3305
 47      0.0000     0.0000E+00    0.0000E+00    1.000000E+10  0.00040  3.972E-05    0   0.4948   age181_m32            0.0000     2.2915E+02     8.2417   2.5278    97.8588
 48      0.0000     0.0000E+00    0.0000E+00    1.300000E+10  0.00040  3.283E-05    0   0.4870   age193_m32            0.0000     2.6328E+02     8.1016   2.4620   100.5736
 49      0.0000     0.0000E+00    0.0000E+00    1.500000E+10  0.00040  2.925E-05    0   0.4854   age201_m32            0.0000     2.9057E+02     8.1635   2.4301   102.1928
 50      0.0000     0.0000E+00    0.0000E+00    1.800000E+10  0.00040  2.469E-05    0   0.4819   age213_m32            0.0000     2.9699E+02     8.1059   2.3821   102.7157
 51      1.6045     1.6593E-03    3.3145E-03    1.000000E+06  0.00400  1.114E-02    0   1.0000   age020_m42            0.0000     3.2811E+03    43.9108   4.0000    95.0617
 52      0.8148     2.3046E-04    4.6031E-04    3.160000E+06  0.00400  4.073E-02    0   0.9999   age045_m42            0.0000     1.0702E+03    22.9163   4.0000   107.1688
 53      0.0000     0.0000E+00    0.0000E+00    5.010000E+06  0.00400  2.534E-02    0   0.9488   age055_m42            0.0000     1.8724E+03    32.2836   4.0000   103.0452
 54      0.7061     3.1492E-04    5.8000E-04    6.610000E+06  0.00400  2.583E-02    0   0.9220   age061_m42            0.0000     8.9210E+02    19.0559   4.0000   106.4148
 55      0.5214     3.5212E-04    6.3183E-04    8.710000E+06  0.00400  1.706E-02    0   0.8983   age067_m42            0.0000     7.8936E+02    16.1637   4.0000   103.3628
 56      0.6996     6.3411E-04    1.1225E-03    1.000000E+07  0.00400  1.271E-02    0   0.8862   age070_m42            0.0000     8.4788E+02    16.4774   4.0000   102.0058
 57      0.0000     0.0000E+00    0.0000E+00    1.445000E+07  0.00400  7.666E-03    0   0.8571   age078_m42            0.0000     1.3838E+03    25.2740   4.0000   101.6429
 58      0.0000     0.0000E+00    0.0000E+00    2.512000E+07  0.00400  5.070E-03    0   0.8174   age090_m42            0.0000     6.9154E+02    13.5553   4.0000   102.2915
 59      0.0000     0.0000E+00    0.0000E+00    4.000000E+07  0.00400  3.505E-03    0   0.7851   age104_m42            0.0000     4.4128E+02    10.3067   4.0000   101.0191
 60      0.0000     0.0000E+00    0.0000E+00    5.500000E+07  0.00400  3.059E-03    0   0.7629   age110_m42            0.0000     5.4088E+02     9.4442   4.0000   104.8893
 61      0.0000     0.0000E+00    0.0000E+00    1.015200E+08  0.00400  2.268E-03    0   0.7207   age116_m42            0.0000     8.0265E+02    11.3447   4.0000   107.5438
 62      0.0000     0.0000E+00    0.0000E+00    1.609000E+08  0.00400  1.720E-03    0   0.6930   age120_m42            0.0000     8.3077E+02    11.3835   3.9246   107.9245
 63      0.0000     0.0000E+00    0.0000E+00    2.861200E+08  0.00400  1.079E-03    0   0.6613   age125_m42            0.0000     8.1410E+02    11.1578   3.5469   108.3561
 64      0.0000     0.0000E+00    0.0000E+00    5.088000E+08  0.00400  6.261E-04    0   0.6313   age130_m42            0.0000     8.6485E+02    11.5467   3.3459   111.5611
 65      0.0000     0.0000E+00    0.0000E+00    9.047900E+08  0.00400  3.535E-04    0   0.6024   age135_m42            0.0000     6.0689E+02     9.8802   2.9408   112.1790
 66      0.0000     0.0000E+00    0.0000E+00    1.278050E+09  0.00400  2.677E-04    0   0.5837   age138_m42            0.0000     2.5488E+02     7.7751   2.2003   109.1416
 67      0.0000     0.0000E+00    0.0000E+00    1.434000E+09  0.00400  1.910E-04    0   0.5716   age139_m42            0.0000     3.3856E+02     8.2073   2.3807   110.1218
 68      0.0021     2.4685E-04    2.6937E-04    2.500000E+09  0.00400  9.818E-05    0   0.5463   age150_m42            0.0000     1.4999E+02     6.0938   2.1272   104.8985
 69      0.0000     0.0000E+00    0.0000E+00    4.250000E+09  0.00400  5.491E-05    0   0.5269   age158_m42            0.0000     8.8083E+01     4.9242   2.0199   101.9510
 70      0.0000     0.0000E+00    0.0000E+00    6.250000E+09  0.00400  3.857E-05    0   0.5151   age166_m42            0.0000     6.3214E+01     4.7738   1.8773   100.5533
 71      0.0000     0.0000E+00    0.0000E+00    7.500000E+09  0.00400  3.243E-05    0   0.5110   age171_m42            0.0000     5.5472E+01     4.9207   1.7869    99.9129
 72      0.7163     3.4044E-01    3.4193E-01    1.000000E+10  0.00400  2.424E-05    0   0.5028   age181_m42            0.0000     4.9181E+01     5.1123   1.6955    99.1661
 73      0.5927     3.6259E-01    3.5685E-01    1.300000E+10  0.00400  1.883E-05    0   0.4927   age193_m42            0.0000     4.5626E+01     5.2290   1.6517    98.7540
 74      0.5419     3.7052E-01    3.6407E-01    1.500000E+10  0.00400  1.685E-05    0   0.4919   age201_m42            0.0000     4.5156E+01     5.1304   1.6594    98.7846
 75      0.0000     0.0000E+00    0.0000E+00    1.800000E+10  0.00400  1.452E-05    0   0.4874   age213_m42            0.0000     4.4663E+01     4.9777   1.6805    99.0661
 76      1.3735     1.2304E-03    2.4577E-03    1.000000E+06  0.00800  1.286E-02    0   1.0000   age020_m52            0.0000     3.1282E+03    43.1517   4.0000    97.0292
 77      0.0000     0.0000E+00    0.0000E+00    3.160000E+06  0.00800  3.147E-02    0   0.9966   age045_m52            0.0000     2.9597E+03    41.6315   4.0000    98.7607
 78      0.0000     0.0000E+00    0.0000E+00    5.010000E+06  0.00800  2.664E-02    0   0.9443   age055_m52            0.0000     2.1500E+03    34.8435   4.0000   102.4323
 79      0.0000     0.0000E+00    0.0000E+00    6.610000E+06  0.00800  2.151E-02    0   0.9177   age061_m52            0.0000     4.3727E+02    10.9739   4.0000    99.2789
 80      0.0000     0.0000E+00    0.0000E+00    8.710000E+06  0.00800  1.628E-02    0   0.8948   age067_m52            0.0000     7.6766E+02    15.4813   4.0000   103.5408
 81      0.0000     0.0000E+00    0.0000E+00    1.000000E+07  0.00800  1.215E-02    0   0.8827   age070_m52            0.0000     1.1895E+03    23.0650   4.0000   104.5188
 82      0.0000     0.0000E+00    0.0000E+00    1.445000E+07  0.00800  8.739E-03    0   0.8552   age078_m52            0.0000     1.2042E+03    23.4969   4.0000   106.2093
 83      0.0000     0.0000E+00    0.0000E+00    2.512000E+07  0.00800  5.676E-03    0   0.8162   age090_m52            0.0000     7.9202E+02    15.0011   4.0000   107.1583
 84      0.0000     0.0000E+00    0.0000E+00    4.000000E+07  0.00800  3.939E-03    0   0.7841   age104_m52            0.0000     6.9772E+02    11.9439   4.0000   107.1449
 85      0.0000     0.0000E+00    0.0000E+00    5.500000E+07  0.00800  3.155E-03    0   0.7627   age110_m52            0.0000     7.1214E+02    11.7475   4.0000   108.0879
 86      0.0000     0.0000E+00    0.0000E+00    1.015200E+08  0.00800  2.206E-03    0   0.7226   age116_m52            0.0000     7.3410E+02    10.8756   4.0000   108.7882
 87      0.0000     0.0000E+00    0.0000E+00    1.609000E+08  0.00800  1.596E-03    0   0.6963   age120_m52            0.0000     7.6292E+02    10.9515   3.9164   108.2120
 88      0.0000     0.0000E+00    0.0000E+00    2.861200E+08  0.00800  1.002E-03    0   0.6665   age125_m52            0.0000     8.9610E+02    12.0139   3.5565   110.6841
 89      0.0000     0.0000E+00    0.0000E+00    5.088000E+08  0.00800  5.759E-04    0   0.6377   age130_m52            0.0000     8.7946E+02    12.6338   3.1610   114.8515
 90      0.0000     0.0000E+00    0.0000E+00    9.047900E+08  0.00800  2.972E-04    0   0.6086   age135_m52            0.0000     5.5315E+02    10.9757   2.6031   113.0869
 91      0.0000     0.0000E+00    0.0000E+00    1.278050E+09  0.00800  2.242E-04    0   0.5907   age138_m52            0.0000     2.2992E+02     8.3222   2.0007   111.3383
 92      0.0000     0.0000E+00    0.0000E+00    1.434000E+09  0.00800  1.645E-04    0   0.5787   age139_m52            0.0000     2.3117E+02     7.7259   2.1706   110.8164
 93      0.0000     0.0000E+00    0.0000E+00    2.500000E+09  0.00800  7.723E-05    0   0.5519   age150_m52            0.0000     1.0453E+02     6.1634   1.8440   106.8583
 94      0.0000     0.0000E+00    0.0000E+00    4.250000E+09  0.00800  4.151E-05    0   0.5320   age158_m52            0.0000     7.5295E+01     5.5043   1.7813   104.3510
 95      1.0909     4.1752E-01    4.3343E-01    6.250000E+09  0.00800  3.010E-05    0   0.5197   age166_m52            0.0000     5.6023E+01     5.6252   1.5699   102.7600
 96      0.9297     4.3413E-01    4.4564E-01    7.500000E+09  0.00800  2.467E-05    0   0.5139   age171_m52            0.0000     5.5036E+01     5.8133   1.5219   102.3047
 97      8.1574     5.0470E+00    5.0952E+00    1.000000E+10  0.00800  1.862E-05    0   0.5054   age181_m52            0.0000     5.9094E+01     6.6235   1.3689   101.7892
