###################################################################
## OUTPUT of StarlightChains_v04.for    [Cid@UFSC - 01/Apr/2007] ##
###################################################################

## Some input info
NGC6638_a_1.cxt                          [arq_obs]
Base.BC03.S                              [arq_base]
NGC6638_a_1.msk                          [arq_masks]
StCv04.C11.config                        [arq_config]
  150                                    [N_base]
    0                                    [N_YAV_components = # of components with extra extinction!]
    0                                    [i_FitPowerLaw (1/0 = Yes/No)]
-9.99                                    [alpha_PowerLaw]
CCM                                      [red_law_option]
 1.458241                                [q_norm = A(l_norm)/A(V)]

## (Re)Sampling Parameters
 3359.00                                 [l_ini (A)]
 6428.00                                 [l_fin (A)]
    1.00                                 [dl    (A)]     (OBS: dl_cushion =    50.00 A)

## Normalization info
 4020.00                                 [l_norm (A) - for base]
 4010.00                                 [llow_norm (A) - window for f_obs]
 4060.00                                 [lupp_norm (A) - window for f_obs]
7.127479E-15                             [fobs_norm (in input units)]

## S/N
 4730.00                                 [llow_SN (A) - window for S/N]
 4780.00                                 [lupp_SN (A) - window for S/N]
  53.764                                 [S/N in S/N window]
  34.599                                 [S/N in norm. window]
  41.866                                 [S/N_err in S/N window]
  26.942                                 [S/N_err in norm. window]
  1.0000                                 [fscale_chi2]

## etc...
  2147483593                             [idum_orig]
  3067                                   [NOl_eff]
  1570                                   [Nl_eff]
  1497    NSIGMA                         [Ntot_cliped & clip_method]
  1724940                                [Nglobal_steps]
   7                                     [N_chains]
  24                                     [NEX0s_base = N_base in EX0s-fits]
 0   0   1      211   2.0   5.860E+02    [Clip-Bug, RC-Crash & Burn-In warning-flags, n_censored_weights, wei_nsig_threshold & wei_limit]
    67     67.297     67.285      0.012  [idt_all, wdt_TotTime, wdt_UsrTime & wdt_SysTime (sec)]

## Synthesis Results - Best model ##

 2.20064E+00                             [chi2/Nl_eff]
     2.06284                             [adev (%)]

    99.80900                             [sum-of-x (%)]
 4.62975E-14                             [Flux_tot (units of input spectrum!)]
 1.60201E-09                             [Mini_tot (???)]
 8.06887E-10                             [Mcor_tot (???)]

   7.31                                  [v0_min  (km/s)]
  57.52                                  [vd_min  (km/s)]
 1.3946                                  [AV_min  (mag)]
 0.0000                                  [YAV_min (mag)]

# j     x_j(%)      Mini_j(%)     Mcor_j(%)     age_j(yr)     Z_j      (L/M)_j    YAV?  Mstars   component_j        a/Fe...       SSP_chi2r SSP_adev(%)   SSP_AV   SSP_x(%)
  1      0.0000     0.0000E+00    0.0000E+00    1.000000E+06  0.00010  8.160E-03    0   1.0000   age020_m22            0.0000     1.1212E+03    32.8086   4.0000    78.3589
  2     24.5155     1.4916E-02    2.9614E-02    3.160000E+06  0.00010  4.759E-02    0   1.0000   age045_m22            0.0000     1.1743E+02     5.5785   3.1426    95.9845
  3      0.0000     0.0000E+00    0.0000E+00    5.010000E+06  0.00010  1.932E-02    0   0.9582   age055_m22            0.0000     2.4294E+02    11.9691   3.5825    82.8188
  4      0.0000     0.0000E+00    0.0000E+00    6.610000E+06  0.00010  9.973E-03    0   0.9297   age061_m22            0.0000     1.0340E+03    32.4262   4.0000    80.6774
  5      0.0000     0.0000E+00    0.0000E+00    8.710000E+06  0.00010  7.690E-03    0   0.9030   age067_m22            0.0000     9.9548E+02    32.0809   4.0000    81.1861
  6      0.0000     0.0000E+00    0.0000E+00    1.000000E+07  0.00010  6.375E-03    0   0.8902   age070_m22            0.0000     9.7946E+02    32.2328   4.0000    81.3952
  7      0.0000     0.0000E+00    0.0000E+00    1.445000E+07  0.00010  4.874E-03    0   0.8589   age078_m22            0.0000     7.0416E+02    27.3527   4.0000    84.7661
  8      0.0000     0.0000E+00    0.0000E+00    2.512000E+07  0.00010  4.103E-03    0   0.8174   age090_m22            0.0000     3.0086E+02    16.3678   4.0000    91.0427
  9      3.2539     2.5784E-02    4.0084E-02    4.000000E+07  0.00010  3.654E-03    0   0.7830   age104_m22            0.0000     2.4659E+02     8.9946   4.0000    94.4580
 10      0.1469     1.3749E-03    2.0738E-03    5.500000E+07  0.00010  3.093E-03    0   0.7597   age110_m22            0.0000     2.6823E+02     6.9637   4.0000    95.4777
 11      0.0000     0.0000E+00    0.0000E+00    1.015200E+08  0.00010  2.431E-03    0   0.7138   age116_m22            0.0000     3.6413E+02     6.8759   3.6890    97.8005
 12      0.0000     0.0000E+00    0.0000E+00    1.609000E+08  0.00010  1.319E-03    0   0.6775   age120_m22            0.0000     3.6879E+02     7.3600   3.1657   100.3391
 13      0.0000     0.0000E+00    0.0000E+00    2.861200E+08  0.00010  1.075E-03    0   0.6412   age125_m22            0.0000     7.5891E+02    11.9219   3.0864   104.6189
 14      0.0000     0.0000E+00    0.0000E+00    5.088000E+08  0.00010  7.183E-04    0   0.6083   age130_m22            0.0000     8.8724E+02    13.8563   2.7776   106.9855
 15      0.0000     0.0000E+00    0.0000E+00    9.047900E+08  0.00010  4.524E-04    0   0.5785   age135_m22            0.0000     8.9611E+02    14.3796   2.5529   108.4010
 16      0.0000     0.0000E+00    0.0000E+00    1.278050E+09  0.00010  3.018E-04    0   0.5588   age138_m22            0.0000     5.0807E+02    11.1834   2.1080   106.1485
 17      0.0000     0.0000E+00    0.0000E+00    1.434000E+09  0.00010  2.691E-04    0   0.5532   age139_m22            0.0000     4.3692E+02    10.5800   1.9637   105.5900
 18      0.0000     0.0000E+00    0.0000E+00    2.500000E+09  0.00010  1.582E-04    0   0.5296   age150_m22            0.0000     3.9863E+02     9.8687   1.8846   105.9289
 19      0.0000     0.0000E+00    0.0000E+00    4.250000E+09  0.00010  1.007E-04    0   0.5110   age158_m22            0.0000     2.6142E+02     7.8672   1.7833   104.1885
 20      0.0000     0.0000E+00    0.0000E+00    6.250000E+09  0.00010  6.869E-05    0   0.4985   age166_m22            0.0000     1.5330E+02     5.8867   1.7754   101.4945
 21      0.0000     0.0000E+00    0.0000E+00    7.500000E+09  0.00010  5.873E-05    0   0.4931   age171_m22            0.0000     1.4036E+02     5.6584   1.7791   100.8420
 22      0.0000     0.0000E+00    0.0000E+00    1.000000E+10  0.00010  4.481E-05    0   0.4854   age181_m22            0.0000     1.3526E+02     5.5957   1.7398   100.5095
 23      0.0000     0.0000E+00    0.0000E+00    1.300000E+10  0.00010  3.489E-05    0   0.4791   age193_m22            0.0000     1.2398E+02     5.4142   1.6828   100.0452
 24      0.0000     0.0000E+00    0.0000E+00    1.500000E+10  0.00010  3.035E-05    0   0.4766   age201_m22            0.0000     1.1735E+02     5.2873   1.6461    99.8830
 25      0.3535     4.0778E-01    3.8336E-01    1.800000E+10  0.00010  2.510E-05    0   0.4735   age213_m22            0.0000     1.0172E+02     5.0006   1.5845    99.3278
 26      0.0000     0.0000E+00    0.0000E+00    1.000000E+06  0.00040  8.458E-03    0   1.0000   age020_m32            0.0000     1.1126E+03    33.2160   4.0000    78.8632
 27      0.0000     0.0000E+00    0.0000E+00    3.160000E+06  0.00040  3.973E-02    0   1.0000   age045_m32            0.0000     2.6963E+02    13.8797   4.0000    90.8816
 28      0.0000     0.0000E+00    0.0000E+00    5.010000E+06  0.00040  1.935E-02    0   0.9532   age055_m32            0.0000     5.3523E+02    21.2185   4.0000    84.9095
 29      0.0000     0.0000E+00    0.0000E+00    6.610000E+06  0.00040  1.204E-02    0   0.9243   age061_m32            0.0000     8.2461E+02    28.7825   4.0000    83.0064
 30      0.0000     0.0000E+00    0.0000E+00    8.710000E+06  0.00040  9.433E-03    0   0.9001   age067_m32            0.0000     7.5647E+02    27.8539   4.0000    84.0265
 31      0.0000     0.0000E+00    0.0000E+00    1.000000E+07  0.00040  8.053E-03    0   0.8877   age070_m32            0.0000     7.1033E+02    26.8981   4.0000    84.5565
 32      0.0000     0.0000E+00    0.0000E+00    1.445000E+07  0.00040  7.027E-03    0   0.8578   age078_m32            0.0000     2.7685E+02    13.2820   4.0000    89.3001
 33      0.0000     0.0000E+00    0.0000E+00    2.512000E+07  0.00040  4.707E-03    0   0.8166   age090_m32            0.0000     1.7056E+02     7.4118   4.0000    92.0305
 34      0.0000     0.0000E+00    0.0000E+00    4.000000E+07  0.00040  3.714E-03    0   0.7827   age104_m32            0.0000     2.1399E+02     6.5103   3.8625    94.6388
 35      0.0000     0.0000E+00    0.0000E+00    5.500000E+07  0.00040  2.982E-03    0   0.7593   age110_m32            0.0000     2.5113E+02     6.4914   3.7753    95.8096
 36      0.0000     0.0000E+00    0.0000E+00    1.015200E+08  0.00040  2.188E-03    0   0.7143   age116_m32            0.0000     4.7244E+02     8.1747   3.4021   100.3821
 37      0.0000     0.0000E+00    0.0000E+00    1.609000E+08  0.00040  1.690E-03    0   0.6856   age120_m32            0.0000     6.4791E+02    10.2667   3.1330   103.1961
 38      0.0000     0.0000E+00    0.0000E+00    2.861200E+08  0.00040  1.152E-03    0   0.6509   age125_m32            0.0000     7.8982E+02    12.7266   2.8078   105.9313
 39      0.0000     0.0000E+00    0.0000E+00    5.088000E+08  0.00040  7.331E-04    0   0.6182   age130_m32            0.0000     8.3898E+02    13.6807   2.5972   107.1805
 40      0.0000     0.0000E+00    0.0000E+00    9.047900E+08  0.00040  3.960E-04    0   0.5890   age135_m32            0.0000     5.1695E+02    11.6267   2.1655   106.0054
 41      0.0000     0.0000E+00    0.0000E+00    1.278050E+09  0.00040  2.854E-04    0   0.5687   age138_m32            0.0000     4.4718E+02    10.5393   1.9276   107.0653
 42      0.0000     0.0000E+00    0.0000E+00    1.434000E+09  0.00040  2.531E-04    0   0.5632   age139_m32            0.0000     4.3647E+02    10.4399   1.8714   106.9637
 43      0.0000     0.0000E+00    0.0000E+00    2.500000E+09  0.00040  1.488E-04    0   0.5386   age150_m32            0.0000     3.2526E+02     9.2893   1.6393   105.2126
 44      0.0000     0.0000E+00    0.0000E+00    4.250000E+09  0.00040  9.082E-05    0   0.5199   age158_m32            0.0000     1.4777E+02     6.1234   1.6147   101.9490
 45      3.9641     1.8041E+00    1.8182E+00    6.250000E+09  0.00040  6.362E-05    0   0.5076   age166_m32            0.0000     6.3740E+01     4.3083   1.6407    98.6178
 46      8.8885     4.8660E+00    4.8566E+00    7.500000E+09  0.00040  5.289E-05    0   0.5027   age171_m32            0.0000     5.0582E+01     4.0361   1.6091    97.5114
 47      0.7862     5.7310E-01    5.6301E-01    1.000000E+10  0.00040  3.972E-05    0   0.4948   age181_m32            0.0000     4.1327E+01     3.8006   1.5434    96.3706
 48      0.0045     4.0114E-03    3.8786E-03    1.300000E+10  0.00040  3.283E-05    0   0.4870   age193_m32            0.0000     7.1557E+01     4.3569   1.4648    99.0390
 49      0.0000     0.0000E+00    0.0000E+00    1.500000E+10  0.00040  2.925E-05    0   0.4854   age201_m32            0.0000     9.8141E+01     5.0094   1.4265   100.5827
 50      0.0000     0.0000E+00    0.0000E+00    1.800000E+10  0.00040  2.469E-05    0   0.4819   age213_m32            0.0000     1.0928E+02     5.3248   1.3762   101.1177
 51      0.0000     0.0000E+00    0.0000E+00    1.000000E+06  0.00400  1.114E-02    0   1.0000   age020_m42            0.0000     1.0235E+03    31.4123   4.0000    79.5741
 52      0.0000     0.0000E+00    0.0000E+00    3.160000E+06  0.00400  4.073E-02    0   0.9999   age045_m42            0.0000     1.4298E+02     6.6036   4.0000    92.7459
 53      0.0000     0.0000E+00    0.0000E+00    5.010000E+06  0.00400  2.534E-02    0   0.9488   age055_m42            0.0000     3.6224E+02    16.8442   4.0000    87.6448
 54      4.7104     5.2803E-03    9.6659E-03    6.610000E+06  0.00400  2.583E-02    0   0.9220   age061_m42            0.0000     1.5951E+02     6.1057   3.9521    92.6535
 55      2.4422     4.1450E-03    7.3926E-03    8.710000E+06  0.00400  1.706E-02    0   0.8983   age067_m42            0.0000     1.4690E+02     7.6601   3.8205    90.5875
 56      0.0000     0.0000E+00    0.0000E+00    1.000000E+07  0.00400  1.271E-02    0   0.8862   age070_m42            0.0000     1.6719E+02     9.0268   3.8337    88.9623
 57      0.0000     0.0000E+00    0.0000E+00    1.445000E+07  0.00400  7.666E-03    0   0.8571   age078_m42            0.0000     2.2530E+02     9.2623   4.0000    87.2777
 58      0.0000     0.0000E+00    0.0000E+00    2.512000E+07  0.00400  5.070E-03    0   0.8174   age090_m42            0.0000     1.5068E+02     8.3021   3.6825    90.8217
 59      0.0000     0.0000E+00    0.0000E+00    4.000000E+07  0.00400  3.505E-03    0   0.7851   age104_m42            0.0000     1.2582E+02     6.4895   3.3185    94.1473
 60      0.0000     0.0000E+00    0.0000E+00    5.500000E+07  0.00400  3.059E-03    0   0.7629   age110_m42            0.0000     2.2661E+02     5.6119   3.2710    98.8153
 61      0.0000     0.0000E+00    0.0000E+00    1.015200E+08  0.00400  2.268E-03    0   0.7207   age116_m42            0.0000     5.6957E+02     9.4939   3.0458   104.3377
 62      0.0000     0.0000E+00    0.0000E+00    1.609000E+08  0.00400  1.720E-03    0   0.6930   age120_m42            0.0000     6.1106E+02    10.3630   2.8640   106.4581
 63      0.0000     0.0000E+00    0.0000E+00    2.861200E+08  0.00400  1.079E-03    0   0.6613   age125_m42            0.0000     6.0854E+02    11.3594   2.4693   107.0768
 64      0.0000     0.0000E+00    0.0000E+00    5.088000E+08  0.00400  6.261E-04    0   0.6313   age130_m42            0.0000     6.8282E+02    12.6053   2.2418   109.9708
 65      0.0000     0.0000E+00    0.0000E+00    9.047900E+08  0.00400  3.535E-04    0   0.6024   age135_m42            0.0000     4.3215E+02    10.7650   1.8736   110.2646
 66      0.0000     0.0000E+00    0.0000E+00    1.278050E+09  0.00400  2.677E-04    0   0.5837   age138_m42            0.0000     1.4947E+02     8.2066   1.1995   108.7961
 67      0.0000     0.0000E+00    0.0000E+00    1.434000E+09  0.00400  1.910E-04    0   0.5716   age139_m42            0.0000     2.0899E+02     8.6722   1.3601   109.5625
 68      0.0000     0.0000E+00    0.0000E+00    2.500000E+09  0.00400  9.818E-05    0   0.5463   age150_m42            0.0000     5.7555E+01     5.6564   1.1583   104.9516
 69      0.0000     0.0000E+00    0.0000E+00    4.250000E+09  0.00400  5.491E-05    0   0.5269   age158_m42            0.0000     2.8831E+01     4.4893   1.0744   102.0945
 70      0.0000     0.0000E+00    0.0000E+00    6.250000E+09  0.00400  3.857E-05    0   0.5151   age166_m42            0.0000     3.2780E+01     4.7914   0.9496   100.9766
 71      0.0000     0.0000E+00    0.0000E+00    7.500000E+09  0.00400  3.243E-05    0   0.5110   age171_m42            0.0000     4.1366E+01     5.1986   0.8669   100.5586
 72      0.0000     0.0000E+00    0.0000E+00    1.000000E+10  0.00400  2.424E-05    0   0.5028   age181_m42            0.0000     5.9124E+01     5.7095   0.7837   100.0570
 73      0.0000     0.0000E+00    0.0000E+00    1.300000E+10  0.00400  1.883E-05    0   0.4927   age193_m42            0.0000     7.8591E+01     6.0045   0.7458    99.7848
 74      0.0000     0.0000E+00    0.0000E+00    1.500000E+10  0.00400  1.685E-05    0   0.4919   age201_m42            0.0000     7.2582E+01     5.8553   0.7531    99.7699
 75      0.0000     0.0000E+00    0.0000E+00    1.800000E+10  0.00400  1.452E-05    0   0.4874   age213_m42            0.0000     6.2912E+01     5.6124   0.7718    99.9866
 76      0.0000     0.0000E+00    0.0000E+00    1.000000E+06  0.00800  1.286E-02    0   1.0000   age020_m52            0.0000     9.2843E+02    30.6245   4.0000    81.3831
 77      0.0000     0.0000E+00    0.0000E+00    3.160000E+06  0.00800  3.147E-02    0   0.9966   age045_m52            0.0000     8.3087E+02    28.6819   4.0000    82.9111
 78      0.0000     0.0000E+00    0.0000E+00    5.010000E+06  0.00800  2.664E-02    0   0.9443   age055_m52            0.0000     4.8183E+02    19.9304   4.0000    86.8330
 79      0.0000     0.0000E+00    0.0000E+00    6.610000E+06  0.00800  2.151E-02    0   0.9177   age061_m52            0.0000     1.1945E+02     7.6397   3.4043    91.3166
 80      0.0000     0.0000E+00    0.0000E+00    8.710000E+06  0.00800  1.628E-02    0   0.8948   age067_m52            0.0000     1.5316E+02     7.9476   3.7775    91.1322
 81      0.0000     0.0000E+00    0.0000E+00    1.000000E+07  0.00800  1.215E-02    0   0.8827   age070_m52            0.0000     1.8715E+02     8.0893   4.0000    89.8776
 82      0.0000     0.0000E+00    0.0000E+00    1.445000E+07  0.00800  8.739E-03    0   0.8552   age078_m52            0.0000     1.9113E+02     7.7037   4.0000    91.2332
 83      0.0000     0.0000E+00    0.0000E+00    2.512000E+07  0.00800  5.676E-03    0   0.8162   age090_m52            0.0000     2.1678E+02     6.9425   3.7102    94.7397
 84      0.0000     0.0000E+00    0.0000E+00    4.000000E+07  0.00800  3.939E-03    0   0.7841   age104_m52            0.0000     2.5629E+02     6.2959   3.4952    97.4009
 85      0.0000     0.0000E+00    0.0000E+00    5.500000E+07  0.00800  3.155E-03    0   0.7627   age110_m52            0.0000     3.1570E+02     6.3899   3.4176    99.4299
 86      0.0000     0.0000E+00    0.0000E+00    1.015200E+08  0.00800  2.206E-03    0   0.7226   age116_m52            0.0000     4.6093E+02     8.1256   3.1426   104.0191
 87      0.1649     2.9915E-03    4.1356E-03    1.609000E+08  0.00800  1.596E-03    0   0.6963   age120_m52            0.0000     5.2740E+02     9.3863   2.8795   106.0912
 88      0.0000     0.0000E+00    0.0000E+00    2.861200E+08  0.00800  1.002E-03    0   0.6665   age125_m52            0.0000     7.0970E+02    12.5383   2.4597   110.0312
 89      0.0000     0.0000E+00    0.0000E+00    5.088000E+08  0.00800  5.759E-04    0   0.6377   age130_m52            0.0000     7.2168E+02    13.9607   2.0258   115.2465
 90      0.0000     0.0000E+00    0.0000E+00    9.047900E+08  0.00800  2.972E-04    0   0.6086   age135_m52            0.0000     3.9042E+02    12.7160   1.4744   114.4930
 91      0.0000     0.0000E+00    0.0000E+00    1.278050E+09  0.00800  2.242E-04    0   0.5907   age138_m52            0.0000     1.4081E+02     9.1567   0.9677   112.7865
 92      0.0000     0.0000E+00    0.0000E+00    1.434000E+09  0.00800  1.645E-04    0   0.5787   age139_m52            0.0000     1.2611E+02     8.2496   1.1501   111.8449
 93      0.0000     0.0000E+00    0.0000E+00    2.500000E+09  0.00800  7.723E-05    0   0.5519   age150_m52            0.0000     6.2475E+01     6.5651   0.8692   108.0711
 94      0.0000     0.0000E+00    0.0000E+00    4.250000E+09  0.00800  4.151E-05    0   0.5320   age158_m52            0.0000     5.3586E+01     6.0627   0.8226   105.3136
 95      0.0000     0.0000E+00    0.0000E+00    6.250000E+09  0.00800  3.010E-05    0   0.5197   age166_m52            0.0000     7.9443E+01     6.7260   0.6230   104.2264
 96      6.4951     7.6232E+00    7.7780E+00    7.500000E+09  0.00800  2.467E-05    0   0.5139   age171_m52            0.0000     9.0300E+01     6.9920   0.5773   103.9152
 97     20.3435     3.1635E+01    3.1744E+01    1.000000E+10  0.00800  1.862E-05    0   0.5054   age181_m52            0.0000     1.2842E+02     7.9268   0.4262   103.8854
