###################################################################
## OUTPUT of StarlightChains_v04.for    [Cid@UFSC - 01/Apr/2007] ##
###################################################################

## Some input info
NGC6171_b_1.cxt                          [arq_obs]
Base.BC03.S                              [arq_base]
NGC6171_b_1.msk                          [arq_masks]
StCv04.C11.config                        [arq_config]
  150                                    [N_base]
    0                                    [N_YAV_components = # of components with extra extinction!]
    0                                    [i_FitPowerLaw (1/0 = Yes/No)]
-9.99                                    [alpha_PowerLaw]
CCM                                      [red_law_option]
 1.458241                                [q_norm = A(l_norm)/A(V)]

## (Re)Sampling Parameters
 3359.00                                 [l_ini (A)]
 6428.00                                 [l_fin (A)]
    1.00                                 [dl    (A)]     (OBS: dl_cushion =    50.00 A)

## Normalization info
 4020.00                                 [l_norm (A) - for base]
 4010.00                                 [llow_norm (A) - window for f_obs]
 4060.00                                 [lupp_norm (A) - window for f_obs]
4.350830E-15                             [fobs_norm (in input units)]

## S/N
 4730.00                                 [llow_SN (A) - window for S/N]
 4780.00                                 [lupp_SN (A) - window for S/N]
  48.767                                 [S/N in S/N window]
  32.704                                 [S/N in norm. window]
 245.356                                 [S/N_err in S/N window]
 164.540                                 [S/N_err in norm. window]
  1.0000                                 [fscale_chi2]

## etc...
  2147483626                             [idum_orig]
  3069                                   [NOl_eff]
   851                                   [Nl_eff]
  2218    NSIGMA                         [Ntot_cliped & clip_method]
  2296630                                [Nglobal_steps]
   7                                     [N_chains]
  28                                     [NEX0s_base = N_base in EX0s-fits]
 0   0   1      192   2.0   3.636E+02    [Clip-Bug, RC-Crash & Burn-In warning-flags, n_censored_weights, wei_nsig_threshold & wei_limit]
    87     87.134     87.130      0.004  [idt_all, wdt_TotTime, wdt_UsrTime & wdt_SysTime (sec)]

## Synthesis Results - Best model ##

 2.94787E+00                             [chi2/Nl_eff]
     1.15246                             [adev (%)]

    99.25977                             [sum-of-x (%)]
 2.47428E-14                             [Flux_tot (units of input spectrum!)]
 1.03382E-09                             [Mini_tot (???)]
 5.13855E-10                             [Mcor_tot (???)]

 -18.10                                  [v0_min  (km/s)]
  28.65                                  [vd_min  (km/s)]
 1.2997                                  [AV_min  (mag)]
 0.0000                                  [YAV_min (mag)]

# j     x_j(%)      Mini_j(%)     Mcor_j(%)     age_j(yr)     Z_j      (L/M)_j    YAV?  Mstars   component_j        a/Fe...       SSP_chi2r SSP_adev(%)   SSP_AV   SSP_x(%)
  1      2.4604     7.2702E-03    1.4627E-02    1.000000E+06  0.00010  8.160E-03    0   1.0000   age020_m22            0.0000     2.4438E+03    24.8823   4.0000   100.4890
  2      0.0000     0.0000E+00    0.0000E+00    3.160000E+06  0.00010  4.759E-02    0   1.0000   age045_m22            0.0000     1.6299E+02     4.8632   2.9467    98.7204
  3      7.0206     8.7620E-03    1.6891E-02    5.010000E+06  0.00010  1.932E-02    0   0.9582   age055_m22            0.0000     3.8855E+02    10.4838   3.1332    88.7054
  4      1.4864     3.5937E-03    6.7219E-03    6.610000E+06  0.00010  9.973E-03    0   0.9297   age061_m22            0.0000     2.2953E+03    24.0584   4.0000   103.0662
  5      0.0000     0.0000E+00    0.0000E+00    8.710000E+06  0.00010  7.690E-03    0   0.9030   age067_m22            0.0000     2.2424E+03    23.7342   4.0000   103.4051
  6      1.6652     6.2981E-03    1.1280E-02    1.000000E+07  0.00010  6.375E-03    0   0.8902   age070_m22            0.0000     2.2890E+03    23.8203   4.0000   103.8161
  7      0.0000     0.0000E+00    0.0000E+00    1.445000E+07  0.00010  4.874E-03    0   0.8589   age078_m22            0.0000     1.5005E+03    19.4641   4.0000   103.4587
  8      0.0000     0.0000E+00    0.0000E+00    2.512000E+07  0.00010  4.103E-03    0   0.8174   age090_m22            0.0000     4.8395E+02    10.5246   4.0000   100.7126
  9      0.0000     0.0000E+00    0.0000E+00    4.000000E+07  0.00010  3.654E-03    0   0.7830   age104_m22            0.0000     3.2828E+02     7.1893   4.0000    97.5018
 10      0.0000     0.0000E+00    0.0000E+00    5.500000E+07  0.00010  3.093E-03    0   0.7597   age110_m22            0.0000     3.4937E+02     7.5359   3.9616    97.2843
 11      0.0000     0.0000E+00    0.0000E+00    1.015200E+08  0.00010  2.431E-03    0   0.7138   age116_m22            0.0000     4.2532E+02     8.4300   3.6411    99.5336
 12      0.0000     0.0000E+00    0.0000E+00    1.609000E+08  0.00010  1.319E-03    0   0.6775   age120_m22            0.0000     4.1170E+02     8.0670   3.1675   101.8480
 13      0.0000     0.0000E+00    0.0000E+00    2.861200E+08  0.00010  1.075E-03    0   0.6412   age125_m22            0.0000     7.8180E+02    11.3437   3.2920   103.5675
 14      0.0000     0.0000E+00    0.0000E+00    5.088000E+08  0.00010  7.183E-04    0   0.6083   age130_m22            0.0000     9.0699E+02    12.3701   3.0747   104.9320
 15      0.0000     0.0000E+00    0.0000E+00    9.047900E+08  0.00010  4.524E-04    0   0.5785   age135_m22            0.0000     9.1791E+02    12.5445   2.8772   106.1022
 16      0.0000     0.0000E+00    0.0000E+00    1.278050E+09  0.00010  3.018E-04    0   0.5588   age138_m22            0.0000     5.3813E+02     9.5836   2.3112   105.4894
 17      0.0000     0.0000E+00    0.0000E+00    1.434000E+09  0.00010  2.691E-04    0   0.5532   age139_m22            0.0000     4.7042E+02     8.9604   2.1478   105.1894
 18      0.0000     0.0000E+00    0.0000E+00    2.500000E+09  0.00010  1.582E-04    0   0.5296   age150_m22            0.0000     4.2345E+02     8.6007   2.0221   106.2761
 19      0.0000     0.0000E+00    0.0000E+00    4.250000E+09  0.00010  1.007E-04    0   0.5110   age158_m22            0.0000     2.8922E+02     7.1615   1.8508   105.1389
 20      0.0000     0.0000E+00    0.0000E+00    6.250000E+09  0.00010  6.869E-05    0   0.4985   age166_m22            0.0000     1.8569E+02     5.6844   1.7686   103.0593
 21      0.0000     0.0000E+00    0.0000E+00    7.500000E+09  0.00010  5.873E-05    0   0.4931   age171_m22            0.0000     1.7170E+02     5.4915   1.7503   102.6917
 22      0.0000     0.0000E+00    0.0000E+00    1.000000E+10  0.00010  4.481E-05    0   0.4854   age181_m22            0.0000     1.6597E+02     5.4008   1.7116   102.3491
 23      0.0000     0.0000E+00    0.0000E+00    1.300000E+10  0.00010  3.489E-05    0   0.4791   age193_m22            0.0000     1.5378E+02     5.1826   1.6540   101.8349
 24      0.0000     0.0000E+00    0.0000E+00    1.500000E+10  0.00010  3.035E-05    0   0.4766   age201_m22            0.0000     1.4546E+02     5.0424   1.6142   101.6794
 25      0.0000     0.0000E+00    0.0000E+00    1.800000E+10  0.00010  2.510E-05    0   0.4735   age213_m22            0.0000     1.2707E+02     4.7030   1.5416   101.2062
 26      1.0370     2.9561E-03    5.9474E-03    1.000000E+06  0.00040  8.458E-03    0   1.0000   age020_m32            0.0000     2.5130E+03    25.0787   4.0000   101.5143
 27      0.0000     0.0000E+00    0.0000E+00    3.160000E+06  0.00040  3.973E-02    0   1.0000   age045_m32            0.0000     3.4579E+02     9.0157   4.0000    97.9192
 28      0.0000     0.0000E+00    0.0000E+00    5.010000E+06  0.00040  1.935E-02    0   0.9532   age055_m32            0.0000     7.4211E+02    14.5491   4.0000    97.5626
 29      0.0000     0.0000E+00    0.0000E+00    6.610000E+06  0.00040  1.204E-02    0   0.9243   age061_m32            0.0000     1.6728E+03    20.7802   4.0000   102.5394
 30      0.0000     0.0000E+00    0.0000E+00    8.710000E+06  0.00040  9.433E-03    0   0.9001   age067_m32            0.0000     1.5528E+03    19.9494   4.0000   102.9460
 31      0.0000     0.0000E+00    0.0000E+00    1.000000E+07  0.00040  8.053E-03    0   0.8877   age070_m32            0.0000     1.4184E+03    19.1269   4.0000   102.7030
 32      0.0000     0.0000E+00    0.0000E+00    1.445000E+07  0.00040  7.027E-03    0   0.8578   age078_m32            0.0000     3.3186E+02     9.2172   4.0000    95.5146
 33      0.0000     0.0000E+00    0.0000E+00    2.512000E+07  0.00040  4.707E-03    0   0.8166   age090_m32            0.0000     2.5952E+02     6.8646   3.8566    95.4335
 34      0.0000     0.0000E+00    0.0000E+00    4.000000E+07  0.00040  3.714E-03    0   0.7827   age104_m32            0.0000     2.9274E+02     6.8234   3.6938    97.7202
 35      0.0000     0.0000E+00    0.0000E+00    5.500000E+07  0.00040  2.982E-03    0   0.7593   age110_m32            0.0000     3.2458E+02     7.2047   3.6470    98.5045
 36      0.0000     0.0000E+00    0.0000E+00    1.015200E+08  0.00040  2.188E-03    0   0.7143   age116_m32            0.0000     5.2024E+02     9.2430   3.4391   101.1889
 37      0.0000     0.0000E+00    0.0000E+00    1.609000E+08  0.00040  1.690E-03    0   0.6856   age120_m32            0.0000     6.6230E+02    10.4468   3.2572   103.1545
 38      0.0000     0.0000E+00    0.0000E+00    2.861200E+08  0.00040  1.152E-03    0   0.6509   age125_m32            0.0000     8.0392E+02    11.6056   3.0499   104.5383
 39      0.0000     0.0000E+00    0.0000E+00    5.088000E+08  0.00040  7.331E-04    0   0.6182   age130_m32            0.0000     8.5919E+02    12.0864   2.8950   105.0730
 40      0.0000     0.0000E+00    0.0000E+00    9.047900E+08  0.00040  3.960E-04    0   0.5890   age135_m32            0.0000     5.6910E+02     9.9105   2.4081   104.6663
 41      0.0000     0.0000E+00    0.0000E+00    1.278050E+09  0.00040  2.854E-04    0   0.5687   age138_m32            0.0000     4.6941E+02     9.1311   2.0998   106.8965
 42      0.0000     0.0000E+00    0.0000E+00    1.434000E+09  0.00040  2.531E-04    0   0.5632   age139_m32            0.0000     4.5643E+02     9.0086   2.0363   106.9324
 43      0.0000     0.0000E+00    0.0000E+00    2.500000E+09  0.00040  1.488E-04    0   0.5386   age150_m32            0.0000     3.5336E+02     7.9687   1.7695   105.4027
 44      0.0000     0.0000E+00    0.0000E+00    4.250000E+09  0.00040  9.082E-05    0   0.5199   age158_m32            0.0000     1.7634E+02     5.5810   1.6365   103.1101
 45     12.3772     4.6910E+00    4.7906E+00    6.250000E+09  0.00040  6.362E-05    0   0.5076   age166_m32            0.0000     8.3450E+01     3.8021   1.5603   100.7379
 46     17.8158     8.1220E+00    8.2144E+00    7.500000E+09  0.00040  5.289E-05    0   0.5027   age171_m32            0.0000     6.9130E+01     3.4440   1.5188    99.6433
 47     18.8475     1.1441E+01    1.1390E+01    1.000000E+10  0.00040  3.972E-05    0   0.4948   age181_m32            0.0000     6.1184E+01     3.2162   1.4552    98.3633
 48      6.4441     4.7328E+00    4.6372E+00    1.300000E+10  0.00040  3.283E-05    0   0.4870   age193_m32            0.0000     9.1111E+01     3.9955   1.4301   100.6135
 49      1.0375     8.5525E-01    8.3521E-01    1.500000E+10  0.00040  2.925E-05    0   0.4854   age201_m32            0.0000     1.1720E+02     4.5952   1.4233   101.8952
 50      1.6043     1.5668E+00    1.5190E+00    1.800000E+10  0.00040  2.469E-05    0   0.4819   age213_m32            0.0000     1.2652E+02     4.8037   1.3872   102.3176
 51      0.0000     0.0000E+00    0.0000E+00    1.000000E+06  0.00400  1.114E-02    0   1.0000   age020_m42            0.0000     2.1650E+03    23.4594   4.0000   100.7928
 52      0.0000     0.0000E+00    0.0000E+00    3.160000E+06  0.00400  4.073E-02    0   0.9999   age045_m42            0.0000     1.9982E+02     5.9526   3.9068    94.9503
 53      0.0000     0.0000E+00    0.0000E+00    5.010000E+06  0.00400  2.534E-02    0   0.9488   age055_m42            0.0000     4.6034E+02    11.3982   4.0000    96.9490
 54      0.0000     0.0000E+00    0.0000E+00    6.610000E+06  0.00400  2.583E-02    0   0.9220   age061_m42            0.0000     2.2339E+02     6.1130   3.7392    95.5308
 55      0.0000     0.0000E+00    0.0000E+00    8.710000E+06  0.00400  1.706E-02    0   0.8983   age067_m42            0.0000     2.1235E+02     6.6868   3.5300    94.8039
 56      0.0000     0.0000E+00    0.0000E+00    1.000000E+07  0.00400  1.271E-02    0   0.8862   age070_m42            0.0000     2.5588E+02     7.9866   3.4930    94.0557
 57      0.0000     0.0000E+00    0.0000E+00    1.445000E+07  0.00400  7.666E-03    0   0.8571   age078_m42            0.0000     2.9056E+02     9.1253   3.8670    91.4367
 58      0.0000     0.0000E+00    0.0000E+00    2.512000E+07  0.00400  5.070E-03    0   0.8174   age090_m42            0.0000     2.1411E+02     7.3415   3.3637    95.7987
 59      0.0000     0.0000E+00    0.0000E+00    4.000000E+07  0.00400  3.505E-03    0   0.7851   age104_m42            0.0000     1.4837E+02     5.7492   3.0700    98.2855
 60      0.0000     0.0000E+00    0.0000E+00    5.500000E+07  0.00400  3.059E-03    0   0.7629   age110_m42            0.0000     2.3936E+02     5.7860   3.1906   101.0108
 61      0.0000     0.0000E+00    0.0000E+00    1.015200E+08  0.00400  2.268E-03    0   0.7207   age116_m42            0.0000     5.7517E+02     9.6178   3.1716   104.0244
 62      0.0000     0.0000E+00    0.0000E+00    1.609000E+08  0.00400  1.720E-03    0   0.6930   age120_m42            0.0000     6.2588E+02    10.1406   3.0422   105.1893
 63      0.0000     0.0000E+00    0.0000E+00    2.861200E+08  0.00400  1.079E-03    0   0.6613   age125_m42            0.0000     6.1085E+02    10.1750   2.6858   105.8160
 64      0.0000     0.0000E+00    0.0000E+00    5.088000E+08  0.00400  6.261E-04    0   0.6313   age130_m42            0.0000     6.8052E+02    10.8629   2.4958   108.5760
 65      0.0000     0.0000E+00    0.0000E+00    9.047900E+08  0.00400  3.535E-04    0   0.6024   age135_m42            0.0000     4.5406E+02     9.0303   2.0783   109.4286
 66      0.0000     0.0000E+00    0.0000E+00    1.278050E+09  0.00400  2.677E-04    0   0.5837   age138_m42            0.0000     2.3310E+02     7.2490   1.3821   107.5373
 67      0.0000     0.0000E+00    0.0000E+00    1.434000E+09  0.00400  1.910E-04    0   0.5716   age139_m42            0.0000     2.7462E+02     7.4766   1.5557   108.1536
 68      0.0000     0.0000E+00    0.0000E+00    2.500000E+09  0.00400  9.818E-05    0   0.5463   age150_m42            0.0000     1.3558E+02     5.6395   1.2602   104.1294
 69      0.0000     0.0000E+00    0.0000E+00    4.250000E+09  0.00400  5.491E-05    0   0.5269   age158_m42            0.0000     9.8060E+01     4.8742   1.1185   101.9001
 70      0.0000     0.0000E+00    0.0000E+00    6.250000E+09  0.00400  3.857E-05    0   0.5151   age166_m42            0.0000     1.1840E+02     5.2149   0.9939   100.5712
 71      0.8276     6.1530E-01    6.3257E-01    7.500000E+09  0.00400  3.243E-05    0   0.5110   age171_m42            0.0000     1.4163E+02     5.5855   0.9180    99.9875
 72      1.9439     1.9337E+00    1.9561E+00    1.000000E+10  0.00400  2.424E-05    0   0.5028   age181_m42            0.0000     1.7767E+02     6.1058   0.8409    99.3373
 73      3.2556     4.1688E+00    4.1324E+00    1.300000E+10  0.00400  1.883E-05    0   0.4927   age193_m42            0.0000     2.0777E+02     6.4738   0.8006    99.0774
 74      2.4006     3.4351E+00    3.3996E+00    1.500000E+10  0.00400  1.685E-05    0   0.4919   age201_m42            0.0000     1.9856E+02     6.3220   0.8037    99.1301
 75      0.8569     1.4229E+00    1.3953E+00    1.800000E+10  0.00400  1.452E-05    0   0.4874   age213_m42            0.0000     1.8260E+02     6.0648   0.8167    99.4550
 76      0.0000     0.0000E+00    0.0000E+00    1.000000E+06  0.00800  1.286E-02    0   1.0000   age020_m52            0.0000     2.0452E+03    22.6233   4.0000   102.3073
 77      0.0000     0.0000E+00    0.0000E+00    3.160000E+06  0.00800  3.147E-02    0   0.9966   age045_m52            0.0000     1.7034E+03    20.9067   4.0000   102.4160
 78      0.0000     0.0000E+00    0.0000E+00    5.010000E+06  0.00800  2.664E-02    0   0.9443   age055_m52            0.0000     6.9770E+02    13.9398   4.0000    98.9149
 79      0.0000     0.0000E+00    0.0000E+00    6.610000E+06  0.00800  2.151E-02    0   0.9177   age061_m52            0.0000     1.6079E+02     6.7826   3.0853    95.9103
 80      0.0000     0.0000E+00    0.0000E+00    8.710000E+06  0.00800  1.628E-02    0   0.8948   age067_m52            0.0000     2.1546E+02     7.1887   3.4715    95.8015
 81      0.0000     0.0000E+00    0.0000E+00    1.000000E+07  0.00800  1.215E-02    0   0.8827   age070_m52            0.0000     2.5815E+02     8.0971   3.8027    94.0831
 82      0.0000     0.0000E+00    0.0000E+00    1.445000E+07  0.00800  8.739E-03    0   0.8552   age078_m52            0.0000     2.5903E+02     7.5000   3.8604    94.8453
 83      0.0000     0.0000E+00    0.0000E+00    2.512000E+07  0.00800  5.676E-03    0   0.8162   age090_m52            0.0000     2.7068E+02     6.6262   3.5012    98.6127
 84      0.0000     0.0000E+00    0.0000E+00    4.000000E+07  0.00800  3.939E-03    0   0.7841   age104_m52            0.0000     2.8752E+02     6.4250   3.3673   100.3060
 85      0.0000     0.0000E+00    0.0000E+00    5.500000E+07  0.00800  3.155E-03    0   0.7627   age110_m52            0.0000     3.4403E+02     7.1205   3.3555   101.5367
 86      0.0000     0.0000E+00    0.0000E+00    1.015200E+08  0.00800  2.206E-03    0   0.7226   age116_m52            0.0000     4.8310E+02     8.7469   3.2107   104.3668
 87      0.0000     0.0000E+00    0.0000E+00    1.609000E+08  0.00800  1.596E-03    0   0.6963   age120_m52            0.0000     5.4508E+02     9.4260   3.0079   105.7492
 88      0.0000     0.0000E+00    0.0000E+00    2.861200E+08  0.00800  1.002E-03    0   0.6665   age125_m52            0.0000     7.3110E+02    11.2937   2.7466   107.7079
 89      0.0000     0.0000E+00    0.0000E+00    5.088000E+08  0.00800  5.759E-04    0   0.6377   age130_m52            0.0000     7.8436E+02    11.9898   2.4131   111.3276
 90      0.0000     0.0000E+00    0.0000E+00    9.047900E+08  0.00800  2.972E-04    0   0.6086   age135_m52            0.0000     5.3438E+02    10.2106   1.8677   110.4889
 91      0.0000     0.0000E+00    0.0000E+00    1.278050E+09  0.00800  2.242E-04    0   0.5907   age138_m52            0.0000     2.7890E+02     7.8044   1.2187   110.4438
 92      0.0000     0.0000E+00    0.0000E+00    1.434000E+09  0.00800  1.645E-04    0   0.5787   age139_m52            0.0000     2.4021E+02     7.1864   1.3579   110.0165
 93      0.0000     0.0000E+00    0.0000E+00    2.500000E+09  0.00800  7.723E-05    0   0.5519   age150_m52            0.0000     1.8545E+02     6.5550   1.0030   106.7863
 94      0.0000     0.0000E+00    0.0000E+00    4.250000E+09  0.00800  4.151E-05    0   0.5320   age158_m52            0.0000     1.7096E+02     6.3417   0.9268   104.3350
 95      0.0000     0.0000E+00    0.0000E+00    6.250000E+09  0.00800  3.010E-05    0   0.5197   age166_m52            0.0000     2.2619E+02     7.0541   0.7354   102.9880
 96      0.3087     3.0172E-01    3.1195E-01    7.500000E+09  0.00800  2.467E-05    0   0.5139   age171_m52            0.0000     2.4586E+02     7.3107   0.6959   102.5641
 97      0.1313     1.7007E-01    1.7293E-01    1.000000E+10  0.00800  1.862E-05    0   0.5054   age181_m52            0.0000     3.1707E+02     8.1498   0.5736   102.0742
