###################################################################
## OUTPUT of StarlightChains_v04.for    [Cid@UFSC - 01/Apr/2007] ##
###################################################################

## Some input info
NGC6522_a_1.cxt                          [arq_obs]
Base.BC03.S                              [arq_base]
NGC6522_a_1.msk                          [arq_masks]
StCv04.C11.config                        [arq_config]
  150                                    [N_base]
    0                                    [N_YAV_components = # of components with extra extinction!]
    0                                    [i_FitPowerLaw (1/0 = Yes/No)]
-9.99                                    [alpha_PowerLaw]
CCM                                      [red_law_option]
 1.458241                                [q_norm = A(l_norm)/A(V)]

## (Re)Sampling Parameters
 3359.00                                 [l_ini (A)]
 6428.00                                 [l_fin (A)]
    1.00                                 [dl    (A)]     (OBS: dl_cushion =    50.00 A)

## Normalization info
 4020.00                                 [l_norm (A) - for base]
 4010.00                                 [llow_norm (A) - window for f_obs]
 4060.00                                 [lupp_norm (A) - window for f_obs]
8.861070E-15                             [fobs_norm (in input units)]

## S/N
 4730.00                                 [llow_SN (A) - window for S/N]
 4780.00                                 [lupp_SN (A) - window for S/N]
  58.057                                 [S/N in S/N window]
  38.566                                 [S/N in norm. window]
  50.435                                 [S/N_err in S/N window]
  33.502                                 [S/N_err in norm. window]
  1.0000                                 [fscale_chi2]

## etc...
  2147483607                             [idum_orig]
  3068                                   [NOl_eff]
  1658                                   [Nl_eff]
  1410    NSIGMA                         [Ntot_cliped & clip_method]
  2086490                                [Nglobal_steps]
   7                                     [N_chains]
  32                                     [NEX0s_base = N_base in EX0s-fits]
 0   0   1      235   2.0   7.149E+02    [Clip-Bug, RC-Crash & Burn-In warning-flags, n_censored_weights, wei_nsig_threshold & wei_limit]
    75     74.168     74.156      0.012  [idt_all, wdt_TotTime, wdt_UsrTime & wdt_SysTime (sec)]

## Synthesis Results - Best model ##

 2.11703E+00                             [chi2/Nl_eff]
     1.78346                             [adev (%)]

    99.50253                             [sum-of-x (%)]
 9.38944E-14                             [Flux_tot (units of input spectrum!)]
 2.69169E-09                             [Mini_tot (???)]
 1.34391E-09                             [Mcor_tot (???)]

  -7.47                                  [v0_min  (km/s)]
  65.52                                  [vd_min  (km/s)]
 1.7612                                  [AV_min  (mag)]
 0.0000                                  [YAV_min (mag)]

# j     x_j(%)      Mini_j(%)     Mcor_j(%)     age_j(yr)     Z_j      (L/M)_j    YAV?  Mstars   component_j        a/Fe...       SSP_chi2r SSP_adev(%)   SSP_AV   SSP_x(%)
  1      0.0000     0.0000E+00    0.0000E+00    1.000000E+06  0.00010  8.160E-03    0   1.0000   age020_m22            0.0000     1.5995E+03    33.7739   4.0000    75.2735
  2     14.1808     1.0446E-02    2.0923E-02    3.160000E+06  0.00010  4.759E-02    0   1.0000   age045_m22            0.0000     5.1516E+01     3.5202   3.1964    95.0301
  3      0.0000     0.0000E+00    0.0000E+00    5.010000E+06  0.00010  1.932E-02    0   0.9582   age055_m22            0.0000     3.5556E+02     9.6678   3.6612    80.9146
  4      0.0000     0.0000E+00    0.0000E+00    6.610000E+06  0.00010  9.973E-03    0   0.9297   age061_m22            0.0000     1.4748E+03    33.4268   4.0000    77.7014
  5      0.0000     0.0000E+00    0.0000E+00    8.710000E+06  0.00010  7.690E-03    0   0.9030   age067_m22            0.0000     1.4226E+03    33.0288   4.0000    78.2454
  6      0.0000     0.0000E+00    0.0000E+00    1.000000E+07  0.00010  6.375E-03    0   0.8902   age070_m22            0.0000     1.4058E+03    33.1115   4.0000    78.4729
  7      0.0000     0.0000E+00    0.0000E+00    1.445000E+07  0.00010  4.874E-03    0   0.8589   age078_m22            0.0000     1.0006E+03    28.1115   4.0000    82.1830
  8      0.0000     0.0000E+00    0.0000E+00    2.512000E+07  0.00010  4.103E-03    0   0.8174   age090_m22            0.0000     3.3456E+02    16.5466   4.0000    89.6348
  9      5.2784     5.0643E-02    7.9420E-02    4.000000E+07  0.00010  3.654E-03    0   0.7830   age104_m22            0.0000     1.5258E+02     8.2770   4.0000    94.1061
 10      3.8760     4.3932E-02    6.6847E-02    5.500000E+07  0.00010  3.093E-03    0   0.7597   age110_m22            0.0000     1.5598E+02     5.8519   4.0000    95.5752
 11      8.2569     1.1907E-01    1.7023E-01    1.015200E+08  0.00010  2.431E-03    0   0.7138   age116_m22            0.0000     2.4347E+02     5.6265   3.6766    98.4817
 12      0.0000     0.0000E+00    0.0000E+00    1.609000E+08  0.00010  1.319E-03    0   0.6775   age120_m22            0.0000     2.5876E+02     6.1153   3.1508   101.3537
 13      0.0000     0.0000E+00    0.0000E+00    2.861200E+08  0.00010  1.075E-03    0   0.6412   age125_m22            0.0000     7.2630E+02    10.9476   3.0097   107.0194
 14      0.0000     0.0000E+00    0.0000E+00    5.088000E+08  0.00010  7.183E-04    0   0.6083   age130_m22            0.0000     9.0040E+02    12.8499   2.6895   109.7860
 15      0.0000     0.0000E+00    0.0000E+00    9.047900E+08  0.00010  4.524E-04    0   0.5785   age135_m22            0.0000     9.1523E+02    13.2256   2.4716   111.1808
 16      0.0000     0.0000E+00    0.0000E+00    1.278050E+09  0.00010  3.018E-04    0   0.5588   age138_m22            0.0000     4.3922E+02     9.2866   2.1020   107.6063
 17      0.0000     0.0000E+00    0.0000E+00    1.434000E+09  0.00010  2.691E-04    0   0.5532   age139_m22            0.0000     3.5724E+02     8.4823   1.9764   106.7128
 18      0.0000     0.0000E+00    0.0000E+00    2.500000E+09  0.00010  1.582E-04    0   0.5296   age150_m22            0.0000     3.0447E+02     7.7689   1.9038   106.8321
 19      0.0000     0.0000E+00    0.0000E+00    4.250000E+09  0.00010  1.007E-04    0   0.5110   age158_m22            0.0000     1.6123E+02     5.6892   1.8271   104.4534
 20      0.0000     0.0000E+00    0.0000E+00    6.250000E+09  0.00010  6.869E-05    0   0.4985   age166_m22            0.0000     6.4574E+01     3.8313   1.8403   101.1089
 21      0.0000     0.0000E+00    0.0000E+00    7.500000E+09  0.00010  5.873E-05    0   0.4931   age171_m22            0.0000     5.3076E+01     3.4980   1.8463   100.3797
 22      0.0056     4.3563E-03    4.2352E-03    1.000000E+10  0.00010  4.481E-05    0   0.4854   age181_m22            0.0000     5.0668E+01     3.4507   1.8065   100.0910
 23      0.0087     8.7898E-03    8.4345E-03    1.300000E+10  0.00010  3.489E-05    0   0.4791   age193_m22            0.0000     4.3943E+01     3.2898   1.7525    99.6071
 24      0.3597     4.1548E-01    3.9661E-01    1.500000E+10  0.00010  3.035E-05    0   0.4766   age201_m22            0.0000     3.9187E+01     3.1593   1.7175    99.4237
 25      9.0482     1.2638E+01    1.1985E+01    1.800000E+10  0.00010  2.510E-05    0   0.4735   age213_m22            0.0000     2.9065E+01     2.8602   1.6608    98.7855
 26      0.0000     0.0000E+00    0.0000E+00    1.000000E+06  0.00040  8.458E-03    0   1.0000   age020_m32            0.0000     1.5925E+03    34.1593   4.0000    75.7890
 27      0.0000     0.0000E+00    0.0000E+00    3.160000E+06  0.00040  3.973E-02    0   1.0000   age045_m32            0.0000     2.9258E+02    14.3332   4.0000    89.4162
 28      0.0000     0.0000E+00    0.0000E+00    5.010000E+06  0.00040  1.935E-02    0   0.9532   age055_m32            0.0000     7.4902E+02    22.4190   4.0000    82.5832
 29      0.0000     0.0000E+00    0.0000E+00    6.610000E+06  0.00040  1.204E-02    0   0.9243   age061_m32            0.0000     1.1642E+03    29.7271   4.0000    80.2639
 30      0.0000     0.0000E+00    0.0000E+00    8.710000E+06  0.00040  9.433E-03    0   0.9001   age067_m32            0.0000     1.0608E+03    28.7059   4.0000    81.3764
 31      0.0000     0.0000E+00    0.0000E+00    1.000000E+07  0.00040  8.053E-03    0   0.8877   age070_m32            0.0000     9.9407E+02    27.7399   4.0000    81.9741
 32      0.0000     0.0000E+00    0.0000E+00    1.445000E+07  0.00040  7.027E-03    0   0.8578   age078_m32            0.0000     3.1995E+02    14.1040   4.0000    87.7377
 33      0.0000     0.0000E+00    0.0000E+00    2.512000E+07  0.00040  4.707E-03    0   0.8166   age090_m32            0.0000     1.1366E+02     5.8909   4.0000    91.3075
 34      1.4805     1.3975E-02    2.1908E-02    4.000000E+07  0.00040  3.714E-03    0   0.7827   age104_m32            0.0000     1.0707E+02     4.1956   3.8853    94.4232
 35      0.3160     3.7146E-03    5.6491E-03    5.500000E+07  0.00040  2.982E-03    0   0.7593   age110_m32            0.0000     1.3567E+02     4.3389   3.7871    95.8830
 36      0.0000     0.0000E+00    0.0000E+00    1.015200E+08  0.00040  2.188E-03    0   0.7143   age116_m32            0.0000     3.7148E+02     7.1295   3.3710   101.6059
 37      0.0000     0.0000E+00    0.0000E+00    1.609000E+08  0.00040  1.690E-03    0   0.6856   age120_m32            0.0000     5.7793E+02     9.2858   3.0732   105.1279
 38      0.0000     0.0000E+00    0.0000E+00    2.861200E+08  0.00040  1.152E-03    0   0.6509   age125_m32            0.0000     7.6888E+02    11.5295   2.7384   108.3668
 39      0.0000     0.0000E+00    0.0000E+00    5.088000E+08  0.00040  7.331E-04    0   0.6182   age130_m32            0.0000     8.4110E+02    12.4684   2.5241   109.7590
 40      0.0000     0.0000E+00    0.0000E+00    9.047900E+08  0.00040  3.960E-04    0   0.5890   age135_m32            0.0000     4.5258E+02     9.5074   2.1692   107.4030
 41      0.0000     0.0000E+00    0.0000E+00    1.278050E+09  0.00040  2.854E-04    0   0.5687   age138_m32            0.0000     3.5956E+02     8.4145   1.9408   108.1862
 42      0.0000     5.8726E-06    6.6244E-06    1.434000E+09  0.00040  2.531E-04    0   0.5632   age139_m32            0.0000     3.4733E+02     8.3226   1.8855   108.0439
 43      3.4828     8.2055E-01    8.8517E-01    2.500000E+09  0.00040  1.488E-04    0   0.5386   age150_m32            0.0000     2.3154E+02     6.9936   1.6740   105.7813
 44     10.1168     3.9052E+00    4.0664E+00    4.250000E+09  0.00040  9.082E-05    0   0.5199   age158_m32            0.0000     6.5632E+01     3.9392   1.6864   101.5985
 45      6.4072     3.5306E+00    3.5895E+00    6.250000E+09  0.00040  6.362E-05    0   0.5076   age166_m32            0.0000     1.2670E+01     2.3542   1.7316    97.6532
 46      0.0000     0.0000E+00    0.0000E+00    7.500000E+09  0.00040  5.289E-05    0   0.5027   age171_m32            0.0000     1.1797E+01     2.3123   1.7051    96.4722
 47      0.0033     2.8704E-03    2.8446E-03    1.000000E+10  0.00040  3.972E-05    0   0.4948   age181_m32            0.0000     1.3853E+01     2.3578   1.6453    95.2784
 48      0.0000     0.0000E+00    0.0000E+00    1.300000E+10  0.00040  3.283E-05    0   0.4870   age193_m32            0.0000     1.7753E+01     2.6189   1.5571    98.3195
 49      1.5149     1.8156E+00    1.7652E+00    1.500000E+10  0.00040  2.925E-05    0   0.4854   age201_m32            0.0000     3.1895E+01     3.1122   1.5123   100.0975
 50      4.9354     7.0078E+00    6.7639E+00    1.800000E+10  0.00040  2.469E-05    0   0.4819   age213_m32            0.0000     3.9527E+01     3.3484   1.4598   100.7516
 51      0.0000     0.0000E+00    0.0000E+00    1.000000E+06  0.00400  1.114E-02    0   1.0000   age020_m42            0.0000     1.4739E+03    32.4185   4.0000    76.5523
 52      0.0000     0.0000E+00    0.0000E+00    3.160000E+06  0.00400  4.073E-02    0   0.9999   age045_m42            0.0000     1.0296E+02     6.0291   4.0000    91.8713
 53      0.0000     0.0000E+00    0.0000E+00    5.010000E+06  0.00400  2.534E-02    0   0.9488   age055_m42            0.0000     4.8821E+02    17.8224   4.0000    85.5842
 54      0.0498     6.7580E-05    1.2480E-04    6.610000E+06  0.00400  2.583E-02    0   0.9220   age061_m42            0.0000     8.3032E+01     4.0773   3.9881    91.9332
 55      0.0000     0.0000E+00    0.0000E+00    8.710000E+06  0.00400  1.706E-02    0   0.8983   age067_m42            0.0000     1.0276E+02     5.3153   3.8747    89.4946
 56      0.0000     0.0000E+00    0.0000E+00    1.000000E+07  0.00400  1.271E-02    0   0.8862   age070_m42            0.0000     1.5069E+02     6.4536   3.8958    87.6611
 57      0.0000     0.0000E+00    0.0000E+00    1.445000E+07  0.00400  7.666E-03    0   0.8571   age078_m42            0.0000     3.0441E+02     9.0216   4.0000    85.5430
 58      0.0000     0.0000E+00    0.0000E+00    2.512000E+07  0.00400  5.070E-03    0   0.8174   age090_m42            0.0000     1.2600E+02     5.7085   3.7428    89.6906
 59      0.0000     0.0000E+00    0.0000E+00    4.000000E+07  0.00400  3.505E-03    0   0.7851   age104_m42            0.0000     7.5856E+01     3.9211   3.3696    93.4638
 60      0.0000     0.0000E+00    0.0000E+00    5.500000E+07  0.00400  3.059E-03    0   0.7629   age110_m42            0.0000     1.2448E+02     3.5696   3.2881    99.2016
 61      0.0000     0.0000E+00    0.0000E+00    1.015200E+08  0.00400  2.268E-03    0   0.7207   age116_m42            0.0000     4.9436E+02     8.3839   2.9992   106.2248
 62      0.0000     0.0000E+00    0.0000E+00    1.609000E+08  0.00400  1.720E-03    0   0.6930   age120_m42            0.0000     5.5219E+02     9.1148   2.8183   108.3675
 63      0.0000     0.0000E+00    0.0000E+00    2.861200E+08  0.00400  1.079E-03    0   0.6613   age125_m42            0.0000     5.5649E+02     9.8398   2.4332   109.2695
 64      0.0000     0.0000E+00    0.0000E+00    5.088000E+08  0.00400  6.261E-04    0   0.6313   age130_m42            0.0000     6.5418E+02    10.9829   2.2003   112.4606
 65      0.0000     0.0000E+00    0.0000E+00    9.047900E+08  0.00400  3.535E-04    0   0.6024   age135_m42            0.0000     3.7722E+02     8.5828   1.8892   111.8308
 66      0.0000     0.0000E+00    0.0000E+00    1.278050E+09  0.00400  2.677E-04    0   0.5837   age138_m42            0.0000     1.3245E+02     7.0179   1.2963   109.3978
 67      0.0000     0.0000E+00    0.0000E+00    1.434000E+09  0.00400  1.910E-04    0   0.5716   age139_m42            0.0000     1.7064E+02     7.1770   1.4352   110.2982
 68      0.0000     0.0000E+00    0.0000E+00    2.500000E+09  0.00400  9.818E-05    0   0.5463   age150_m42            0.0000     5.8900E+01     5.6099   1.2802   104.6867
 69      0.0000     0.0000E+00    0.0000E+00    4.250000E+09  0.00400  5.491E-05    0   0.5269   age158_m42            0.0000     6.3827E+01     5.1205   1.2099   101.5706
 70      0.0000     0.0000E+00    0.0000E+00    6.250000E+09  0.00400  3.857E-05    0   0.5151   age166_m42            0.0000     9.2167E+01     5.6364   1.0972   100.3609
 71      2.8056     3.0329E+00    3.1041E+00    7.500000E+09  0.00400  3.243E-05    0   0.5110   age171_m42            0.0000     1.1480E+02     6.0302   1.0219    99.9253
 72      1.4156     2.0473E+00    2.0618E+00    1.000000E+10  0.00400  2.424E-05    0   0.5028   age181_m42            0.0000     1.5335E+02     6.5306   0.9482    99.4118
 73      0.0000     0.0000E+00    0.0000E+00    1.300000E+10  0.00400  1.883E-05    0   0.4927   age193_m42            0.0000     1.9125E+02     6.8473   0.9158    99.1727
 74      0.0000     0.0000E+00    0.0000E+00    1.500000E+10  0.00400  1.685E-05    0   0.4919   age201_m42            0.0000     1.8070E+02     6.7062   0.9203    99.1634
 75      0.0000     0.0000E+00    0.0000E+00    1.800000E+10  0.00400  1.452E-05    0   0.4874   age213_m42            0.0000     1.6301E+02     6.4655   0.9355    99.3934
 76      0.0000     0.0000E+00    0.0000E+00    1.000000E+06  0.00800  1.286E-02    0   1.0000   age020_m52            0.0000     1.3254E+03    31.4215   4.0000    78.5337
 77      0.0000     0.0000E+00    0.0000E+00    3.160000E+06  0.00800  3.147E-02    0   0.9966   age045_m52            0.0000     1.1741E+03    29.5642   4.0000    80.1453
 78      0.0000     0.0000E+00    0.0000E+00    5.010000E+06  0.00800  2.664E-02    0   0.9443   age055_m52            0.0000     6.5364E+02    20.8494   4.0000    84.5985
 79      0.0000     0.0000E+00    0.0000E+00    6.610000E+06  0.00800  2.151E-02    0   0.9177   age061_m52            0.0000     1.2665E+02     5.6805   3.4738    90.1117
 80      0.0000     0.0000E+00    0.0000E+00    8.710000E+06  0.00800  1.628E-02    0   0.8948   age067_m52            0.0000     1.1667E+02     5.4191   3.8301    90.1621
 81      0.0000     0.0000E+00    0.0000E+00    1.000000E+07  0.00800  1.215E-02    0   0.8827   age070_m52            0.0000     1.7851E+02     6.3265   4.0000    88.7988
 82      0.0000     0.0000E+00    0.0000E+00    1.445000E+07  0.00800  8.739E-03    0   0.8552   age078_m52            0.0000     1.5264E+02     6.4845   4.0000    90.2806
 83      0.0000     0.0000E+00    0.0000E+00    2.512000E+07  0.00800  5.676E-03    0   0.8162   age090_m52            0.0000     1.1454E+02     4.1638   3.7346    94.4605
 84      0.6251     5.5636E-03    8.7373E-03    4.000000E+07  0.00800  3.939E-03    0   0.7841   age104_m52            0.0000     1.4692E+02     3.9961   3.5026    97.6362
 85      0.1880     2.0893E-03    3.1916E-03    5.500000E+07  0.00800  3.155E-03    0   0.7627   age110_m52            0.0000     2.0890E+02     4.9420   3.4103   100.0684
 86      0.0000     0.0000E+00    0.0000E+00    1.015200E+08  0.00800  2.206E-03    0   0.7226   age116_m52            0.0000     3.7524E+02     7.2005   3.1102   105.3843
 87      0.0000     0.0000E+00    0.0000E+00    1.609000E+08  0.00800  1.596E-03    0   0.6963   age120_m52            0.0000     4.6000E+02     8.3427   2.8375   107.8252
 88      0.0000     0.0000E+00    0.0000E+00    2.861200E+08  0.00800  1.002E-03    0   0.6665   age125_m52            0.0000     7.0400E+02    11.3628   2.4035   112.5450
 89      0.0000     0.0000E+00    0.0000E+00    5.088000E+08  0.00800  5.759E-04    0   0.6377   age130_m52            0.0000     7.4944E+02    12.6277   1.9883   117.6527
 90      0.0000     0.0000E+00    0.0000E+00    9.047900E+08  0.00800  2.972E-04    0   0.6086   age135_m52            0.0000     3.9218E+02    10.5628   1.5507   115.5532
 91      0.0000     0.0000E+00    0.0000E+00    1.278050E+09  0.00800  2.242E-04    0   0.5907   age138_m52            0.0000     1.5628E+02     8.1188   1.0995   112.9805
 92      0.0000     0.0000E+00    0.0000E+00    1.434000E+09  0.00800  1.645E-04    0   0.5787   age139_m52            0.0000     1.3049E+02     7.3957   1.2698   112.0141
 93      0.0000     0.0000E+00    0.0000E+00    2.500000E+09  0.00800  7.723E-05    0   0.5519   age150_m52            0.0000     1.1082E+02     6.9032   1.0182   107.6898
 94      0.0000     0.0000E+00    0.0000E+00    4.250000E+09  0.00800  4.151E-05    0   0.5320   age158_m52            0.0000     1.1764E+02     6.6733   0.9824   104.7060
 95      1.1854     1.3807E+00    1.4371E+00    6.250000E+09  0.00800  3.010E-05    0   0.5197   age166_m52            0.0000     1.8031E+02     7.4457   0.8003   103.5432
 96      3.7562     5.3378E+00    5.4941E+00    7.500000E+09  0.00800  2.467E-05    0   0.5139   age171_m52            0.0000     2.0020E+02     7.6985   0.7591   103.2289
 97      7.2006     1.3557E+01    1.3723E+01    1.000000E+10  0.00800  1.862E-05    0   0.5054   age181_m52            0.0000     2.6252E+02     8.5335   0.6207   103.2292
