###################################################################
## OUTPUT of StarlightChains_v04.for    [Cid@UFSC - 01/Apr/2007] ##
###################################################################

## Some input info
NGC6342_a_1.cxt                          [arq_obs]
Base.BC03.S                              [arq_base]
NGC6342_a_1.msk                          [arq_masks]
StCv04.C11.config                        [arq_config]
  150                                    [N_base]
    0                                    [N_YAV_components = # of components with extra extinction!]
    0                                    [i_FitPowerLaw (1/0 = Yes/No)]
-9.99                                    [alpha_PowerLaw]
CCM                                      [red_law_option]
 1.458241                                [q_norm = A(l_norm)/A(V)]

## (Re)Sampling Parameters
 3359.00                                 [l_ini (A)]
 6428.00                                 [l_fin (A)]
    1.00                                 [dl    (A)]     (OBS: dl_cushion =    50.00 A)

## Normalization info
 4020.00                                 [l_norm (A) - for base]
 4010.00                                 [llow_norm (A) - window for f_obs]
 4060.00                                 [lupp_norm (A) - window for f_obs]
2.158412E-15                             [fobs_norm (in input units)]

## S/N
 4730.00                                 [llow_SN (A) - window for S/N]
 4780.00                                 [lupp_SN (A) - window for S/N]
  41.172                                 [S/N in S/N window]
  28.335                                 [S/N in norm. window]
 118.442                                 [S/N_err in S/N window]
  81.514                                 [S/N_err in norm. window]
  1.0000                                 [fscale_chi2]

## etc...
  2147483615                             [idum_orig]
  3068                                   [NOl_eff]
  1134                                   [Nl_eff]
  1934    NSIGMA                         [Ntot_cliped & clip_method]
  1964340                                [Nglobal_steps]
   7                                     [N_chains]
  33                                     [NEX0s_base = N_base in EX0s-fits]
 0   0   1      115   2.0   8.706E+02    [Clip-Bug, RC-Crash & Burn-In warning-flags, n_censored_weights, wei_nsig_threshold & wei_limit]
    64     63.475     63.475      0.000  [idt_all, wdt_TotTime, wdt_UsrTime & wdt_SysTime (sec)]

## Synthesis Results - Best model ##

 2.71450E+00                             [chi2/Nl_eff]
     1.38559                             [adev (%)]

    96.94177                             [sum-of-x (%)]
 8.45701E-15                             [Flux_tot (units of input spectrum!)]
 2.94802E-10                             [Mini_tot (???)]
 1.48162E-10                             [Mcor_tot (???)]

  -2.02                                  [v0_min  (km/s)]
  64.97                                  [vd_min  (km/s)]
 1.0399                                  [AV_min  (mag)]
 0.0000                                  [YAV_min (mag)]

# j     x_j(%)      Mini_j(%)     Mcor_j(%)     age_j(yr)     Z_j      (L/M)_j    YAV?  Mstars   component_j        a/Fe...       SSP_chi2r SSP_adev(%)   SSP_AV   SSP_x(%)
  1      0.0000     0.0000E+00    0.0000E+00    1.000000E+06  0.00010  8.160E-03    0   1.0000   age020_m22            0.0000     1.9923E+03    27.9025   4.0000    80.7173
  2      0.0000     0.0000E+00    0.0000E+00    3.160000E+06  0.00010  4.759E-02    0   1.0000   age045_m22            0.0000     7.4715E+01     6.7774   2.9526    92.8465
  3      0.0000     0.0000E+00    0.0000E+00    5.010000E+06  0.00010  1.932E-02    0   0.9582   age055_m22            0.0000     3.5162E+02    13.5185   3.3865    73.8761
  4      0.0000     0.0000E+00    0.0000E+00    6.610000E+06  0.00010  9.973E-03    0   0.9297   age061_m22            0.0000     1.8722E+03    26.8260   4.0000    83.4581
  5      0.0000     0.0000E+00    0.0000E+00    8.710000E+06  0.00010  7.690E-03    0   0.9030   age067_m22            0.0000     1.8108E+03    26.3669   4.0000    84.1878
  6      0.0000     0.0000E+00    0.0000E+00    1.000000E+07  0.00010  6.375E-03    0   0.8902   age070_m22            0.0000     1.8083E+03    26.2942   4.0000    84.7337
  7      0.0000     0.0000E+00    0.0000E+00    1.445000E+07  0.00010  4.874E-03    0   0.8589   age078_m22            0.0000     1.2044E+03    21.6342   4.0000    87.9973
  8      0.0000     0.0000E+00    0.0000E+00    2.512000E+07  0.00010  4.103E-03    0   0.8174   age090_m22            0.0000     3.0506E+02    12.1336   4.0000    92.1199
  9      0.0000     0.0000E+00    0.0000E+00    4.000000E+07  0.00010  3.654E-03    0   0.7830   age104_m22            0.0000     9.1904E+01     8.2361   3.9845    93.0630
 10      0.0000     0.0000E+00    0.0000E+00    5.500000E+07  0.00010  3.093E-03    0   0.7597   age110_m22            0.0000     9.0690E+01     7.9078   3.8588    95.8928
 11      0.0000     0.0000E+00    0.0000E+00    1.015200E+08  0.00010  2.431E-03    0   0.7138   age116_m22            0.0000     1.1165E+02     8.1439   3.4656   100.9856
 12      0.0000     0.0000E+00    0.0000E+00    1.609000E+08  0.00010  1.319E-03    0   0.6775   age120_m22            0.0000     1.0214E+02     7.6450   3.0031   102.6837
 13      0.0000     0.0000E+00    0.0000E+00    2.861200E+08  0.00010  1.075E-03    0   0.6412   age125_m22            0.0000     2.7665E+02    10.8442   2.9645   111.8504
 14      0.0000     0.0000E+00    0.0000E+00    5.088000E+08  0.00010  7.183E-04    0   0.6083   age130_m22            0.0000     3.5652E+02    12.0170   2.7096   115.0609
 15      0.0000     0.0000E+00    0.0000E+00    9.047900E+08  0.00010  4.524E-04    0   0.5785   age135_m22            0.0000     3.7086E+02    12.0890   2.5026   116.6723
 16      0.0000     0.0000E+00    0.0000E+00    1.278050E+09  0.00010  3.018E-04    0   0.5588   age138_m22            0.0000     1.7422E+02     8.4428   2.0377   111.2768
 17      0.0000     0.0000E+00    0.0000E+00    1.434000E+09  0.00010  2.691E-04    0   0.5532   age139_m22            0.0000     1.4467E+02     7.7345   1.8951   109.9938
 18      0.0000     0.0000E+00    0.0000E+00    2.500000E+09  0.00010  1.582E-04    0   0.5296   age150_m22            0.0000     1.2663E+02     7.3323   1.7841   110.3489
 19      0.0000     0.0000E+00    0.0000E+00    4.250000E+09  0.00010  1.007E-04    0   0.5110   age158_m22            0.0000     7.4141E+01     5.9541   1.6726   106.5135
 20      0.3004     1.2939E-01    1.2834E-01    6.250000E+09  0.00010  6.869E-05    0   0.4985   age166_m22            0.0000     4.2687E+01     4.9823   1.6585   101.4907
 21      1.4488     7.3002E-01    7.1625E-01    7.500000E+09  0.00010  5.873E-05    0   0.4931   age171_m22            0.0000     4.1607E+01     5.0412   1.6517   100.5963
 22      0.8758     5.7837E-01    5.5860E-01    1.000000E+10  0.00010  4.481E-05    0   0.4854   age181_m22            0.0000     4.0382E+01     4.9667   1.6142   100.2224
 23      0.3313     2.8101E-01    2.6789E-01    1.300000E+10  0.00010  3.489E-05    0   0.4791   age193_m22            0.0000     3.7421E+01     4.7744   1.5617    99.5246
 24      0.6547     6.3830E-01    6.0531E-01    1.500000E+10  0.00010  3.035E-05    0   0.4766   age201_m22            0.0000     3.5710E+01     4.6813   1.5256    99.2098
 25      0.7238     8.5330E-01    8.0393E-01    1.800000E+10  0.00010  2.510E-05    0   0.4735   age213_m22            0.0000     3.2377E+01     4.4950   1.4648    98.2513
 26      0.0000     0.0000E+00    0.0000E+00    1.000000E+06  0.00040  8.458E-03    0   1.0000   age020_m32            0.0000     2.0180E+03    27.9720   4.0000    81.5139
 27      0.0000     0.0000E+00    0.0000E+00    3.160000E+06  0.00040  3.973E-02    0   1.0000   age045_m32            0.0000     2.4946E+02    10.9673   4.0000    89.7261
 28      0.0000     0.0000E+00    0.0000E+00    5.010000E+06  0.00040  1.935E-02    0   0.9532   age055_m32            0.0000     7.4104E+02    17.4590   4.0000    84.8978
 29      0.0000     0.0000E+00    0.0000E+00    6.610000E+06  0.00040  1.204E-02    0   0.9243   age061_m32            0.0000     1.4083E+03    23.3818   4.0000    85.6221
 30      0.0000     0.0000E+00    0.0000E+00    8.710000E+06  0.00040  9.433E-03    0   0.9001   age067_m32            0.0000     1.2812E+03    22.3456   4.0000    86.8795
 31      0.0000     0.0000E+00    0.0000E+00    1.000000E+07  0.00040  8.053E-03    0   0.8877   age070_m32            0.0000     1.1806E+03    21.5016   4.0000    87.2502
 32      0.0000     0.0000E+00    0.0000E+00    1.445000E+07  0.00040  7.027E-03    0   0.8578   age078_m32            0.0000     2.6625E+02    11.4724   4.0000    86.9824
 33      0.0000     0.0000E+00    0.0000E+00    2.512000E+07  0.00040  4.707E-03    0   0.8166   age090_m32            0.0000     1.2676E+02     9.4370   3.9009    87.8280
 34      0.0000     0.0000E+00    0.0000E+00    4.000000E+07  0.00040  3.714E-03    0   0.7827   age104_m32            0.0000     9.1804E+01     8.2322   3.6393    94.0046
 35      0.0000     0.0000E+00    0.0000E+00    5.500000E+07  0.00040  2.982E-03    0   0.7593   age110_m32            0.0000     8.9625E+01     7.9928   3.5551    96.3375
 36      0.0000     0.0000E+00    0.0000E+00    1.015200E+08  0.00040  2.188E-03    0   0.7143   age116_m32            0.0000     1.4736E+02     8.6704   3.2107   104.9632
 37      0.0000     0.0000E+00    0.0000E+00    1.609000E+08  0.00040  1.690E-03    0   0.6856   age120_m32            0.0000     2.2700E+02     9.8878   2.9512   110.3757
 38      0.0000     0.0000E+00    0.0000E+00    2.861200E+08  0.00040  1.152E-03    0   0.6509   age125_m32            0.0000     3.0022E+02    11.1161   2.7096   113.5196
 39      0.0000     0.0000E+00    0.0000E+00    5.088000E+08  0.00040  7.331E-04    0   0.6182   age130_m32            0.0000     3.3637E+02    11.6348   2.5365   114.9119
 40      0.0000     0.0000E+00    0.0000E+00    9.047900E+08  0.00040  3.960E-04    0   0.5890   age135_m32            0.0000     1.8366E+02     8.7868   2.1345   110.5438
 41      0.0000     0.0000E+00    0.0000E+00    1.278050E+09  0.00040  2.854E-04    0   0.5687   age138_m32            0.0000     1.5024E+02     7.7771   1.8412   111.9896
 42      0.0000     0.0000E+00    0.0000E+00    1.434000E+09  0.00040  2.531E-04    0   0.5632   age139_m32            0.0000     1.4600E+02     7.6639   1.7791   111.9563
 43      1.3073     2.5998E-01    2.7861E-01    2.500000E+09  0.00040  1.488E-04    0   0.5386   age150_m32            0.0000     1.0543E+02     6.6050   1.5448   109.0224
 44     14.5704     4.7475E+00    4.9111E+00    4.250000E+09  0.00040  9.082E-05    0   0.5199   age158_m32            0.0000     3.9866E+01     4.5578   1.5128   102.2740
 45     11.0869     5.1569E+00    5.2085E+00    6.250000E+09  0.00040  6.362E-05    0   0.5076   age166_m32            0.0000     2.8211E+01     4.0954   1.5233    96.2322
 46     10.8841     6.0897E+00    6.0911E+00    7.500000E+09  0.00040  5.289E-05    0   0.5027   age171_m32            0.0000     2.7559E+01     4.0055   1.4982    94.5424
 47      8.3939     6.2536E+00    6.1568E+00    1.000000E+10  0.00040  3.972E-05    0   0.4948   age181_m32            0.0000     2.5932E+01     3.8441   1.4448    92.9442
 48      0.0002     1.9720E-04    1.9109E-04    1.300000E+10  0.00040  3.283E-05    0   0.4870   age193_m32            0.0000     2.2254E+01     3.6800   1.3725    97.0017
 49      0.0004     3.7238E-04    3.5965E-04    1.500000E+10  0.00040  2.925E-05    0   0.4854   age201_m32            0.0000     2.5228E+01     3.8101   1.3364    99.4493
 50      0.0002     2.1618E-04    2.0728E-04    1.800000E+10  0.00040  2.469E-05    0   0.4819   age213_m32            0.0000     2.6948E+01     3.8497   1.2890   100.3515
 51      0.0000     0.0000E+00    0.0000E+00    1.000000E+06  0.00400  1.114E-02    0   1.0000   age020_m42            0.0000     1.8048E+03    26.4312   4.0000    81.8836
 52      0.0000     0.0000E+00    0.0000E+00    3.160000E+06  0.00400  4.073E-02    0   0.9999   age045_m42            0.0000     1.0129E+02     8.0991   3.9616    87.5896
 53      0.0000     0.0000E+00    0.0000E+00    5.010000E+06  0.00400  2.534E-02    0   0.9488   age055_m42            0.0000     4.3673E+02    13.7808   4.0000    86.8226
 54      0.0000     0.0000E+00    0.0000E+00    6.610000E+06  0.00400  2.583E-02    0   0.9220   age061_m42            0.0000     8.7425E+01     7.9620   3.7369    90.1383
 55      0.0000     0.0000E+00    0.0000E+00    8.710000E+06  0.00400  1.706E-02    0   0.8983   age067_m42            0.0000     1.3781E+02     9.7910   3.5957    86.2735
 56      0.0000     0.0000E+00    0.0000E+00    1.000000E+07  0.00400  1.271E-02    0   0.8862   age070_m42            0.0000     1.9526E+02    11.4424   3.6031    83.5808
 57      0.0000     0.0000E+00    0.0000E+00    1.445000E+07  0.00400  7.666E-03    0   0.8571   age078_m42            0.0000     2.4178E+02    12.0922   4.0000    79.9577
 58      0.0000     0.0000E+00    0.0000E+00    2.512000E+07  0.00400  5.070E-03    0   0.8174   age090_m42            0.0000     1.7610E+02    10.8651   3.4715    85.2676
 59      0.0000     0.0000E+00    0.0000E+00    4.000000E+07  0.00400  3.505E-03    0   0.7851   age104_m42            0.0000     1.2175E+02     9.0318   3.1456    88.9538
 60      0.0000     0.0000E+00    0.0000E+00    5.500000E+07  0.00400  3.059E-03    0   0.7629   age110_m42            0.0000     6.8030E+01     6.7546   3.1102    98.2173
 61      0.0000     0.0000E+00    0.0000E+00    1.015200E+08  0.00400  2.268E-03    0   0.7207   age116_m42            0.0000     1.8750E+02     9.0260   2.8905   110.1941
 62      0.0000     0.0000E+00    0.0000E+00    1.609000E+08  0.00400  1.720E-03    0   0.6930   age120_m42            0.0000     2.1821E+02     9.5993   2.7406   112.4950
 63      0.0000     0.0000E+00    0.0000E+00    2.861200E+08  0.00400  1.079E-03    0   0.6613   age125_m42            0.0000     2.0260E+02     9.2844   2.3948   112.5303
 64      0.0000     0.0000E+00    0.0000E+00    5.088000E+08  0.00400  6.261E-04    0   0.6313   age130_m42            0.0000     2.5174E+02     9.9484   2.1692   117.0669
 65      0.0000     0.0000E+00    0.0000E+00    9.047900E+08  0.00400  3.535E-04    0   0.6024   age135_m42            0.0000     1.4283E+02     7.5278   1.8183   114.8093
 66      0.0000     0.0000E+00    0.0000E+00    1.278050E+09  0.00400  2.677E-04    0   0.5837   age138_m42            0.0000     4.3667E+01     4.6668   1.2232   108.3771
 67      0.0000     0.0000E+00    0.0000E+00    1.434000E+09  0.00400  1.910E-04    0   0.5716   age139_m42            0.0000     6.3554E+01     5.2982   1.3711   110.1958
 68      0.0000     0.0000E+00    0.0000E+00    2.500000E+09  0.00400  9.818E-05    0   0.5463   age150_m42            0.0000     1.0575E+01     2.3628   1.1871   101.4775
 69      0.0072     3.8595E-03    4.0463E-03    4.250000E+09  0.00400  5.491E-05    0   0.5269   age158_m42            0.0000     4.6760E+00     1.7245   1.0953    97.2118
 70      0.0000     0.0000E+00    0.0000E+00    6.250000E+09  0.00400  3.857E-05    0   0.5151   age166_m42            0.0000     7.5095E+00     2.1532   0.9847    95.4495
 71      0.0025     2.2812E-03    2.3194E-03    7.500000E+09  0.00400  3.243E-05    0   0.5110   age171_m42            0.0000     1.0572E+01     2.4983   0.9126    94.7911
 72     15.8255     1.9320E+01    1.9328E+01    1.000000E+10  0.00400  2.424E-05    0   0.5028   age181_m42            0.0000     1.6287E+01     3.0303   0.8427    93.9452
 73      6.6743     1.0489E+01    1.0283E+01    1.300000E+10  0.00400  1.883E-05    0   0.4927   age193_m42            0.0000     2.2758E+01     3.5088   0.8113    93.3505
 74      0.0827     1.4529E-01    1.4220E-01    1.500000E+10  0.00400  1.685E-05    0   0.4919   age201_m42            0.0000     2.1544E+01     3.4217   0.8153    93.3661
 75      0.0000     0.0000E+00    0.0000E+00    1.800000E+10  0.00400  1.452E-05    0   0.4874   age213_m42            0.0000     1.9606E+01     3.2725   0.8280    93.6572
 76      0.0000     0.0000E+00    0.0000E+00    1.000000E+06  0.00800  1.286E-02    0   1.0000   age020_m52            0.0000     1.6882E+03    25.2677   4.0000    83.9619
 77      0.0000     0.0000E+00    0.0000E+00    3.160000E+06  0.00800  3.147E-02    0   0.9966   age045_m52            0.0000     1.4423E+03    23.5163   4.0000    85.2902
 78      0.0000     0.0000E+00    0.0000E+00    5.010000E+06  0.00800  2.664E-02    0   0.9443   age055_m52            0.0000     6.6519E+02    16.4626   4.0000    86.7857
 79      0.0000     0.0000E+00    0.0000E+00    6.610000E+06  0.00800  2.151E-02    0   0.9177   age061_m52            0.0000     1.7196E+02     9.9819   3.2372    83.9688
 80      0.0000     0.0000E+00    0.0000E+00    8.710000E+06  0.00800  1.628E-02    0   0.8948   age067_m52            0.0000     1.6772E+02    10.4100   3.5839    85.2549
 81      0.0000     0.0000E+00    0.0000E+00    1.000000E+07  0.00800  1.215E-02    0   0.8827   age070_m52            0.0000     1.9774E+02    11.1848   3.9379    82.8132
 82      0.0000     0.0000E+00    0.0000E+00    1.445000E+07  0.00800  8.739E-03    0   0.8552   age078_m52            0.0000     1.6272E+02    10.3832   3.9569    85.1106
 83      0.0000     0.0000E+00    0.0000E+00    2.512000E+07  0.00800  5.676E-03    0   0.8162   age090_m52            0.0000     1.1133E+02     9.0075   3.4907    92.7631
 84      0.0000     0.0000E+00    0.0000E+00    4.000000E+07  0.00800  3.939E-03    0   0.7841   age104_m52            0.0000     8.8000E+01     7.7989   3.2979    97.0161
 85      0.0000     0.0000E+00    0.0000E+00    5.500000E+07  0.00800  3.155E-03    0   0.7627   age110_m52            0.0000     8.8657E+01     7.4057   3.2335   100.5745
 86      0.0000     0.0000E+00    0.0000E+00    1.015200E+08  0.00800  2.206E-03    0   0.7226   age116_m52            0.0000     1.3601E+02     7.9403   2.9845   108.0780
 87      0.0000     0.0000E+00    0.0000E+00    1.609000E+08  0.00800  1.596E-03    0   0.6963   age120_m52            0.0000     1.6396E+02     8.4777   2.7502   110.9264
 88      0.0000     0.0000E+00    0.0000E+00    2.861200E+08  0.00800  1.002E-03    0   0.6665   age125_m52            0.0000     2.6606E+02    10.5970   2.4177   116.3330
 89      0.0000     0.0000E+00    0.0000E+00    5.088000E+08  0.00800  5.759E-04    0   0.6377   age130_m52            0.0000     3.0313E+02    10.9913   2.0687   121.0630
 90      0.0000     0.0000E+00    0.0000E+00    9.047900E+08  0.00800  2.972E-04    0   0.6086   age135_m52            0.0000     1.5699E+02     8.1581   1.6210   115.6342
 91      0.0000     0.0000E+00    0.0000E+00    1.278050E+09  0.00800  2.242E-04    0   0.5907   age138_m52            0.0000     4.9656E+01     4.7397   1.0789   110.5824
 92      0.0000     0.0000E+00    0.0000E+00    1.434000E+09  0.00800  1.645E-04    0   0.5787   age139_m52            0.0000     3.9054E+01     4.3050   1.2342   109.5004
 93      0.0000     0.0000E+00    0.0000E+00    2.500000E+09  0.00800  7.723E-05    0   0.5519   age150_m52            0.0000     1.7945E+01     3.0135   0.9477   103.4277
 94      0.0003     2.0208E-04    2.1391E-04    4.250000E+09  0.00800  4.151E-05    0   0.5320   age158_m52            0.0000     1.4237E+01     2.8894   0.8974   100.0035
 95      0.0000     0.0000E+00    0.0000E+00    6.250000E+09  0.00800  3.010E-05    0   0.5197   age166_m52            0.0000     2.3041E+01     3.6324   0.7198    98.2411
 96      0.0000     0.0000E+00    0.0000E+00    7.500000E+09  0.00800  2.467E-05    0   0.5139   age171_m52            0.0000     2.6322E+01     3.8695   0.6800    97.8649
 97     12.2140     1.9411E+01    1.9520E+01    1.000000E+10  0.00800  1.862E-05    0   0.5054   age181_m52            0.0000     3.9129E+01     4.6792   0.5546    97.5874
