###################################################################
## OUTPUT of StarlightChains_v04.for    [Cid@UFSC - 01/Apr/2007] ##
###################################################################

## Some input info
NGC6528_b_1.cxt                          [arq_obs]
Base.BC03.S                              [arq_base]
NGC6528_b_1.msk                          [arq_masks]
StCv04.C11.config                        [arq_config]
  150                                    [N_base]
    0                                    [N_YAV_components = # of components with extra extinction!]
    0                                    [i_FitPowerLaw (1/0 = Yes/No)]
-9.99                                    [alpha_PowerLaw]
CCM                                      [red_law_option]
 1.458241                                [q_norm = A(l_norm)/A(V)]

## (Re)Sampling Parameters
 3359.00                                 [l_ini (A)]
 6428.00                                 [l_fin (A)]
    1.00                                 [dl    (A)]     (OBS: dl_cushion =    50.00 A)

## Normalization info
 4020.00                                 [l_norm (A) - for base]
 4010.00                                 [llow_norm (A) - window for f_obs]
 4060.00                                 [lupp_norm (A) - window for f_obs]
2.920007E-15                             [fobs_norm (in input units)]

## S/N
 4730.00                                 [llow_SN (A) - window for S/N]
 4780.00                                 [lupp_SN (A) - window for S/N]
  27.543                                 [S/N in S/N window]
  15.038                                 [S/N in norm. window]
 201.971                                 [S/N_err in S/N window]
 110.275                                 [S/N_err in norm. window]
  1.0000                                 [fscale_chi2]

## etc...
  2147483604                             [idum_orig]
  3069                                   [NOl_eff]
   797                                   [Nl_eff]
  2272    NSIGMA                         [Ntot_cliped & clip_method]
  2951410                                [Nglobal_steps]
   7                                     [N_chains]
  40                                     [NEX0s_base = N_base in EX0s-fits]
 0   0   1      129   2.0   2.622E+02    [Clip-Bug, RC-Crash & Burn-In warning-flags, n_censored_weights, wei_nsig_threshold & wei_limit]
   101    100.864    100.860      0.004  [idt_all, wdt_TotTime, wdt_UsrTime & wdt_SysTime (sec)]

## Synthesis Results - Best model ##

 2.37902E+00                             [chi2/Nl_eff]
     1.63960                             [adev (%)]

    96.72881                             [sum-of-x (%)]
 2.18077E-14                             [Flux_tot (units of input spectrum!)]
 1.99843E-09                             [Mini_tot (???)]
 9.95501E-10                             [Mcor_tot (???)]

 -32.87                                  [v0_min  (km/s)]
  82.86                                  [vd_min  (km/s)]
 1.5218                                  [AV_min  (mag)]
 0.0000                                  [YAV_min (mag)]

# j     x_j(%)      Mini_j(%)     Mcor_j(%)     age_j(yr)     Z_j      (L/M)_j    YAV?  Mstars   component_j        a/Fe...       SSP_chi2r SSP_adev(%)   SSP_AV   SSP_x(%)
  1      0.0000     0.0000E+00    0.0000E+00    1.000000E+06  0.00010  8.160E-03    0   1.0000   age020_m22            0.0000     7.2967E+03    62.5924   4.0000   117.5745
  2      4.0978     9.7141E-04    1.9501E-03    3.160000E+06  0.00010  4.759E-02    0   1.0000   age045_m22            0.0000     3.6898E+02    11.8688   3.7857    94.3060
  3      6.1259     3.5771E-03    6.8807E-03    5.010000E+06  0.00010  1.932E-02    0   0.9582   age055_m22            0.0000     6.3756E+02    19.2854   3.9246    84.6467
  4      0.4719     5.3385E-04    9.9635E-04    6.610000E+06  0.00010  9.973E-03    0   0.9297   age061_m22            0.0000     6.9857E+03    61.4053   4.0000   120.8167
  5      0.0000     0.0000E+00    0.0000E+00    8.710000E+06  0.00010  7.690E-03    0   0.9030   age067_m22            0.0000     6.9203E+03    60.9554   4.0000   121.3548
  6      0.2489     4.4043E-04    7.8706E-04    1.000000E+07  0.00010  6.375E-03    0   0.8902   age070_m22            0.0000     7.0217E+03    60.9598   4.0000   121.7537
  7      0.1623     3.7574E-04    6.4786E-04    1.445000E+07  0.00010  4.874E-03    0   0.8589   age078_m22            0.0000     5.7012E+03    55.4809   4.0000   123.4046
  8      0.8420     2.3151E-03    3.7989E-03    2.512000E+07  0.00010  4.103E-03    0   0.8174   age090_m22            0.0000     3.3207E+03    42.5884   4.0000   123.9976
  9      0.8589     2.6518E-03    4.1682E-03    4.000000E+07  0.00010  3.654E-03    0   0.7830   age104_m22            0.0000     2.1332E+03    32.5002   4.0000   122.2489
 10      0.0000     0.0000E+00    0.0000E+00    5.500000E+07  0.00010  3.093E-03    0   0.7597   age110_m22            0.0000     1.8176E+03    28.8788   4.0000   121.1266
 11      0.0000     0.0000E+00    0.0000E+00    1.015200E+08  0.00010  2.431E-03    0   0.7138   age116_m22            0.0000     9.3945E+02    19.4140   4.0000   112.7306
 12      0.0000     0.0000E+00    0.0000E+00    1.609000E+08  0.00010  1.319E-03    0   0.6775   age120_m22            0.0000     4.6068E+02    13.5761   3.9941    97.5052
 13      0.0000     0.0000E+00    0.0000E+00    2.861200E+08  0.00010  1.075E-03    0   0.6412   age125_m22            0.0000     6.4584E+02    16.8311   4.0000   104.3473
 14      0.0000     0.0000E+00    0.0000E+00    5.088000E+08  0.00010  7.183E-04    0   0.6083   age130_m22            0.0000     6.3852E+02    17.5322   3.9630    98.9346
 15      0.0000     0.0000E+00    0.0000E+00    9.047900E+08  0.00010  4.524E-04    0   0.5785   age135_m22            0.0000     6.3501E+02    17.5493   3.7634   100.0629
 16      0.0000     0.0000E+00    0.0000E+00    1.278050E+09  0.00010  3.018E-04    0   0.5588   age138_m22            0.0000     4.4878E+02    14.1621   3.1705   100.0573
 17      0.0000     0.0000E+00    0.0000E+00    1.434000E+09  0.00010  2.691E-04    0   0.5532   age139_m22            0.0000     4.1330E+02    13.4780   3.0042    99.8159
 18      0.0000     0.0000E+00    0.0000E+00    2.500000E+09  0.00010  1.582E-04    0   0.5296   age150_m22            0.0000     4.1213E+02    13.3498   2.8640   101.2514
 19      0.0000     0.0000E+00    0.0000E+00    4.250000E+09  0.00010  1.007E-04    0   0.5110   age158_m22            0.0000     3.4907E+02    11.7421   2.6904   100.2521
 20      0.0000     0.0000E+00    0.0000E+00    6.250000E+09  0.00010  6.869E-05    0   0.4985   age166_m22            0.0000     3.0081E+02    10.2707   2.6091    98.1642
 21      0.0000     0.0000E+00    0.0000E+00    7.500000E+09  0.00010  5.873E-05    0   0.4931   age171_m22            0.0000     3.0358E+02    10.2402   2.5853    97.9081
 22      0.0000     0.0000E+00    0.0000E+00    1.000000E+10  0.00010  4.481E-05    0   0.4854   age181_m22            0.0000     2.9740E+02    10.1266   2.5470    97.5728
 23      0.0000     0.0000E+00    0.0000E+00    1.300000E+10  0.00010  3.489E-05    0   0.4791   age193_m22            0.0000     2.8547E+02     9.8611   2.4922    97.0056
 24      0.0000     0.0000E+00    0.0000E+00    1.500000E+10  0.00010  3.035E-05    0   0.4766   age201_m22            0.0000     2.7938E+02     9.7176   2.4515    96.8824
 25      0.0000     0.0000E+00    0.0000E+00    1.800000E+10  0.00010  2.510E-05    0   0.4735   age213_m22            0.0000     2.6702E+02     9.4061   2.3793    96.4145
 26      0.0000     0.0000E+00    0.0000E+00    1.000000E+06  0.00040  8.458E-03    0   1.0000   age020_m32            0.0000     7.4039E+03    62.7227   4.0000   118.5763
 27      0.0000     0.0000E+00    0.0000E+00    3.160000E+06  0.00040  3.973E-02    0   1.0000   age045_m32            0.0000     2.7886E+03    39.8843   4.0000   121.2228
 28      0.2755     1.6065E-04    3.0740E-04    5.010000E+06  0.00040  1.935E-02    0   0.9532   age055_m32            0.0000     3.8719E+03    48.6481   4.0000   118.3541
 29      0.0000     0.0000E+00    0.0000E+00    6.610000E+06  0.00040  1.204E-02    0   0.9243   age061_m32            0.0000     5.9310E+03    57.3396   4.0000   121.7874
 30      0.3633     4.3447E-04    7.8504E-04    8.710000E+06  0.00040  9.433E-03    0   0.9001   age067_m32            0.0000     5.7280E+03    56.2015   4.0000   122.6535
 31      0.0000     0.0000E+00    0.0000E+00    1.000000E+07  0.00040  8.053E-03    0   0.8877   age070_m32            0.0000     5.4785E+03    55.1243   4.0000   122.7168
 32      0.0000     0.0000E+00    0.0000E+00    1.445000E+07  0.00040  7.027E-03    0   0.8578   age078_m32            0.0000     2.5186E+03    39.4111   4.0000   117.9441
 33      0.0000     0.0000E+00    0.0000E+00    2.512000E+07  0.00040  4.707E-03    0   0.8166   age090_m32            0.0000     1.4622E+03    29.9331   4.0000   114.2317
 34      0.0000     0.0000E+00    0.0000E+00    4.000000E+07  0.00040  3.714E-03    0   0.7827   age104_m32            0.0000     1.0115E+03    23.1724   4.0000   111.9106
 35      0.0000     0.0000E+00    0.0000E+00    5.500000E+07  0.00040  2.982E-03    0   0.7593   age110_m32            0.0000     9.2058E+02    21.1569   4.0000   111.3159
 36      0.0000     0.0000E+00    0.0000E+00    1.015200E+08  0.00040  2.188E-03    0   0.7143   age116_m32            0.0000     6.6667E+02    15.9719   4.0000   107.2647
 37      0.0000     0.0000E+00    0.0000E+00    1.609000E+08  0.00040  1.690E-03    0   0.6856   age120_m32            0.0000     5.8300E+02    16.2979   4.0000   102.4674
 38      0.0000     0.0000E+00    0.0000E+00    2.861200E+08  0.00040  1.152E-03    0   0.6509   age125_m32            0.0000     6.0078E+02    16.9006   3.9306    98.8490
 39      0.0000     0.0000E+00    0.0000E+00    5.088000E+08  0.00040  7.331E-04    0   0.6182   age130_m32            0.0000     6.1042E+02    17.1018   3.7835    99.1035
 40      0.0000     0.0000E+00    0.0000E+00    9.047900E+08  0.00040  3.960E-04    0   0.5890   age135_m32            0.0000     4.4977E+02    14.2318   3.2883    98.8080
 41      0.0000     0.0000E+00    0.0000E+00    1.278050E+09  0.00040  2.854E-04    0   0.5687   age138_m32            0.0000     4.2916E+02    13.7415   2.9490   101.7909
 42      0.0000     0.0000E+00    0.0000E+00    1.434000E+09  0.00040  2.531E-04    0   0.5632   age139_m32            0.0000     4.2222E+02    13.6714   2.8840   101.8469
 43      0.0000     0.0000E+00    0.0000E+00    2.500000E+09  0.00040  1.488E-04    0   0.5386   age150_m32            0.0000     3.5925E+02    12.5270   2.6246   100.2735
 44      1.4279     1.7737E-01    1.8512E-01    4.250000E+09  0.00040  9.082E-05    0   0.5199   age158_m32            0.0000     2.7341E+02     9.9366   2.4885    98.0546
 45      5.4128     9.5983E-01    9.7805E-01    6.250000E+09  0.00040  6.362E-05    0   0.5076   age166_m32            0.0000     2.4306E+02     8.6739   2.4044    95.8299
 46      4.8106     1.0261E+00    1.0355E+00    7.500000E+09  0.00040  5.289E-05    0   0.5027   age171_m32            0.0000     2.2921E+02     8.4045   2.3665    94.6602
 47      1.6215     4.6054E-01    4.5745E-01    1.000000E+10  0.00040  3.972E-05    0   0.4948   age181_m32            0.0000     2.1266E+02     8.0912   2.3081    93.2779
 48      0.7767     2.6688E-01    2.6091E-01    1.300000E+10  0.00040  3.283E-05    0   0.4870   age193_m32            0.0000     2.1924E+02     8.3574   2.2830    95.5059
 49      0.0000     0.0000E+00    0.0000E+00    1.500000E+10  0.00040  2.925E-05    0   0.4854   age201_m32            0.0000     2.2856E+02     8.7711   2.2756    96.7838
 50      0.1953     8.9231E-02    8.6321E-02    1.800000E+10  0.00040  2.469E-05    0   0.4819   age213_m32            0.0000     2.2827E+02     8.8964   2.2395    97.2101
 51      0.0000     0.0000E+00    0.0000E+00    1.000000E+06  0.00400  1.114E-02    0   1.0000   age020_m42            0.0000     6.8574E+03    60.8442   4.0000   118.4398
 52      0.4695     1.3004E-04    2.6103E-04    3.160000E+06  0.00400  4.073E-02    0   0.9999   age045_m42            0.0000     1.6419E+03    30.1845   4.0000   116.0485
 53      0.0000     0.0000E+00    0.0000E+00    5.010000E+06  0.00400  2.534E-02    0   0.9488   age055_m42            0.0000     3.2592E+03    43.8844   4.0000   119.0447
 54      0.7473     3.2639E-04    6.0411E-04    6.610000E+06  0.00400  2.583E-02    0   0.9220   age061_m42            0.0000     1.1139E+03    24.9242   4.0000   111.2469
 55      1.0645     7.0392E-04    1.2694E-03    8.710000E+06  0.00400  1.706E-02    0   0.8983   age067_m42            0.0000     6.8772E+02    21.5701   4.0000   102.3752
 56      1.3871     1.2312E-03    2.1904E-03    1.000000E+07  0.00400  1.271E-02    0   0.8862   age070_m42            0.0000     6.8181E+02    22.2290   4.0000    99.7094
 57      0.0000     0.0000E+00    0.0000E+00    1.445000E+07  0.00400  7.666E-03    0   0.8571   age078_m42            0.0000     1.5767E+03    33.6521   4.0000   108.9506
 58      0.0000     0.0000E+00    0.0000E+00    2.512000E+07  0.00400  5.070E-03    0   0.8174   age090_m42            0.0000     5.2503E+02    18.8549   4.0000    97.0993
 59      0.0097     3.1146E-05    4.9088E-05    4.000000E+07  0.00400  3.505E-03    0   0.7851   age104_m42            0.0000     3.7856E+02    14.3062   3.8717    93.9754
 60      0.0000     0.0000E+00    0.0000E+00    5.500000E+07  0.00400  3.059E-03    0   0.7629   age110_m42            0.0000     3.6382E+02    12.1684   4.0000    97.0682
 61      0.0000     0.0000E+00    0.0000E+00    1.015200E+08  0.00400  2.268E-03    0   0.7207   age116_m42            0.0000     4.8810E+02    15.0081   4.0000   100.0853
 62      0.0000     0.0000E+00    0.0000E+00    1.609000E+08  0.00400  1.720E-03    0   0.6930   age120_m42            0.0000     4.9465E+02    15.1558   3.9128    99.9210
 63      0.0000     0.0000E+00    0.0000E+00    2.861200E+08  0.00400  1.079E-03    0   0.6613   age125_m42            0.0000     4.6569E+02    14.7193   3.5514   100.3853
 64      0.0000     0.0000E+00    0.0000E+00    5.088000E+08  0.00400  6.261E-04    0   0.6313   age130_m42            0.0000     5.0390E+02    15.5508   3.3555   103.2759
 65      0.0000     0.0000E+00    0.0000E+00    9.047900E+08  0.00400  3.535E-04    0   0.6024   age135_m42            0.0000     3.7345E+02    12.9716   2.9357   104.1825
 66      0.0000     0.0000E+00    0.0000E+00    1.278050E+09  0.00400  2.677E-04    0   0.5837   age138_m42            0.0000     1.5133E+02     8.2269   2.2646   101.5069
 67      0.1004     5.9285E-03    6.8027E-03    1.434000E+09  0.00400  1.910E-04    0   0.5716   age139_m42            0.0000     1.9869E+02     9.2921   2.4383   102.2502
 68      0.0000     0.0000E+00    0.0000E+00    2.500000E+09  0.00400  9.818E-05    0   0.5463   age150_m42            0.0000     9.2800E+01     5.7303   2.1641    97.8261
 69      0.0000     0.0000E+00    0.0000E+00    4.250000E+09  0.00400  5.491E-05    0   0.5269   age158_m42            0.0000     5.9405E+01     4.3569   2.0230    95.5640
 70      0.0000     0.0000E+00    0.0000E+00    6.250000E+09  0.00400  3.857E-05    0   0.5151   age166_m42            0.0000     4.1648E+01     3.8177   1.9084    94.0686
 71      0.0000     0.0000E+00    0.0000E+00    7.500000E+09  0.00400  3.243E-05    0   0.5110   age171_m42            0.0000     3.4609E+01     3.6708   1.8403    93.3070
 72      0.0000     0.0000E+00    0.0000E+00    1.000000E+10  0.00400  2.424E-05    0   0.5028   age181_m42            0.0000     2.9008E+01     3.6441   1.7709    92.4842
 73      0.0000     0.0000E+00    0.0000E+00    1.300000E+10  0.00400  1.883E-05    0   0.4927   age193_m42            0.0000     2.6454E+01     3.6746   1.7339    92.1097
 74      0.0000     0.0000E+00    0.0000E+00    1.500000E+10  0.00400  1.685E-05    0   0.4919   age201_m42            0.0000     2.6109E+01     3.5942   1.7362    92.1724
 75      0.0000     0.0000E+00    0.0000E+00    1.800000E+10  0.00400  1.452E-05    0   0.4874   age213_m42            0.0000     2.6128E+01     3.4967   1.7458    92.5406
 76      0.0000     0.0000E+00    0.0000E+00    1.000000E+06  0.00800  1.286E-02    0   1.0000   age020_m52            0.0000     6.6809E+03    59.7678   4.0000   120.6788
 77      0.0000     0.0000E+00    0.0000E+00    3.160000E+06  0.00800  3.147E-02    0   0.9966   age045_m52            0.0000     6.0336E+03    57.6439   4.0000   121.6588
 78      0.0000     0.0000E+00    0.0000E+00    5.010000E+06  0.00800  2.664E-02    0   0.9443   age055_m52            0.0000     3.8929E+03    47.8850   4.0000   120.5065
 79      0.0000     0.0000E+00    0.0000E+00    6.610000E+06  0.00800  2.151E-02    0   0.9177   age061_m52            0.0000     4.0668E+02    15.4419   3.8871    91.8054
 80      0.0530     3.6722E-05    6.5963E-05    8.710000E+06  0.00800  1.628E-02    0   0.8948   age067_m52            0.0000     6.0939E+02    20.8994   4.0000   101.1265
 81      0.0000     0.0000E+00    0.0000E+00    1.000000E+07  0.00800  1.215E-02    0   0.8827   age070_m52            0.0000     1.3000E+03    30.6453   4.0000   110.2932
 82      0.0000     0.0000E+00    0.0000E+00    1.445000E+07  0.00800  8.739E-03    0   0.8552   age078_m52            0.0000     1.4512E+03    31.2671   4.0000   113.4348
 83      0.0000     0.0000E+00    0.0000E+00    2.512000E+07  0.00800  5.676E-03    0   0.8162   age090_m52            0.0000     6.3568E+02    19.4048   4.0000   105.5201
 84      0.0000     0.0000E+00    0.0000E+00    4.000000E+07  0.00800  3.939E-03    0   0.7841   age104_m52            0.0000     4.9166E+02    15.2905   4.0000   102.7953
 85      0.0000     0.0000E+00    0.0000E+00    5.500000E+07  0.00800  3.155E-03    0   0.7627   age110_m52            0.0000     4.9724E+02    14.3333   4.0000   103.9453
 86      0.0000     0.0000E+00    0.0000E+00    1.015200E+08  0.00800  2.206E-03    0   0.7226   age116_m52            0.0000     4.6458E+02    13.9500   4.0000   101.8106
 87      0.0000     0.0000E+00    0.0000E+00    1.609000E+08  0.00800  1.596E-03    0   0.6963   age120_m52            0.0000     4.6226E+02    14.3217   3.8604   100.8109
 88      0.0000     0.0000E+00    0.0000E+00    2.861200E+08  0.00800  1.002E-03    0   0.6665   age125_m52            0.0000     4.9317E+02    15.4666   3.6245   101.9800
 89      0.0000     0.0000E+00    0.0000E+00    5.088000E+08  0.00800  5.759E-04    0   0.6377   age130_m52            0.0000     4.7005E+02    15.1024   3.3126   104.9659
 90      0.0000     0.0000E+00    0.0000E+00    9.047900E+08  0.00800  2.972E-04    0   0.6086   age135_m52            0.0000     2.9184E+02    11.3362   2.7863   103.5606
 91      0.0000     0.0000E+00    0.0000E+00    1.278050E+09  0.00800  2.242E-04    0   0.5907   age138_m52            0.0000     1.1074E+02     7.0369   2.1322   103.4447
 92      0.0026     1.7899E-04    2.0794E-04    1.434000E+09  0.00800  1.645E-04    0   0.5787   age139_m52            0.0000     1.1345E+02     6.9535   2.2720   103.0661
 93      0.0000     0.0000E+00    0.0000E+00    2.500000E+09  0.00800  7.723E-05    0   0.5519   age150_m52            0.0000     4.8311E+01     4.7098   1.9335    99.6493
 94      0.0000     0.0000E+00    0.0000E+00    4.250000E+09  0.00800  4.151E-05    0   0.5320   age158_m52            0.0000     3.8386E+01     4.1843   1.8581    97.3909
 95      0.3660     1.3718E-01    1.4312E-01    6.250000E+09  0.00800  3.010E-05    0   0.5197   age166_m52            0.0000     2.5426E+01     3.8515   1.6808    95.7620
 96      0.2505     1.1455E-01    1.1818E-01    7.500000E+09  0.00800  2.467E-05    0   0.5139   age171_m52            0.0000     2.4987E+01     3.9452   1.6453    95.2552
 97      0.0000     0.0000E+00    0.0000E+00    1.000000E+10  0.00800  1.862E-05    0   0.5054   age181_m52            0.0000     2.8735E+01     4.5958   1.5374    94.4335
