###################################################################
## OUTPUT of StarlightChains_v04.for    [Cid@UFSC - 01/Apr/2007] ##
###################################################################

## Some input info
NGC6218_a_1.cxt                          [arq_obs]
Base.BC03.S                              [arq_base]
NGC6218_a_1.msk                          [arq_masks]
StCv04.C11.config                        [arq_config]
  150                                    [N_base]
    0                                    [N_YAV_components = # of components with extra extinction!]
    0                                    [i_FitPowerLaw (1/0 = Yes/No)]
-9.99                                    [alpha_PowerLaw]
CCM                                      [red_law_option]
 1.458241                                [q_norm = A(l_norm)/A(V)]

## (Re)Sampling Parameters
 3359.00                                 [l_ini (A)]
 6428.00                                 [l_fin (A)]
    1.00                                 [dl    (A)]     (OBS: dl_cushion =    50.00 A)

## Normalization info
 4020.00                                 [l_norm (A) - for base]
 4010.00                                 [llow_norm (A) - window for f_obs]
 4060.00                                 [lupp_norm (A) - window for f_obs]
1.427242E-14                             [fobs_norm (in input units)]

## S/N
 4730.00                                 [llow_SN (A) - window for S/N]
 4780.00                                 [lupp_SN (A) - window for S/N]
  89.798                                 [S/N in S/N window]
  81.145                                 [S/N in norm. window]
  59.740                                 [S/N_err in S/N window]
  53.984                                 [S/N_err in norm. window]
  1.0000                                 [fscale_chi2]

## etc...
  2147483625                             [idum_orig]
  3068                                   [NOl_eff]
  2487                                   [Nl_eff]
   581    NSIGMA                         [Ntot_cliped & clip_method]
  2589300                                [Nglobal_steps]
   7                                     [N_chains]
  42                                     [NEX0s_base = N_base in EX0s-fits]
 0   0   1      282   2.0   8.248E+02    [Clip-Bug, RC-Crash & Burn-In warning-flags, n_censored_weights, wei_nsig_threshold & wei_limit]
    72     72.368     72.360      0.008  [idt_all, wdt_TotTime, wdt_UsrTime & wdt_SysTime (sec)]

## Synthesis Results - Best model ##

 1.52224E+00                             [chi2/Nl_eff]
     1.55903                             [adev (%)]

    99.83805                             [sum-of-x (%)]
 2.61393E-14                             [Flux_tot (units of input spectrum!)]
 5.19204E-10                             [Mini_tot (???)]
 2.59214E-10                             [Mcor_tot (???)]

  -8.70                                  [v0_min  (km/s)]
  61.66                                  [vd_min  (km/s)]
 0.4517                                  [AV_min  (mag)]
 0.0000                                  [YAV_min (mag)]

# j     x_j(%)      Mini_j(%)     Mcor_j(%)     age_j(yr)     Z_j      (L/M)_j    YAV?  Mstars   component_j        a/Fe...       SSP_chi2r SSP_adev(%)   SSP_AV   SSP_x(%)
  1      0.4427     2.7355E-03    5.4792E-03    1.000000E+06  0.00010  8.160E-03    0   1.0000   age020_m22            0.0000     1.1108E+02    10.9727   4.0000    69.2550
  2     10.7438     1.1384E-02    2.2803E-02    3.160000E+06  0.00010  4.759E-02    0   1.0000   age045_m22            0.0000     1.5875E+01     3.3945   1.8070    95.4572
  3      5.2235     1.3634E-02    2.6167E-02    5.010000E+06  0.00010  1.932E-02    0   0.9582   age055_m22            0.0000     9.0858E+01    11.2462   2.3474    75.0558
  4      0.0000     0.0000E+00    0.0000E+00    6.610000E+06  0.00010  9.973E-03    0   0.9297   age061_m22            0.0000     1.0411E+02    11.4843   4.0000    71.7383
  5      0.0000     0.0000E+00    0.0000E+00    8.710000E+06  0.00010  7.690E-03    0   0.9030   age067_m22            0.0000     9.8490E+01    11.2442   3.9941    72.2903
  6      0.0000     0.0000E+00    0.0000E+00    1.000000E+07  0.00010  6.375E-03    0   0.8902   age070_m22            0.0000     9.4375E+01    10.9623   4.0000    72.6178
  7      0.0000     0.0000E+00    0.0000E+00    1.445000E+07  0.00010  4.874E-03    0   0.8589   age078_m22            0.0000     6.7715E+01     9.3435   3.7835    76.4594
  8      0.0000     0.0000E+00    0.0000E+00    2.512000E+07  0.00010  4.103E-03    0   0.8174   age090_m22            0.0000     2.8471E+01     5.6668   3.2615    86.3081
  9      0.0007     9.8957E-06    1.5520E-05    4.000000E+07  0.00010  3.654E-03    0   0.7830   age104_m22            0.0000     3.6756E+01     4.0621   2.8411    95.1748
 10      0.0000     0.0000E+00    0.0000E+00    5.500000E+07  0.00010  3.093E-03    0   0.7597   age110_m22            0.0000     4.3459E+01     4.0217   2.6844    98.7478
 11      0.0000     0.0000E+00    0.0000E+00    1.015200E+08  0.00010  2.431E-03    0   0.7138   age116_m22            0.0000     7.1749E+01     5.0587   2.2519   105.0295
 12      1.7229     6.5868E-02    8.9385E-02    1.609000E+08  0.00010  1.319E-03    0   0.6775   age120_m22            0.0000     5.7833E+01     5.6707   1.7376   109.2435
 13      0.0658     3.0873E-03    3.9651E-03    2.861200E+08  0.00010  1.075E-03    0   0.6412   age125_m22            0.0000     1.9142E+02    11.9183   1.5256   123.6205
 14      0.0000     0.0000E+00    0.0000E+00    5.088000E+08  0.00010  7.183E-04    0   0.6083   age130_m22            0.0000     2.3894E+02    13.9702   1.1975   129.4923
 15      0.0000     0.0000E+00    0.0000E+00    9.047900E+08  0.00010  4.524E-04    0   0.5785   age135_m22            0.0000     2.4179E+02    14.3322   0.9815   131.6271
 16      0.0000     0.0000E+00    0.0000E+00    1.278050E+09  0.00010  3.018E-04    0   0.5588   age138_m22            0.0000     1.0123E+02     9.4405   0.6738   120.7824
 17      0.0000     0.0000E+00    0.0000E+00    1.434000E+09  0.00010  2.691E-04    0   0.5532   age139_m22            0.0000     8.0276E+01     8.4498   0.5617   118.4310
 18      0.0000     0.0000E+00    0.0000E+00    2.500000E+09  0.00010  1.582E-04    0   0.5296   age150_m22            0.0000     6.6702E+01     7.3552   0.4920   117.5114
 19      0.0000     0.0000E+00    0.0000E+00    4.250000E+09  0.00010  1.007E-04    0   0.5110   age158_m22            0.0000     3.2070E+01     5.0935   0.4356   111.8816
 20      0.0043     3.1471E-03    3.1423E-03    6.250000E+09  0.00010  6.869E-05    0   0.4985   age166_m22            0.0000     1.1703E+01     3.1279   0.4663   105.4963
 21      0.0000     0.0000E+00    0.0000E+00    7.500000E+09  0.00010  5.873E-05    0   0.4931   age171_m22            0.0000     9.6199E+00     2.7874   0.4740   104.1788
 22      0.0000     0.0000E+00    0.0000E+00    1.000000E+10  0.00010  4.481E-05    0   0.4854   age181_m22            0.0000     8.8349E+00     2.7339   0.4370   103.7556
 23      0.0203     2.9285E-02    2.8103E-02    1.300000E+10  0.00010  3.489E-05    0   0.4791   age193_m22            0.0000     7.2903E+00     2.5871   0.3852   103.0016
 24      0.0000     0.0000E+00    0.0000E+00    1.500000E+10  0.00010  3.035E-05    0   0.4766   age201_m22            0.0000     6.4259E+00     2.4814   0.3506   102.6383
 25     16.5993     3.3349E+01    3.1628E+01    1.800000E+10  0.00010  2.510E-05    0   0.4735   age213_m22            0.0000     4.6746E+00     2.2222   0.2953   101.5175
 26      0.8597     5.1257E-03    1.0267E-02    1.000000E+06  0.00040  8.458E-03    0   1.0000   age020_m32            0.0000     1.0963E+02    10.8471   4.0000    69.9731
 27      0.0000     0.0000E+00    0.0000E+00    3.160000E+06  0.00040  3.973E-02    0   1.0000   age045_m32            0.0000     3.2705E+01     6.0932   3.1705    85.8640
 28      0.0000     0.0000E+00    0.0000E+00    5.010000E+06  0.00040  1.935E-02    0   0.9532   age055_m32            0.0000     7.2868E+01     9.9943   3.5167    76.4951
 29      0.0000     0.0000E+00    0.0000E+00    6.610000E+06  0.00040  1.204E-02    0   0.9243   age061_m32            0.0000     8.4194E+01    10.4927   3.8447    74.2776
 30      0.0000     0.0000E+00    0.0000E+00    8.710000E+06  0.00040  9.433E-03    0   0.9001   age067_m32            0.0000     7.4524E+01     9.8916   3.8027    75.5655
 31      0.0000     0.0000E+00    0.0000E+00    1.000000E+07  0.00040  8.053E-03    0   0.8877   age070_m32            0.0000     7.0930E+01     9.6260   3.7597    76.1966
 32      0.0001     4.0676E-07    6.9888E-07    1.445000E+07  0.00040  7.027E-03    0   0.8578   age078_m32            0.0000     4.0052E+01     7.1752   3.1668    83.4425
 33      0.0000     0.0000E+00    0.0000E+00    2.512000E+07  0.00040  4.707E-03    0   0.8166   age090_m32            0.0000     2.5365E+01     5.1945   2.7991    89.7404
 34      0.0000     0.0000E+00    0.0000E+00    4.000000E+07  0.00040  3.714E-03    0   0.7827   age104_m32            0.0000     2.9575E+01     3.9787   2.5040    96.2891
 35      0.0000     0.0000E+00    0.0000E+00    5.500000E+07  0.00040  2.982E-03    0   0.7593   age110_m32            0.0000     3.7115E+01     3.9697   2.3953    99.2098
 36      0.0000     0.0000E+00    0.0000E+00    1.015200E+08  0.00040  2.188E-03    0   0.7143   age116_m32            0.0000     1.0485E+02     7.1379   1.9239   111.4264
 37      0.3408     1.0169E-02    1.3965E-02    1.609000E+08  0.00040  1.690E-03    0   0.6856   age120_m32            0.0000     1.6412E+02     9.8364   1.5936   119.1497
 38      0.0000     0.0000E+00    0.0000E+00    2.861200E+08  0.00040  1.152E-03    0   0.6509   age125_m32            0.0000     2.0277E+02    12.4570   1.2492   126.0962
 39      0.0000     0.0000E+00    0.0000E+00    5.088000E+08  0.00040  7.331E-04    0   0.6182   age130_m32            0.0000     2.2153E+02    13.5876   1.0335   129.0286
 40      0.0000     0.0000E+00    0.0000E+00    9.047900E+08  0.00040  3.960E-04    0   0.5890   age135_m32            0.0000     1.0529E+02    10.0499   0.7450   120.7215
 41      0.0000     0.0000E+00    0.0000E+00    1.278050E+09  0.00040  2.854E-04    0   0.5687   age138_m32            0.0000     7.9697E+01     8.2555   0.5223   120.0308
 42      0.0000     0.0000E+00    0.0000E+00    1.434000E+09  0.00040  2.531E-04    0   0.5632   age139_m32            0.0000     7.7386E+01     8.0418   0.4677   119.7011
 43     15.9559     5.4073E+00    5.8335E+00    2.500000E+09  0.00040  1.488E-04    0   0.5386   age150_m32            0.0000     5.0858E+01     6.4682   0.2746   115.0731
 44     16.7062     9.2759E+00    9.6596E+00    4.250000E+09  0.00040  9.082E-05    0   0.5199   age158_m32            0.0000     1.1831E+01     3.2747   0.3128   106.2048
 45      0.5753     4.5599E-01    4.6361E-01    6.250000E+09  0.00040  6.362E-05    0   0.5076   age166_m32            0.0000     2.7312E+00     1.7982   0.3738    98.8586
 46      3.8841     3.7032E+00    3.7288E+00    7.500000E+09  0.00040  5.289E-05    0   0.5027   age171_m32            0.0000     3.0397E+00     1.8404   0.3514    97.0963
 47      2.1040     2.6711E+00    2.6473E+00    1.000000E+10  0.00040  3.972E-05    0   0.4948   age181_m32            0.0000     3.8420E+00     1.9390   0.2939    95.6182
 48      0.0454     6.9680E-02    6.7970E-02    1.300000E+10  0.00040  3.283E-05    0   0.4870   age193_m32            0.0000     3.1038E+00     2.0487   0.1964   100.3499
 49      0.0000     7.1773E-05    6.9782E-05    1.500000E+10  0.00040  2.925E-05    0   0.4854   age201_m32            0.0000     5.2936E+00     2.5775   0.1449   103.2292
 50      0.0009     1.7807E-03    1.7188E-03    1.800000E+10  0.00040  2.469E-05    0   0.4819   age213_m32            0.0000     6.6893E+00     2.8662   0.0898   104.3229
 51      0.5636     2.5513E-03    5.1103E-03    1.000000E+06  0.00400  1.114E-02    0   1.0000   age020_m42            0.0000     1.0368E+02    11.1631   3.9918    70.2420
 52      0.0000     0.0000E+00    0.0000E+00    3.160000E+06  0.00400  4.073E-02    0   0.9999   age045_m42            0.0000     2.1120E+01     4.5658   2.8160    90.2079
 53      0.0000     0.0000E+00    0.0000E+00    5.010000E+06  0.00400  2.534E-02    0   0.9488   age055_m42            0.0000     4.7883E+01     7.8598   3.3422    80.2808
 54      0.0013     2.4992E-06    4.6154E-06    6.610000E+06  0.00400  2.583E-02    0   0.9220   age061_m42            0.0000     2.6084E+01     4.0255   2.6054    92.1098
 55      0.0000     1.2197E-07    2.1945E-07    8.710000E+06  0.00400  1.706E-02    0   0.8983   age067_m42            0.0000     2.9643E+01     5.9177   2.5150    87.4783
 56      0.0000     0.0000E+00    0.0000E+00    1.000000E+07  0.00400  1.271E-02    0   0.8862   age070_m42            0.0000     4.0777E+01     7.6604   2.5506    84.4099
 57      0.0000     0.0000E+00    0.0000E+00    1.445000E+07  0.00400  7.666E-03    0   0.8571   age078_m42            0.0000     5.6254E+01     8.8201   2.9978    79.9365
 58      0.0000     0.0000E+00    0.0000E+00    2.512000E+07  0.00400  5.070E-03    0   0.8174   age090_m42            0.0000     3.3696E+01     6.9642   2.3953    86.8384
 59      0.0000     0.0000E+00    0.0000E+00    4.000000E+07  0.00400  3.505E-03    0   0.7851   age104_m42            0.0000     2.0460E+01     4.8468   2.0043    92.4142
 60      0.0000     0.0000E+00    0.0000E+00    5.500000E+07  0.00400  3.059E-03    0   0.7629   age110_m42            0.0000     2.7948E+01     3.5995   1.8846   103.5387
 61      0.0644     1.4313E-03    2.0661E-03    1.015200E+08  0.00400  2.268E-03    0   0.7207   age116_m42            0.0000     1.3216E+02     9.5183   1.5233   119.4203
 62      1.3113     3.8444E-02    5.3364E-02    1.609000E+08  0.00400  1.720E-03    0   0.6930   age120_m42            0.0000     1.4273E+02    10.6168   1.3296   123.2926
 63      0.0000     0.0000E+00    0.0000E+00    2.861200E+08  0.00400  1.079E-03    0   0.6613   age125_m42            0.0000     1.3268E+02    10.8643   0.9660   124.4122
 64      0.0000     0.0000E+00    0.0000E+00    5.088000E+08  0.00400  6.261E-04    0   0.6313   age130_m42            0.0000     1.6103E+02    11.8946   0.7207   129.8045
 65      0.0000     0.0000E+00    0.0000E+00    9.047900E+08  0.00400  3.535E-04    0   0.6024   age135_m42            0.0000     8.5874E+01     9.0954   0.4513   124.7075
 66      0.0000     0.0000E+00    0.0000E+00    1.278050E+09  0.00400  2.677E-04    0   0.5837   age138_m42            0.0000     3.9696E+01     6.7764  -0.0947   116.1595
 67      0.0000     0.0000E+00    0.0000E+00    1.434000E+09  0.00400  1.910E-04    0   0.5716   age139_m42            0.0000     4.2788E+01     7.6936   0.0000   118.8936
 68      0.5077     2.6076E-01    2.8533E-01    2.500000E+09  0.00400  9.818E-05    0   0.5463   age150_m42            0.0000     1.9984E+01     4.8464  -0.0861   107.5609
 69      0.0000     0.0000E+00    0.0000E+00    4.250000E+09  0.00400  5.491E-05    0   0.5269   age158_m42            0.0000     2.4263E+01     4.2743  -0.1465   102.2773
 70      6.4122     8.3834E+00    8.6495E+00    6.250000E+09  0.00400  3.857E-05    0   0.5151   age166_m42            0.0000     3.1812E+01     4.7294  -0.2542   100.2527
 71      6.2389     9.7012E+00    9.9295E+00    7.500000E+09  0.00400  3.243E-05    0   0.5110   age171_m42            0.0000     3.7911E+01     5.0998  -0.3274    99.5241
 72      4.4144     9.1833E+00    9.2486E+00    1.000000E+10  0.00400  2.424E-05    0   0.5028   age181_m42            0.0000     4.9250E+01     5.5759  -0.3994    98.6429
 73      0.0000     0.0000E+00    0.0000E+00    1.300000E+10  0.00400  1.883E-05    0   0.4927   age193_m42            0.0000     6.1806E+01     5.8874  -0.4307    98.0710
 74      0.0010     3.0608E-03    3.0157E-03    1.500000E+10  0.00400  1.685E-05    0   0.4919   age201_m42            0.0000     5.8445E+01     5.7777  -0.4265    98.0717
 75      0.0000     0.0000E+00    0.0000E+00    1.800000E+10  0.00400  1.452E-05    0   0.4874   age213_m42            0.0000     5.3245E+01     5.5802  -0.4126    98.3579
 76      0.0000     0.0000E+00    0.0000E+00    1.000000E+06  0.00800  1.286E-02    0   1.0000   age020_m52            0.0000     9.0739E+01    10.4470   3.9461    72.4900
 77      0.0000     0.0000E+00    0.0000E+00    3.160000E+06  0.00800  3.147E-02    0   0.9966   age045_m52            0.0000     8.3866E+01    10.2116   3.8529    74.1360
 78      0.0001     2.3342E-07    4.4150E-07    5.010000E+06  0.00800  2.664E-02    0   0.9443   age055_m52            0.0000     5.8876E+01     8.4497   3.4797    78.8660
 79      0.0000     0.0000E+00    0.0000E+00    6.610000E+06  0.00800  2.151E-02    0   0.9177   age061_m52            0.0000     3.4126E+01     6.6666   2.1308    86.5386
 80      0.0000     0.0000E+00    0.0000E+00    8.710000E+06  0.00800  1.628E-02    0   0.8948   age067_m52            0.0000     3.2025E+01     6.3426   2.4789    87.7416
 81      0.0000     0.0000E+00    0.0000E+00    1.000000E+07  0.00800  1.215E-02    0   0.8827   age070_m52            0.0000     4.0546E+01     7.1415   2.8434    85.1610
 82      0.0000     0.0000E+00    0.0000E+00    1.445000E+07  0.00800  8.739E-03    0   0.8552   age078_m52            0.0000     3.4754E+01     6.0961   2.8434    87.7290
 83      0.0000     0.0000E+00    0.0000E+00    2.512000E+07  0.00800  5.676E-03    0   0.8162   age090_m52            0.0000     3.5504E+01     4.6112   2.3451    95.8887
 84      0.0000     0.0000E+00    0.0000E+00    4.000000E+07  0.00800  3.939E-03    0   0.7841   age104_m52            0.0000     3.8641E+01     3.9368   2.0961   101.6978
 85      0.0000     0.0000E+00    0.0000E+00    5.500000E+07  0.00800  3.155E-03    0   0.7627   age110_m52            0.0000     5.1390E+01     4.5740   1.9897   106.4098
 86      0.0000     0.0000E+00    0.0000E+00    1.015200E+08  0.00800  2.206E-03    0   0.7226   age116_m52            0.0000     9.4067E+01     7.8845   1.6548   116.4493
 87      0.5804     1.8337E-02    2.5575E-02    1.609000E+08  0.00800  1.596E-03    0   0.6963   age120_m52            0.0000     1.1198E+02     9.3922   1.3762   120.8950
 88      0.0000     0.0000E+00    0.0000E+00    2.861200E+08  0.00800  1.002E-03    0   0.6665   age125_m52            0.0000     1.7673E+02    12.9791   0.9240   130.5529
 89      0.0000     0.0000E+00    0.0000E+00    5.088000E+08  0.00800  5.759E-04    0   0.6377   age130_m52            0.0000     1.8528E+02    14.1074   0.5234   137.3788
 90      0.0000     0.0000E+00    0.0000E+00    9.047900E+08  0.00800  2.972E-04    0   0.6086   age135_m52            0.0000     8.7493E+01    10.7215   0.1671   128.3795
 91      0.0000     0.0000E+00    0.0000E+00    1.278050E+09  0.00800  2.242E-04    0   0.5907   age138_m52            0.0000     4.8426E+01     7.6446  -0.2731   119.6127
 92      0.0000     0.0000E+00    0.0000E+00    1.434000E+09  0.00800  1.645E-04    0   0.5787   age139_m52            0.0000     3.9689E+01     6.9234  -0.1086   118.2747
 93      0.0000     0.0000E+00    0.0000E+00    2.500000E+09  0.00800  7.723E-05    0   0.5519   age150_m52            0.0000     4.2241E+01     6.0406  -0.3465   110.1396
 94      0.0000     0.0000E+00    0.0000E+00    4.250000E+09  0.00800  4.151E-05    0   0.5320   age158_m52            0.0000     4.0784E+01     5.6948  -0.3698   105.6604
 95      0.5926     9.9282E-01    1.0335E+00    6.250000E+09  0.00800  3.010E-05    0   0.5197   age166_m52            0.0000     5.9126E+01     6.3931  -0.5472   103.6461
 96      0.6490     1.3266E+00    1.3655E+00    7.500000E+09  0.00800  2.467E-05    0   0.5139   age171_m52            0.0000     6.4947E+01     6.6278  -0.5886   103.2324
 97      0.0000     0.0000E+00    0.0000E+00    1.000000E+10  0.00800  1.862E-05    0   0.5054   age181_m52            0.0000     8.3720E+01     7.4029  -0.7240   103.0876
