###################################################################
## OUTPUT of StarlightChains_v04.for    [Cid@UFSC - 01/Apr/2007] ##
###################################################################

## Some input info
NGC6528_b_2.cxt                          [arq_obs]
Base.BC03.S                              [arq_base]
NGC6528_b_2.msk                          [arq_masks]
StCv04.C11.config                        [arq_config]
  150                                    [N_base]
    0                                    [N_YAV_components = # of components with extra extinction!]
    0                                    [i_FitPowerLaw (1/0 = Yes/No)]
-9.99                                    [alpha_PowerLaw]
CCM                                      [red_law_option]
 1.458241                                [q_norm = A(l_norm)/A(V)]

## (Re)Sampling Parameters
 3359.00                                 [l_ini (A)]
 6428.00                                 [l_fin (A)]
    1.00                                 [dl    (A)]     (OBS: dl_cushion =    50.00 A)

## Normalization info
 4020.00                                 [l_norm (A) - for base]
 4010.00                                 [llow_norm (A) - window for f_obs]
 4060.00                                 [lupp_norm (A) - window for f_obs]
4.330667E-15                             [fobs_norm (in input units)]

## S/N
 4730.00                                 [llow_SN (A) - window for S/N]
 4780.00                                 [lupp_SN (A) - window for S/N]
  27.791                                 [S/N in S/N window]
  14.946                                 [S/N in norm. window]
 304.113                                 [S/N_err in S/N window]
 163.548                                 [S/N_err in norm. window]
  1.0000                                 [fscale_chi2]

## etc...
  2147483603                             [idum_orig]
  3069                                   [NOl_eff]
   810                                   [Nl_eff]
  2259    NSIGMA                         [Ntot_cliped & clip_method]
  2735180                                [Nglobal_steps]
   7                                     [N_chains]
  38                                     [NEX0s_base = N_base in EX0s-fits]
 0   0   1      139   2.0   3.771E+02    [Clip-Bug, RC-Crash & Burn-In warning-flags, n_censored_weights, wei_nsig_threshold & wei_limit]
    90     90.835     90.827      0.008  [idt_all, wdt_TotTime, wdt_UsrTime & wdt_SysTime (sec)]

## Synthesis Results - Best model ##

 3.14423E+00                             [chi2/Nl_eff]
     2.39860                             [adev (%)]

    96.82224                             [sum-of-x (%)]
 3.43329E-14                             [Flux_tot (units of input spectrum!)]
 2.35793E-09                             [Mini_tot (???)]
 1.18565E-09                             [Mcor_tot (???)]

  -7.34                                  [v0_min  (km/s)]
  60.39                                  [vd_min  (km/s)]
 1.5656                                  [AV_min  (mag)]
 0.0000                                  [YAV_min (mag)]

# j     x_j(%)      Mini_j(%)     Mcor_j(%)     age_j(yr)     Z_j      (L/M)_j    YAV?  Mstars   component_j        a/Fe...       SSP_chi2r SSP_adev(%)   SSP_AV   SSP_x(%)
  1      1.3569     2.5007E-03    4.9732E-03    1.000000E+06  0.00010  8.160E-03    0   1.0000   age020_m22            0.0000     4.7738E+03    47.8735   4.0000    98.0164
  2      3.2933     1.0407E-03    2.0697E-03    3.160000E+06  0.00010  4.759E-02    0   1.0000   age045_m22            0.0000     3.9964E+02    10.5733   3.8876    95.2211
  3      3.7411     2.9120E-03    5.5492E-03    5.010000E+06  0.00010  1.932E-02    0   0.9582   age055_m22            0.0000     7.4796E+02    17.7525   4.0000    88.7522
  4      0.0000     0.0000E+00    0.0000E+00    6.610000E+06  0.00010  9.973E-03    0   0.9297   age061_m22            0.0000     4.8245E+03    47.2048   4.0000   101.0199
  5      0.0000     0.0000E+00    0.0000E+00    8.710000E+06  0.00010  7.690E-03    0   0.9030   age067_m22            0.0000     4.7194E+03    46.8218   4.0000   101.5146
  6      1.3730     3.2389E-03    5.7340E-03    1.000000E+07  0.00010  6.375E-03    0   0.8902   age070_m22            0.0000     4.7079E+03    46.8026   4.0000   101.7576
  7      0.0000     0.0000E+00    0.0000E+00    1.445000E+07  0.00010  4.874E-03    0   0.8589   age078_m22            0.0000     3.7266E+03    42.4738   4.0000   104.3316
  8      0.8466     3.1030E-03    5.0442E-03    2.512000E+07  0.00010  4.103E-03    0   0.8174   age090_m22            0.0000     2.0917E+03    32.4784   4.0000   108.0811
  9      1.0090     4.1528E-03    6.4667E-03    4.000000E+07  0.00010  3.654E-03    0   0.7830   age104_m22            0.0000     1.3340E+03    24.6821   4.0000   109.1931
 10      0.5246     2.5506E-03    3.8536E-03    5.500000E+07  0.00010  3.093E-03    0   0.7597   age110_m22            0.0000     1.1450E+03    22.0367   4.0000   109.0791
 11      0.0000     0.0000E+00    0.0000E+00    1.015200E+08  0.00010  2.431E-03    0   0.7138   age116_m22            0.0000     8.1160E+02    15.8569   4.0000   106.2066
 12      0.0000     0.0000E+00    0.0000E+00    1.609000E+08  0.00010  1.319E-03    0   0.6775   age120_m22            0.0000     6.2324E+02    11.8876   4.0000    99.4365
 13      0.0000     0.0000E+00    0.0000E+00    2.861200E+08  0.00010  1.075E-03    0   0.6412   age125_m22            0.0000     9.4294E+02    14.6170   4.0000   102.7338
 14      0.0000     0.0000E+00    0.0000E+00    5.088000E+08  0.00010  7.183E-04    0   0.6083   age130_m22            0.0000     1.0437E+03    15.4601   3.7693   103.9295
 15      0.0000     0.0000E+00    0.0000E+00    9.047900E+08  0.00010  4.524E-04    0   0.5785   age135_m22            0.0000     1.0358E+03    15.5342   3.5610   105.1142
 16      0.0000     0.0000E+00    0.0000E+00    1.278050E+09  0.00010  3.018E-04    0   0.5588   age138_m22            0.0000     6.6798E+02    12.2780   3.0729   103.3047
 17      0.0000     0.0000E+00    0.0000E+00    1.434000E+09  0.00010  2.691E-04    0   0.5532   age139_m22            0.0000     5.9817E+02    11.6553   2.9238   102.7245
 18      0.0000     0.0000E+00    0.0000E+00    2.500000E+09  0.00010  1.582E-04    0   0.5296   age150_m22            0.0000     5.6841E+02    11.4402   2.8247   103.5591
 19      0.0009     1.2707E-04    1.2913E-04    4.250000E+09  0.00010  1.007E-04    0   0.5110   age158_m22            0.0000     4.4008E+02    10.0956   2.6726   102.1775
 20      0.0000     0.0000E+00    0.0000E+00    6.250000E+09  0.00010  6.869E-05    0   0.4985   age166_m22            0.0000     3.4901E+02     9.0362   2.6223    99.6044
 21      0.0000     0.0000E+00    0.0000E+00    7.500000E+09  0.00010  5.873E-05    0   0.4931   age171_m22            0.0000     3.4495E+02     9.0791   2.6215    99.0781
 22      0.0000     0.0000E+00    0.0000E+00    1.000000E+10  0.00010  4.481E-05    0   0.4854   age181_m22            0.0000     3.3742E+02     8.9907   2.5839    98.6866
 23      0.0000     0.0000E+00    0.0000E+00    1.300000E+10  0.00010  3.489E-05    0   0.4791   age193_m22            0.0000     3.1969E+02     8.7662   2.5255    98.1440
 24      0.0000     0.0000E+00    0.0000E+00    1.500000E+10  0.00010  3.035E-05    0   0.4766   age201_m22            0.0000     3.0845E+02     8.6459   2.4857    97.9995
 25      0.0000     0.0000E+00    0.0000E+00    1.800000E+10  0.00010  2.510E-05    0   0.4735   age213_m22            0.0000     2.8565E+02     8.3899   2.4177    97.4534
 26      0.4419     7.8575E-04    1.5626E-03    1.000000E+06  0.00040  8.458E-03    0   1.0000   age020_m32            0.0000     4.8696E+03    48.0415   4.0000    98.7835
 27      0.0000     0.0000E+00    0.0000E+00    3.160000E+06  0.00040  3.973E-02    0   1.0000   age045_m32            0.0000     1.8914E+03    30.6583   4.0000   107.0524
 28      0.6686     5.1962E-04    9.8503E-04    5.010000E+06  0.00040  1.935E-02    0   0.9532   age055_m32            0.0000     3.0119E+03    37.8191   4.0000   103.0410
 29      0.3278     4.0945E-04    7.5263E-04    6.610000E+06  0.00040  1.204E-02    0   0.9243   age061_m32            0.0000     4.0875E+03    44.0386   4.0000   102.8289
 30      0.0000     0.0000E+00    0.0000E+00    8.710000E+06  0.00040  9.433E-03    0   0.9001   age067_m32            0.0000     3.8748E+03    43.1092   4.0000   103.7491
 31      0.3954     7.3837E-04    1.3035E-03    1.000000E+07  0.00040  8.053E-03    0   0.8877   age070_m32            0.0000     3.7070E+03    42.2836   4.0000   104.0754
 32      0.2769     5.9251E-04    1.0108E-03    1.445000E+07  0.00040  7.027E-03    0   0.8578   age078_m32            0.0000     1.9481E+03    30.7238   4.0000   105.3830
 33      0.0000     0.0000E+00    0.0000E+00    2.512000E+07  0.00040  4.707E-03    0   0.8166   age090_m32            0.0000     1.2220E+03    23.4874   4.0000   105.4790
 34      0.1092     4.4234E-04    6.8853E-04    4.000000E+07  0.00040  3.714E-03    0   0.7827   age104_m32            0.0000     8.8393E+02    18.3498   4.0000   105.4080
 35      0.0000     0.0000E+00    0.0000E+00    5.500000E+07  0.00040  2.982E-03    0   0.7593   age110_m32            0.0000     8.1940E+02    16.8980   4.0000   105.3244
 36      0.0000     0.0000E+00    0.0000E+00    1.015200E+08  0.00040  2.188E-03    0   0.7143   age116_m32            0.0000     7.4686E+02    13.7673   4.0000   103.8450
 37      0.0000     0.0000E+00    0.0000E+00    1.609000E+08  0.00040  1.690E-03    0   0.6856   age120_m32            0.0000     8.3255E+02    13.8479   4.0000   102.1374
 38      0.0000     0.0000E+00    0.0000E+00    2.861200E+08  0.00040  1.152E-03    0   0.6509   age125_m32            0.0000     9.5569E+02    14.7632   3.7597   103.5562
 39      0.0000     0.0000E+00    0.0000E+00    5.088000E+08  0.00040  7.331E-04    0   0.6182   age130_m32            0.0000     9.8526E+02    15.1234   3.5839   104.1587
 40      0.0000     0.0000E+00    0.0000E+00    9.047900E+08  0.00040  3.960E-04    0   0.5890   age135_m32            0.0000     6.7785E+02    12.5438   3.1303   102.7871
 41      0.0000     0.0000E+00    0.0000E+00    1.278050E+09  0.00040  2.854E-04    0   0.5687   age138_m32            0.0000     5.9876E+02    11.7604   2.8626   104.7743
 42      0.0000     0.0000E+00    0.0000E+00    1.434000E+09  0.00040  2.531E-04    0   0.5632   age139_m32            0.0000     5.8732E+02    11.6749   2.8115   104.6458
 43      0.0000     0.0000E+00    0.0000E+00    2.500000E+09  0.00040  1.488E-04    0   0.5386   age150_m32            0.0000     4.7704E+02    10.6771   2.5616   102.8432
 44      0.0000     0.0000E+00    0.0000E+00    4.250000E+09  0.00040  9.082E-05    0   0.5199   age158_m32            0.0000     3.1422E+02     8.6514   2.4752    99.7831
 45      0.0000     0.0000E+00    0.0000E+00    6.250000E+09  0.00040  6.362E-05    0   0.5076   age166_m32            0.0000     2.4172E+02     7.7666   2.4538    96.6893
 46      0.0000     0.0000E+00    0.0000E+00    7.500000E+09  0.00040  5.289E-05    0   0.5027   age171_m32            0.0000     2.2456E+02     7.5132   2.4168    95.4493
 47      0.0000     4.1606E-06    4.0941E-06    1.000000E+10  0.00040  3.972E-05    0   0.4948   age181_m32            0.0000     2.0719E+02     7.2374   2.3496    94.0825
 48      0.0004     1.7437E-04    1.6888E-04    1.300000E+10  0.00040  3.283E-05    0   0.4870   age193_m32            0.0000     2.2820E+02     7.4401   2.2985    96.6759
 49      0.0000     0.0000E+00    0.0000E+00    1.500000E+10  0.00040  2.925E-05    0   0.4854   age201_m32            0.0000     2.4874E+02     7.7341   2.2765    98.1940
 50      0.0000     0.0000E+00    0.0000E+00    1.800000E+10  0.00040  2.469E-05    0   0.4819   age213_m32            0.0000     2.5288E+02     7.8203   2.2364    98.6706
 51      0.0153     2.0613E-05    4.0994E-05    1.000000E+06  0.00400  1.114E-02    0   1.0000   age020_m42            0.0000     4.5210E+03    46.5650   4.0000    99.0543
 52      0.9456     3.4914E-04    6.9427E-04    3.160000E+06  0.00400  4.073E-02    0   0.9999   age045_m42            0.0000     1.1428E+03    23.3095   4.0000   105.6181
 53      0.0000     0.0000E+00    0.0000E+00    5.010000E+06  0.00400  2.534E-02    0   0.9488   age055_m42            0.0000     2.2775E+03    33.8197   4.0000   104.1573
 54      1.3400     7.8016E-04    1.4305E-03    6.610000E+06  0.00400  2.583E-02    0   0.9220   age061_m42            0.0000     8.7886E+02    19.4167   4.0000   103.6585
 55      1.4331     1.2633E-03    2.2568E-03    8.710000E+06  0.00400  1.706E-02    0   0.8983   age067_m42            0.0000     7.7262E+02    17.4324   4.0000    99.9712
 56      0.3093     3.6594E-04    6.4494E-04    1.000000E+07  0.00400  1.271E-02    0   0.8862   age070_m42            0.0000     8.5125E+02    18.3069   4.0000    98.9813
 57      0.0000     0.0000E+00    0.0000E+00    1.445000E+07  0.00400  7.666E-03    0   0.8571   age078_m42            0.0000     1.5427E+03    26.9355   4.0000   100.9700
 58      0.0000     0.0000E+00    0.0000E+00    2.512000E+07  0.00400  5.070E-03    0   0.8174   age090_m42            0.0000     6.6238E+02    16.0742   4.0000    98.4500
 59      0.0000     0.0000E+00    0.0000E+00    4.000000E+07  0.00400  3.505E-03    0   0.7851   age104_m42            0.0000     3.9335E+02    12.2800   4.0000    95.2507
 60      0.0000     0.0000E+00    0.0000E+00    5.500000E+07  0.00400  3.059E-03    0   0.7629   age110_m42            0.0000     4.6504E+02    10.7011   4.0000    99.2558
 61      0.0000     0.0000E+00    0.0000E+00    1.015200E+08  0.00400  2.268E-03    0   0.7207   age116_m42            0.0000     7.1419E+02    12.7937   3.9210   102.6146
 62      0.0000     0.0000E+00    0.0000E+00    1.609000E+08  0.00400  1.720E-03    0   0.6930   age120_m42            0.0000     7.4126E+02    13.1446   3.7501   104.3738
 63      0.0000     0.0000E+00    0.0000E+00    2.861200E+08  0.00400  1.079E-03    0   0.6613   age125_m42            0.0000     7.3737E+02    12.7900   3.4153   104.5359
 64      0.0000     0.0000E+00    0.0000E+00    5.088000E+08  0.00400  6.261E-04    0   0.6313   age130_m42            0.0000     7.8816E+02    13.4034   3.2165   107.4158
 65      0.0000     0.0000E+00    0.0000E+00    9.047900E+08  0.00400  3.535E-04    0   0.6024   age135_m42            0.0000     5.3552E+02    11.1200   2.8197   107.7104
 66      0.1222     6.8633E-03    7.9671E-03    1.278050E+09  0.00400  2.677E-04    0   0.5837   age138_m42            0.0000     2.0499E+02     7.5684   2.1509   104.3369
 67      0.0000     0.0000E+00    0.0000E+00    1.434000E+09  0.00400  1.910E-04    0   0.5716   age139_m42            0.0000     2.7595E+02     8.4429   2.2994   105.5406
 68      0.0000     0.0000E+00    0.0000E+00    2.500000E+09  0.00400  9.818E-05    0   0.5463   age150_m42            0.0000     1.0644E+02     5.6388   2.0289   100.6375
 69      0.0000     0.0000E+00    0.0000E+00    4.250000E+09  0.00400  5.491E-05    0   0.5269   age158_m42            0.0000     5.8092E+01     4.3513   1.9276    97.7364
 70      0.0000     0.0000E+00    0.0000E+00    6.250000E+09  0.00400  3.857E-05    0   0.5151   age166_m42            0.0000     3.9833E+01     4.0299   1.7937    96.3547
 71      0.0000     0.0000E+00    0.0000E+00    7.500000E+09  0.00400  3.243E-05    0   0.5110   age171_m42            0.0000     3.4965E+01     3.9816   1.7147    95.6933
 72      0.0114     7.0633E-03    7.0629E-03    1.000000E+10  0.00400  2.424E-05    0   0.5028   age181_m42            0.0000     3.2237E+01     4.0296   1.6365    94.9209
 73      1.9987     1.5963E+00    1.5641E+00    1.300000E+10  0.00400  1.883E-05    0   0.4927   age193_m42            0.0000     3.2053E+01     4.1073   1.6032    94.4934
 74      2.3125     2.0639E+00    2.0190E+00    1.500000E+10  0.00400  1.685E-05    0   0.4919   age201_m42            0.0000     3.1626E+01     3.9988   1.6119    94.5161
 75      1.3081     1.3548E+00    1.3132E+00    1.800000E+10  0.00400  1.452E-05    0   0.4874   age213_m42            0.0000     3.1137E+01     3.8438   1.6343    94.7832
 76      0.0000     0.0000E+00    0.0000E+00    1.000000E+06  0.00800  1.286E-02    0   1.0000   age020_m52            0.0000     4.3226E+03    45.6569   4.0000   100.9935
 77      0.0000     0.0000E+00    0.0000E+00    3.160000E+06  0.00800  3.147E-02    0   0.9966   age045_m52            0.0000     4.0166E+03    44.0470   4.0000   102.4232
 78      0.0000     0.0000E+00    0.0000E+00    5.010000E+06  0.00800  2.664E-02    0   0.9443   age055_m52            0.0000     2.6756E+03    36.7322   4.0000   104.1880
 79      0.0000     0.0000E+00    0.0000E+00    6.610000E+06  0.00800  2.151E-02    0   0.9177   age061_m52            0.0000     4.2098E+02    13.3180   4.0000    93.2579
 80      0.0000     0.0000E+00    0.0000E+00    8.710000E+06  0.00800  1.628E-02    0   0.8948   age067_m52            0.0000     7.5006E+02    17.1632   4.0000    99.9973
 81      0.0000     0.0000E+00    0.0000E+00    1.000000E+07  0.00800  1.215E-02    0   0.8827   age070_m52            0.0000     1.2938E+03    24.5134   4.0000   103.2233
 82      0.0000     0.0000E+00    0.0000E+00    1.445000E+07  0.00800  8.739E-03    0   0.8552   age078_m52            0.0000     1.3018E+03    24.7177   4.0000   104.9400
 83      0.0000     0.0000E+00    0.0000E+00    2.512000E+07  0.00800  5.676E-03    0   0.8162   age090_m52            0.0000     7.4661E+02    15.9497   4.0000   103.6348
 84      0.0000     0.0000E+00    0.0000E+00    4.000000E+07  0.00800  3.939E-03    0   0.7841   age104_m52            0.0000     6.1652E+02    12.8400   4.0000   102.5913
 85      0.0000     0.0000E+00    0.0000E+00    5.500000E+07  0.00800  3.155E-03    0   0.7627   age110_m52            0.0000     6.1984E+02    12.0900   4.0000   103.0938
 86      0.0000     0.0000E+00    0.0000E+00    1.015200E+08  0.00800  2.206E-03    0   0.7226   age116_m52            0.0000     6.4542E+02    11.9216   3.9785   102.6522
 87      0.0000     0.0000E+00    0.0000E+00    1.609000E+08  0.00800  1.596E-03    0   0.6963   age120_m52            0.0000     6.8519E+02    12.3356   3.7428   104.4413
 88      0.0000     0.0000E+00    0.0000E+00    2.861200E+08  0.00800  1.002E-03    0   0.6665   age125_m52            0.0000     8.0550E+02    13.8631   3.4258   106.8144
 89      0.0000     0.0000E+00    0.0000E+00    5.088000E+08  0.00800  5.759E-04    0   0.6377   age130_m52            0.0000     7.7708E+02    14.0770   3.0499   110.6617
 90      0.0000     0.0000E+00    0.0000E+00    9.047900E+08  0.00800  2.972E-04    0   0.6086   age135_m52            0.0000     4.5855E+02    11.2097   2.5077   108.8528
 91      0.0000     0.0000E+00    0.0000E+00    1.278050E+09  0.00800  2.242E-04    0   0.5907   age138_m52            0.0000     1.6908E+02     7.5607   1.9417   106.7448
 92      0.0000     0.0000E+00    0.0000E+00    1.434000E+09  0.00800  1.645E-04    0   0.5787   age139_m52            0.0000     1.6704E+02     7.2770   2.0879   106.4334
 93      0.0000     0.0000E+00    0.0000E+00    2.500000E+09  0.00800  7.723E-05    0   0.5519   age150_m52            0.0000     6.2142E+01     5.5036   1.7449   102.6523
 94      1.1967     4.3356E-01    4.5871E-01    4.250000E+09  0.00800  4.151E-05    0   0.5320   age158_m52            0.0000     4.2592E+01     4.8885   1.6772   100.1861
 95      6.6646     3.3298E+00    3.4415E+00    6.250000E+09  0.00800  3.010E-05    0   0.5197   age166_m52            0.0000     2.7495E+01     4.7947   1.4767    98.6369
 96      3.3663     2.0521E+00    2.0972E+00    7.500000E+09  0.00800  2.467E-05    0   0.5139   age171_m52            0.0000     2.6895E+01     4.9282   1.4329    98.1810
 97     14.9196     1.2050E+01    1.2111E+01    1.000000E+10  0.00800  1.862E-05    0   0.5054   age181_m52            0.0000     3.0431E+01     5.6030   1.2912    97.6703
