###################################################################
## OUTPUT of StarlightChains_v04.for    [Cid@UFSC - 01/Apr/2007] ##
###################################################################

## Some input info
NGC6637_a_1.cxt                          [arq_obs]
Base.BC03.S                              [arq_base]
NGC6637_a_1.msk                          [arq_masks]
StCv04.C11.config                        [arq_config]
  150                                    [N_base]
    0                                    [N_YAV_components = # of components with extra extinction!]
    0                                    [i_FitPowerLaw (1/0 = Yes/No)]
-9.99                                    [alpha_PowerLaw]
CCM                                      [red_law_option]
 1.458241                                [q_norm = A(l_norm)/A(V)]

## (Re)Sampling Parameters
 3359.00                                 [l_ini (A)]
 6428.00                                 [l_fin (A)]
    1.00                                 [dl    (A)]     (OBS: dl_cushion =    50.00 A)

## Normalization info
 4020.00                                 [l_norm (A) - for base]
 4010.00                                 [llow_norm (A) - window for f_obs]
 4060.00                                 [lupp_norm (A) - window for f_obs]
1.782031E-14                             [fobs_norm (in input units)]

## S/N
 4730.00                                 [llow_SN (A) - window for S/N]
 4780.00                                 [lupp_SN (A) - window for S/N]
  44.619                                 [S/N in S/N window]
  30.665                                 [S/N in norm. window]
  98.004                                 [S/N_err in S/N window]
  67.353                                 [S/N_err in norm. window]
  1.0000                                 [fscale_chi2]

## etc...
  2147483594                             [idum_orig]
  3067                                   [NOl_eff]
  1344                                   [Nl_eff]
  1723    NSIGMA                         [Ntot_cliped & clip_method]
  1371790                                [Nglobal_steps]
   7                                     [N_chains]
  19                                     [NEX0s_base = N_base in EX0s-fits]
 0   0   1      151   2.0   8.103E+02    [Clip-Bug, RC-Crash & Burn-In warning-flags, n_censored_weights, wei_nsig_threshold & wei_limit]
    59     58.807     58.791      0.016  [idt_all, wdt_TotTime, wdt_UsrTime & wdt_SysTime (sec)]

## Synthesis Results - Best model ##

 2.39779E+00                             [chi2/Nl_eff]
     1.54807                             [adev (%)]

   101.13188                             [sum-of-x (%)]
 4.11917E-14                             [Flux_tot (units of input spectrum!)]
 1.75179E-09                             [Mini_tot (???)]
 8.72257E-10                             [Mcor_tot (???)]

   5.98                                  [v0_min  (km/s)]
  56.54                                  [vd_min  (km/s)]
 0.6155                                  [AV_min  (mag)]
 0.0000                                  [YAV_min (mag)]

# j     x_j(%)      Mini_j(%)     Mcor_j(%)     age_j(yr)     Z_j      (L/M)_j    YAV?  Mstars   component_j        a/Fe...       SSP_chi2r SSP_adev(%)   SSP_AV   SSP_x(%)
  1      0.0000     0.0000E+00    0.0000E+00    1.000000E+06  0.00010  8.160E-03    0   1.0000   age020_m22            0.0000     7.3795E+02    23.1801   4.0000    80.1226
  2      4.2355     2.0693E-03    4.1559E-03    3.160000E+06  0.00010  4.759E-02    0   1.0000   age045_m22            0.0000     7.8125E+01     8.6035   2.6429    98.9275
  3      2.9130     3.5057E-03    6.7463E-03    5.010000E+06  0.00010  1.932E-02    0   0.9582   age055_m22            0.0000     2.5688E+02    14.9540   3.1208    79.8350
  4      0.0000     0.0000E+00    0.0000E+00    6.610000E+06  0.00010  9.973E-03    0   0.9297   age061_m22            0.0000     7.1016E+02    22.4770   4.0000    82.8104
  5      0.0000     0.0000E+00    0.0000E+00    8.710000E+06  0.00010  7.690E-03    0   0.9030   age067_m22            0.0000     6.8196E+02    22.0675   4.0000    83.4523
  6      0.0000     0.0000E+00    0.0000E+00    1.000000E+07  0.00010  6.375E-03    0   0.8902   age070_m22            0.0000     6.7757E+02    22.0012   4.0000    83.9001
  7      0.0000     0.0000E+00    0.0000E+00    1.445000E+07  0.00010  4.874E-03    0   0.8589   age078_m22            0.0000     4.3172E+02    17.9232   4.0000    86.9811
  8      0.0000     0.0000E+00    0.0000E+00    2.512000E+07  0.00010  4.103E-03    0   0.8174   age090_m22            0.0000     1.3252E+02    11.3322   4.0000    91.3814
  9      0.0000     0.0000E+00    0.0000E+00    4.000000E+07  0.00010  3.654E-03    0   0.7830   age104_m22            0.0000     1.1348E+02    10.4582   3.6919    98.2421
 10      0.0000     0.0000E+00    0.0000E+00    5.500000E+07  0.00010  3.093E-03    0   0.7597   age110_m22            0.0000     1.1795E+02    10.1868   3.5573   101.0683
 11      0.0000     0.0000E+00    0.0000E+00    1.015200E+08  0.00010  2.431E-03    0   0.7138   age116_m22            0.0000     1.4539E+02    10.6038   3.1580   106.0857
 12      0.0000     0.0000E+00    0.0000E+00    1.609000E+08  0.00010  1.319E-03    0   0.6775   age120_m22            0.0000     1.3509E+02    10.2533   2.6785   108.6274
 13      0.0000     0.0000E+00    0.0000E+00    2.861200E+08  0.00010  1.075E-03    0   0.6412   age125_m22            0.0000     2.9071E+02    13.2492   2.5986   118.1042
 14      0.0000     0.0000E+00    0.0000E+00    5.088000E+08  0.00010  7.183E-04    0   0.6083   age130_m22            0.0000     3.4982E+02    14.2976   2.3222   121.8578
 15      0.0000     0.0000E+00    0.0000E+00    9.047900E+08  0.00010  4.524E-04    0   0.5785   age135_m22            0.0000     3.5901E+02    14.3379   2.1130   123.6128
 16      0.0000     0.0000E+00    0.0000E+00    1.278050E+09  0.00010  3.018E-04    0   0.5588   age138_m22            0.0000     1.8858E+02    10.5984   1.6800   117.5753
 17      0.0000     0.0000E+00    0.0000E+00    1.434000E+09  0.00010  2.691E-04    0   0.5532   age139_m22            0.0000     1.6107E+02     9.8396   1.5425   116.1689
 18      0.0000     0.0000E+00    0.0000E+00    2.500000E+09  0.00010  1.582E-04    0   0.5296   age150_m22            0.0000     1.4642E+02     9.5337   1.4457   116.3198
 19      0.0000     0.0000E+00    0.0000E+00    4.250000E+09  0.00010  1.007E-04    0   0.5110   age158_m22            0.0000     9.6966E+01     8.0475   1.3406   112.5288
 20      0.0000     0.0000E+00    0.0000E+00    6.250000E+09  0.00010  6.869E-05    0   0.4985   age166_m22            0.0000     6.3745E+01     6.8305   1.3305   107.6059
 21      0.0000     0.0000E+00    0.0000E+00    7.500000E+09  0.00010  5.873E-05    0   0.4931   age171_m22            0.0000     6.1526E+01     6.8399   1.3291   106.6331
 22      0.0000     0.0000E+00    0.0000E+00    1.000000E+10  0.00010  4.481E-05    0   0.4854   age181_m22            0.0000     5.9503E+01     6.7331   1.2926   106.1852
 23      0.0000     0.0000E+00    0.0000E+00    1.300000E+10  0.00010  3.489E-05    0   0.4791   age193_m22            0.0000     5.4963E+01     6.4734   1.2387   105.4704
 24      0.0000     0.0000E+00    0.0000E+00    1.500000E+10  0.00010  3.035E-05    0   0.4766   age201_m22            0.0000     5.2430E+01     6.3451   1.2017   105.1743
 25      0.0000     0.0000E+00    0.0000E+00    1.800000E+10  0.00010  2.510E-05    0   0.4735   age213_m22            0.0000     4.7281E+01     6.0655   1.1405   104.2262
 26      0.0000     0.0000E+00    0.0000E+00    1.000000E+06  0.00040  8.458E-03    0   1.0000   age020_m32            0.0000     7.5279E+02    23.3006   4.0000    80.8667
 27      0.0000     0.0000E+00    0.0000E+00    3.160000E+06  0.00040  3.973E-02    0   1.0000   age045_m32            0.0000     1.3460E+02    11.8190   3.9923    89.6381
 28      0.0000     0.0000E+00    0.0000E+00    5.010000E+06  0.00040  1.935E-02    0   0.9532   age055_m32            0.0000     2.9591E+02    14.8553   4.0000    84.7092
 29      0.0000     0.0000E+00    0.0000E+00    6.610000E+06  0.00040  1.204E-02    0   0.9243   age061_m32            0.0000     5.2095E+02    19.4799   4.0000    84.8916
 30      0.0000     0.0000E+00    0.0000E+00    8.710000E+06  0.00040  9.433E-03    0   0.9001   age067_m32            0.0000     4.6696E+02    18.5724   4.0000    86.0429
 31      0.0000     0.0000E+00    0.0000E+00    1.000000E+07  0.00040  8.053E-03    0   0.8877   age070_m32            0.0000     4.2830E+02    17.8391   4.0000    86.4236
 32      0.0000     0.0000E+00    0.0000E+00    1.445000E+07  0.00040  7.027E-03    0   0.8578   age078_m32            0.0000     1.5823E+02    12.7441   3.9726    87.5598
 33      0.0000     0.0000E+00    0.0000E+00    2.512000E+07  0.00040  4.707E-03    0   0.8166   age090_m32            0.0000     1.2146E+02    11.2830   3.6223    93.4150
 34      0.0000     0.0000E+00    0.0000E+00    4.000000E+07  0.00040  3.714E-03    0   0.7827   age104_m32            0.0000     1.0977E+02    10.3675   3.3518    99.3168
 35      0.0000     0.0000E+00    0.0000E+00    5.500000E+07  0.00040  2.982E-03    0   0.7593   age110_m32            0.0000     1.1412E+02    10.2079   3.2609   101.6251
 36      0.0000     0.0000E+00    0.0000E+00    1.015200E+08  0.00040  2.188E-03    0   0.7143   age116_m32            0.0000     1.8072E+02    11.2322   2.8818   110.4580
 37      0.0000     0.0000E+00    0.0000E+00    1.609000E+08  0.00040  1.690E-03    0   0.6856   age120_m32            0.0000     2.5254E+02    12.3800   2.6077   115.9449
 38      0.0000     0.0000E+00    0.0000E+00    2.861200E+08  0.00040  1.152E-03    0   0.6509   age125_m32            0.0000     3.0719E+02    13.4302   2.3327   120.1009
 39      0.0000     0.0000E+00    0.0000E+00    5.088000E+08  0.00040  7.331E-04    0   0.6182   age130_m32            0.0000     3.3331E+02    13.8644   2.1455   121.8449
 40      0.0000     0.0000E+00    0.0000E+00    9.047900E+08  0.00040  3.960E-04    0   0.5890   age135_m32            0.0000     1.9235E+02    10.7834   1.7627   117.0953
 41      0.0000     0.0000E+00    0.0000E+00    1.278050E+09  0.00040  2.854E-04    0   0.5687   age138_m32            0.0000     1.6366E+02     9.9360   1.4945   118.0798
 42      0.0000     0.0000E+00    0.0000E+00    1.434000E+09  0.00040  2.531E-04    0   0.5632   age139_m32            0.0000     1.6103E+02     9.8260   1.4347   118.0043
 43      0.0000     0.0000E+00    0.0000E+00    2.500000E+09  0.00040  1.488E-04    0   0.5386   age150_m32            0.0000     1.2363E+02     8.6143   1.2017   115.0126
 44      0.0000     0.0000E+00    0.0000E+00    4.250000E+09  0.00040  9.082E-05    0   0.5199   age158_m32            0.0000     5.8971E+01     6.3193   1.1780   108.3252
 45      0.0000     0.0000E+00    0.0000E+00    6.250000E+09  0.00040  6.362E-05    0   0.5076   age166_m32            0.0000     3.8253E+01     5.3798   1.1989   102.2672
 46      7.6593     3.3671E+00    3.3994E+00    7.500000E+09  0.00040  5.289E-05    0   0.5027   age171_m32            0.0000     3.5396E+01     5.1676   1.1724   100.5729
 47     18.9039     1.1066E+01    1.0996E+01    1.000000E+10  0.00040  3.972E-05    0   0.4948   age181_m32            0.0000     3.2368E+01     4.9112   1.1150    99.0020
 48      0.0000     0.0000E+00    0.0000E+00    1.300000E+10  0.00040  3.283E-05    0   0.4870   age193_m32            0.0000     3.4990E+01     5.0821   1.0360   103.1590
 49      0.0000     0.0000E+00    0.0000E+00    1.500000E+10  0.00040  2.925E-05    0   0.4854   age201_m32            0.0000     4.0956E+01     5.4443   0.9965   105.6445
 50      0.0000     0.0000E+00    0.0000E+00    1.800000E+10  0.00040  2.469E-05    0   0.4819   age213_m32            0.0000     4.3181E+01     5.5356   0.9468   106.5435
 51      0.0000     0.0000E+00    0.0000E+00    1.000000E+06  0.00400  1.114E-02    0   1.0000   age020_m42            0.0000     6.6660E+02    21.9480   4.0000    81.2248
 52      0.0000     0.0000E+00    0.0000E+00    3.160000E+06  0.00400  4.073E-02    0   0.9999   age045_m42            0.0000     9.9730E+01    10.0861   3.6565    93.5886
 53      0.0000     0.0000E+00    0.0000E+00    5.010000E+06  0.00400  2.534E-02    0   0.9488   age055_m42            0.0000     1.8005E+02    12.4644   4.0000    86.4821
 54      0.0001     9.3472E-08    1.7308E-07    6.610000E+06  0.00400  2.583E-02    0   0.9220   age061_m42            0.0000     9.6998E+01    10.0080   3.4391    95.6429
 55      0.0000     0.0000E+00    0.0000E+00    8.710000E+06  0.00400  1.706E-02    0   0.8983   age067_m42            0.0000     1.2025E+02    11.3543   3.3148    91.7911
 56      0.0000     0.0000E+00    0.0000E+00    1.000000E+07  0.00400  1.271E-02    0   0.8862   age070_m42            0.0000     1.5352E+02    12.7398   3.3340    89.0633
 57      0.0000     0.0000E+00    0.0000E+00    1.445000E+07  0.00400  7.666E-03    0   0.8571   age078_m42            0.0000     1.8673E+02    13.5559   3.7739    84.5939
 58      0.0000     0.0000E+00    0.0000E+00    2.512000E+07  0.00400  5.070E-03    0   0.8174   age090_m42            0.0000     1.4004E+02    12.0974   3.1935    90.9528
 59      0.0000     0.0000E+00    0.0000E+00    4.000000E+07  0.00400  3.505E-03    0   0.7851   age104_m42            0.0000     1.0184E+02    10.2417   2.8411    95.1782
 60      0.0000     0.0000E+00    0.0000E+00    5.500000E+07  0.00400  3.059E-03    0   0.7629   age110_m42            0.0000     9.2537E+01     8.9426   2.7849   104.2573
 61      0.0000     0.0000E+00    0.0000E+00    1.015200E+08  0.00400  2.268E-03    0   0.7207   age116_m42            0.0000     2.1649E+02    11.4211   2.5388   115.9384
 62      0.0000     0.0000E+00    0.0000E+00    1.609000E+08  0.00400  1.720E-03    0   0.6930   age120_m42            0.0000     2.3713E+02    11.7518   2.3702   118.7361
 63      0.0000     0.0000E+00    0.0000E+00    2.861200E+08  0.00400  1.079E-03    0   0.6613   age125_m42            0.0000     2.2595E+02    11.6335   2.0162   119.4623
 64      0.0000     0.0000E+00    0.0000E+00    5.088000E+08  0.00400  6.261E-04    0   0.6313   age130_m42            0.0000     2.7284E+02    12.3431   1.7873   124.0829
 65      0.0000     0.0000E+00    0.0000E+00    9.047900E+08  0.00400  3.535E-04    0   0.6024   age135_m42            0.0000     1.7273E+02     9.8695   1.4375   122.0350
 66      0.0000     0.0000E+00    0.0000E+00    1.278050E+09  0.00400  2.677E-04    0   0.5837   age138_m42            0.0000     6.6568E+01     6.4899   0.8135   116.2522
 67      0.0000     0.0000E+00    0.0000E+00    1.434000E+09  0.00400  1.910E-04    0   0.5716   age139_m42            0.0000     8.6641E+01     7.1590   0.9691   117.7817
 68      0.0000     0.0000E+00    0.0000E+00    2.500000E+09  0.00400  9.818E-05    0   0.5463   age150_m42            0.0000     2.0994E+01     3.7036   0.7769   109.2845
 69      0.0001     2.6662E-05    2.8214E-05    4.250000E+09  0.00400  5.491E-05    0   0.5269   age158_m42            0.0000     6.9778E+00     2.3409   0.6849   105.0546
 70      0.0000     0.0000E+00    0.0000E+00    6.250000E+09  0.00400  3.857E-05    0   0.5151   age166_m42            0.0000     5.2479E+00     2.0568   0.5649   103.3310
 71      0.0001     8.4769E-05    8.6995E-05    7.500000E+09  0.00400  3.243E-05    0   0.5110   age171_m42            0.0000     6.1199E+00     2.1997   0.4866   102.7187
 72     22.4791     2.1562E+01    2.1773E+01    1.000000E+10  0.00400  2.424E-05    0   0.5028   age181_m42            0.0000     8.8059E+00     2.6181   0.4065   102.0665
 73     15.9264     1.9666E+01    1.9459E+01    1.300000E+10  0.00400  1.883E-05    0   0.4927   age193_m42            0.0000     1.2259E+01     3.0552   0.3663   101.7535
 74      2.9320     4.0458E+00    3.9969E+00    1.500000E+10  0.00400  1.685E-05    0   0.4919   age201_m42            0.0000     1.1046E+01     2.9110   0.3724   101.7243
 75      0.0000     0.0000E+00    0.0000E+00    1.800000E+10  0.00400  1.452E-05    0   0.4874   age213_m42            0.0000     9.3001E+00     2.6816   0.3889   101.9503
 76      0.0000     0.0000E+00    0.0000E+00    1.000000E+06  0.00800  1.286E-02    0   1.0000   age020_m52            0.0000     6.1535E+02    20.9331   4.0000    83.2678
 77      0.0000     0.0000E+00    0.0000E+00    3.160000E+06  0.00800  3.147E-02    0   0.9966   age045_m52            0.0000     5.2573E+02    19.4849   4.0000    84.5614
 78      0.0000     0.0000E+00    0.0000E+00    5.010000E+06  0.00800  2.664E-02    0   0.9443   age055_m52            0.0000     2.4790E+02    13.7268   4.0000    86.3538
 79      0.0000     0.0000E+00    0.0000E+00    6.610000E+06  0.00800  2.151E-02    0   0.9177   age061_m52            0.0000     1.2608E+02    11.0238   2.9380    90.3014
 80      0.0000     0.0000E+00    0.0000E+00    8.710000E+06  0.00800  1.628E-02    0   0.8948   age067_m52            0.0000     1.3712E+02    11.8671   3.2920    91.2610
 81      0.0000     0.0000E+00    0.0000E+00    1.000000E+07  0.00800  1.215E-02    0   0.8827   age070_m52            0.0000     1.6220E+02    12.8292   3.6499    88.7225
 82      0.0000     0.0000E+00    0.0000E+00    1.445000E+07  0.00800  8.739E-03    0   0.8552   age078_m52            0.0000     1.4337E+02    12.2113   3.6642    90.9910
 83      0.0000     0.0000E+00    0.0000E+00    2.512000E+07  0.00800  5.676E-03    0   0.8162   age090_m52            0.0000     1.2157E+02    11.2418   3.1906    98.4722
 84      0.0000     0.0000E+00    0.0000E+00    4.000000E+07  0.00800  3.939E-03    0   0.7841   age104_m52            0.0000     1.1402E+02    10.3312   2.9837   102.9206
 85      0.0000     0.0000E+00    0.0000E+00    5.500000E+07  0.00800  3.155E-03    0   0.7627   age110_m52            0.0000     1.2260E+02    10.0247   2.9120   106.4295
 86      0.0000     0.0000E+00    0.0000E+00    1.015200E+08  0.00800  2.206E-03    0   0.7226   age116_m52            0.0000     1.7002E+02    10.5135   2.6415   113.8957
 87      0.0000     0.0000E+00    0.0000E+00    1.609000E+08  0.00800  1.596E-03    0   0.6963   age120_m52            0.0000     1.9502E+02    10.9663   2.3917   117.1470
 88      0.0000     0.0000E+00    0.0000E+00    2.861200E+08  0.00800  1.002E-03    0   0.6665   age125_m52            0.0000     2.7885E+02    12.7669   2.0193   123.4332
 89      0.0000     0.0000E+00    0.0000E+00    5.088000E+08  0.00800  5.759E-04    0   0.6377   age130_m52            0.0000     2.9908E+02    13.0663   1.6416   128.9288
 90      0.0000     0.0000E+00    0.0000E+00    9.047900E+08  0.00800  2.972E-04    0   0.6086   age135_m52            0.0000     1.5862E+02     9.9100   1.1803   124.1341
 91      0.0000     0.0000E+00    0.0000E+00    1.278050E+09  0.00800  2.242E-04    0   0.5907   age138_m52            0.0000     6.2106E+01     6.3692   0.6462   118.9176
 92      0.0000     0.0000E+00    0.0000E+00    1.434000E+09  0.00800  1.645E-04    0   0.5787   age139_m52            0.0000     5.3052E+01     5.9258   0.8053   117.8778
 93      0.0000     0.0000E+00    0.0000E+00    2.500000E+09  0.00800  7.723E-05    0   0.5519   age150_m52            0.0000     2.2721E+01     3.9810   0.5112   111.7852
 94      0.0001     4.3126E-05    4.6077E-05    4.250000E+09  0.00800  4.151E-05    0   0.5320   age158_m52            0.0000     1.5311E+01     3.1869   0.4576   108.3751
 95      0.0026     2.0099E-03    2.0978E-03    6.250000E+09  0.00800  3.010E-05    0   0.5197   age166_m52            0.0000     1.8500E+01     3.5847   0.2691   106.6260
 96      0.0995     9.3820E-02    9.6831E-02    7.500000E+09  0.00800  2.467E-05    0   0.5139   age171_m52            0.0000     2.0627E+01     3.8264   0.2266   106.2216
 97     11.7469     1.4668E+01    1.4889E+01    1.000000E+10  0.00800  1.862E-05    0   0.5054   age181_m52            0.0000     3.0216E+01     4.7338   0.0892   106.0127
