###################################################################
## OUTPUT of StarlightChains_v04.for    [Cid@UFSC - 01/Apr/2007] ##
###################################################################

## Some input info
NGC6121_a_1.cxt                          [arq_obs]
Base.BC03.S                              [arq_base]
NGC6121_a_1.msk                          [arq_masks]
StCv04.C11.config                        [arq_config]
  150                                    [N_base]
    0                                    [N_YAV_components = # of components with extra extinction!]
    0                                    [i_FitPowerLaw (1/0 = Yes/No)]
-9.99                                    [alpha_PowerLaw]
CCM                                      [red_law_option]
 1.458241                                [q_norm = A(l_norm)/A(V)]

## (Re)Sampling Parameters
 3359.00                                 [l_ini (A)]
 6428.00                                 [l_fin (A)]
    1.00                                 [dl    (A)]     (OBS: dl_cushion =    50.00 A)

## Normalization info
 4020.00                                 [l_norm (A) - for base]
 4010.00                                 [llow_norm (A) - window for f_obs]
 4060.00                                 [lupp_norm (A) - window for f_obs]
2.192402E-14                             [fobs_norm (in input units)]

## S/N
 4730.00                                 [llow_SN (A) - window for S/N]
 4780.00                                 [lupp_SN (A) - window for S/N]
  81.858                                 [S/N in S/N window]
  65.062                                 [S/N in norm. window]
 104.198                                 [S/N_err in S/N window]
  82.818                                 [S/N_err in norm. window]
  1.0000                                 [fscale_chi2]

## etc...
  2147483628                             [idum_orig]
  3070                                   [NOl_eff]
  2130                                   [Nl_eff]
   940    NSIGMA                         [Ntot_cliped & clip_method]
  1900360                                [Nglobal_steps]
   7                                     [N_chains]
  28                                     [NEX0s_base = N_base in EX0s-fits]
 0   0   1      112   2.0   2.032E+02    [Clip-Bug, RC-Crash & Burn-In warning-flags, n_censored_weights, wei_nsig_threshold & wei_limit]
    72     72.466     72.466      0.000  [idt_all, wdt_TotTime, wdt_UsrTime & wdt_SysTime (sec)]

## Synthesis Results - Best model ##

 1.95259E+00                             [chi2/Nl_eff]
     1.16052                             [adev (%)]

    97.91106                             [sum-of-x (%)]
 7.56601E-14                             [Flux_tot (units of input spectrum!)]
 2.30289E-09                             [Mini_tot (???)]
 1.13306E-09                             [Mcor_tot (???)]

 -26.99                                  [v0_min  (km/s)]
  38.35                                  [vd_min  (km/s)]
 0.9380                                  [AV_min  (mag)]
 0.0000                                  [YAV_min (mag)]

# j     x_j(%)      Mini_j(%)     Mcor_j(%)     age_j(yr)     Z_j      (L/M)_j    YAV?  Mstars   component_j        a/Fe...       SSP_chi2r SSP_adev(%)   SSP_AV   SSP_x(%)
  1      0.0000     0.0000E+00    0.0000E+00    1.000000E+06  0.00010  8.160E-03    0   1.0000   age020_m22            0.0000     1.9448E+02    11.3040   4.0000    84.3212
  2      6.8596     4.8366E-03    9.8302E-03    3.160000E+06  0.00010  4.759E-02    0   1.0000   age045_m22            0.0000     1.8199E+01     3.5161   2.3761    95.3441
  3      1.7241     2.9945E-03    5.8318E-03    5.010000E+06  0.00010  1.932E-02    0   0.9582   age055_m22            0.0000     1.2186E+02     9.5296   2.6328    83.2357
  4      0.0000     0.0000E+00    0.0000E+00    6.610000E+06  0.00010  9.973E-03    0   0.9297   age061_m22            0.0000     1.8216E+02    10.7856   4.0000    86.4883
  5      0.0000     0.0000E+00    0.0000E+00    8.710000E+06  0.00010  7.690E-03    0   0.9030   age067_m22            0.0000     1.7236E+02    10.5130   4.0000    86.7616
  6      0.0000     0.0000E+00    0.0000E+00    1.000000E+07  0.00010  6.375E-03    0   0.8902   age070_m22            0.0000     1.7061E+02    10.4681   4.0000    87.2458
  7      0.0000     0.0000E+00    0.0000E+00    1.445000E+07  0.00010  4.874E-03    0   0.8589   age078_m22            0.0000     9.8453E+01     8.2551   4.0000    85.9417
  8      0.0000     0.0000E+00    0.0000E+00    2.512000E+07  0.00010  4.103E-03    0   0.8174   age090_m22            0.0000     4.0895E+01     5.7255   3.7406    88.8411
  9      0.0283     2.5986E-04    4.1354E-04    4.000000E+07  0.00010  3.654E-03    0   0.7830   age104_m22            0.0000     2.5437E+01     4.1600   3.4605    93.3677
 10      0.0000     0.0000E+00    0.0000E+00    5.500000E+07  0.00010  3.093E-03    0   0.7597   age110_m22            0.0000     2.3992E+01     3.8386   3.3687    94.7310
 11      0.0867     1.1970E-03    1.7366E-03    1.015200E+08  0.00010  2.431E-03    0   0.7138   age116_m22            0.0000     2.9124E+01     3.9394   3.0298    97.6176
 12      0.0000     0.0000E+00    0.0000E+00    1.609000E+08  0.00010  1.319E-03    0   0.6775   age120_m22            0.0000     2.7031E+01     3.7292   2.5602    99.7101
 13      0.0000     0.0000E+00    0.0000E+00    2.861200E+08  0.00010  1.075E-03    0   0.6412   age125_m22            0.0000     8.1924E+01     6.3652   2.6570   102.5408
 14      0.0000     0.0000E+00    0.0000E+00    5.088000E+08  0.00010  7.183E-04    0   0.6083   age130_m22            0.0000     1.0505E+02     7.3524   2.4405   103.8678
 15      0.0000     0.0000E+00    0.0000E+00    9.047900E+08  0.00010  4.524E-04    0   0.5785   age135_m22            0.0000     1.0735E+02     7.5077   2.2455   104.9056
 16      0.0000     0.0000E+00    0.0000E+00    1.278050E+09  0.00010  3.018E-04    0   0.5588   age138_m22            0.0000     4.6964E+01     5.0659   1.6992   103.3894
 17      0.0000     0.0000E+00    0.0000E+00    1.434000E+09  0.00010  2.691E-04    0   0.5532   age139_m22            0.0000     3.7442E+01     4.5795   1.5420   102.8046
 18      0.0000     0.0000E+00    0.0000E+00    2.500000E+09  0.00010  1.582E-04    0   0.5296   age150_m22            0.0000     3.0154E+01     4.1356   1.4183   103.7954
 19      0.0000     0.0000E+00    0.0000E+00    4.250000E+09  0.00010  1.007E-04    0   0.5110   age158_m22            0.0000     1.4484E+01     3.0194   1.2602   102.1110
 20      0.0000     0.0000E+00    0.0000E+00    6.250000E+09  0.00010  6.869E-05    0   0.4985   age166_m22            0.0000     5.9755E+00     2.0080   1.1944    99.3981
 21      0.0000     0.0000E+00    0.0000E+00    7.500000E+09  0.00010  5.873E-05    0   0.4931   age171_m22            0.0000     5.4076E+00     1.8942   1.1775    98.9806
 22      0.0000     0.0000E+00    0.0000E+00    1.000000E+10  0.00010  4.481E-05    0   0.4854   age181_m22            0.0000     5.0684E+00     1.8432   1.1405    98.5815
 23      0.0029     2.7650E-03    2.6924E-03    1.300000E+10  0.00010  3.489E-05    0   0.4791   age193_m22            0.0000     4.4394E+00     1.7268   1.0852    97.9848
 24      0.0303     3.3541E-02    3.2490E-02    1.500000E+10  0.00010  3.035E-05    0   0.4766   age201_m22            0.0000     4.0746E+00     1.6562   1.0459    97.7977
 25      5.4968     7.3485E+00    7.0720E+00    1.800000E+10  0.00010  2.510E-05    0   0.4735   age213_m22            0.0000     3.4934E+00     1.5322   0.9770    97.1838
 26      0.0000     0.0000E+00    0.0000E+00    1.000000E+06  0.00040  8.458E-03    0   1.0000   age020_m32            0.0000     1.9835E+02    11.3662   4.0000    85.3562
 27      0.0000     2.9930E-09    6.0831E-09    3.160000E+06  0.00040  3.973E-02    0   1.0000   age045_m32            0.0000     4.5906E+01     5.9831   3.6335    88.9303
 28      0.0000     0.0000E+00    0.0000E+00    5.010000E+06  0.00040  1.935E-02    0   0.9532   age055_m32            0.0000     1.0297E+02     8.8835   3.8411    83.4274
 29      0.0000     0.0000E+00    0.0000E+00    6.610000E+06  0.00040  1.204E-02    0   0.9243   age061_m32            0.0000     1.2580E+02     9.2018   4.0000    85.2683
 30      0.0000     0.0000E+00    0.0000E+00    8.710000E+06  0.00040  9.433E-03    0   0.9001   age067_m32            0.0000     1.1015E+02     8.7116   4.0000    85.5107
 31      0.0000     0.0000E+00    0.0000E+00    1.000000E+07  0.00040  8.053E-03    0   0.8877   age070_m32            0.0000     1.0143E+02     8.4710   4.0000    85.1011
 32      0.0000     0.0000E+00    0.0000E+00    1.445000E+07  0.00040  7.027E-03    0   0.8578   age078_m32            0.0000     5.9525E+01     6.8859   3.5816    87.8887
 33      0.0007     5.2348E-06    8.6881E-06    2.512000E+07  0.00040  4.707E-03    0   0.8166   age090_m32            0.0000     3.5059E+01     5.3241   3.2993    91.6262
 34      0.0000     0.0000E+00    0.0000E+00    4.000000E+07  0.00040  3.714E-03    0   0.7827   age104_m32            0.0000     2.2881E+01     4.0214   3.1102    94.7859
 35      0.0000     0.0000E+00    0.0000E+00    5.500000E+07  0.00040  2.982E-03    0   0.7593   age110_m32            0.0000     2.1974E+01     3.7534   3.0557    95.8491
 36      0.0170     2.6045E-04    3.7812E-04    1.015200E+08  0.00040  2.188E-03    0   0.7143   age116_m32            0.0000     4.0698E+01     4.5251   2.8183    99.6162
 37      0.0000     0.0000E+00    0.0000E+00    1.609000E+08  0.00040  1.690E-03    0   0.6856   age120_m32            0.0000     6.2740E+01     5.4510   2.6201   102.1689
 38      0.0000     0.0000E+00    0.0000E+00    2.861200E+08  0.00040  1.152E-03    0   0.6509   age125_m32            0.0000     8.7746E+01     6.6176   2.4154   103.5029
 39      0.0000     0.0000E+00    0.0000E+00    5.088000E+08  0.00040  7.331E-04    0   0.6182   age130_m32            0.0000     9.8504E+01     7.1523   2.2624   103.9378
 40      0.0000     0.0000E+00    0.0000E+00    9.047900E+08  0.00040  3.960E-04    0   0.5890   age135_m32            0.0000     5.1724E+01     5.4821   1.8011   102.3584
 41      0.0000     0.0000E+00    0.0000E+00    1.278050E+09  0.00040  2.854E-04    0   0.5687   age138_m32            0.0000     3.6945E+01     4.5987   1.4922   104.5601
 42      0.0000     0.0000E+00    0.0000E+00    1.434000E+09  0.00040  2.531E-04    0   0.5632   age139_m32            0.0000     3.5301E+01     4.4669   1.4293   104.5795
 43      8.5190     1.9211E+00    2.1030E+00    2.500000E+09  0.00040  1.488E-04    0   0.5386   age150_m32            0.0000     2.2981E+01     3.6476   1.1707   102.7501
 44     15.8176     5.8442E+00    6.1753E+00    4.250000E+09  0.00040  9.082E-05    0   0.5199   age158_m32            0.0000     5.4098E+00     1.9511   1.0628    99.4427
 45     15.6383     8.2482E+00    8.5094E+00    6.250000E+09  0.00040  6.362E-05    0   0.5076   age166_m32            0.0000     3.8208E+00     1.5782   1.0086    96.2202
 46      1.2664     8.0346E-01    8.2091E-01    7.500000E+09  0.00040  5.289E-05    0   0.5027   age171_m32            0.0000     4.6687E+00     1.7028   0.9728    94.9270
 47      0.0000     0.0000E+00    0.0000E+00    1.000000E+10  0.00040  3.972E-05    0   0.4948   age181_m32            0.0000     5.4318E+00     1.7991   0.9144    93.4879
 48      2.0883     2.1344E+00    2.1126E+00    1.300000E+10  0.00040  3.283E-05    0   0.4870   age193_m32            0.0000     2.7481E+00     1.4131   0.8760    96.1479
 49      3.9649     4.5484E+00    4.4873E+00    1.500000E+10  0.00040  2.925E-05    0   0.4854   age201_m32            0.0000     2.9186E+00     1.5152   0.8610    97.6971
 50     29.2213     3.9714E+01    3.8897E+01    1.800000E+10  0.00040  2.469E-05    0   0.4819   age213_m32            0.0000     3.3117E+00     1.6266   0.8221    98.2059
 51      0.0000     0.0000E+00    0.0000E+00    1.000000E+06  0.00400  1.114E-02    0   1.0000   age020_m42            0.0000     1.6948E+02    10.4681   4.0000    84.2576
 52      0.7587     6.2502E-04    1.2702E-03    3.160000E+06  0.00400  4.073E-02    0   0.9999   age045_m42            0.0000     2.9226E+01     4.7297   3.3459    91.3259
 53      0.0000     2.4550E-08    4.7342E-08    5.010000E+06  0.00400  2.534E-02    0   0.9488   age055_m42            0.0000     6.7132E+01     7.1686   3.7332    85.3737
 54      0.5603     7.2790E-04    1.3640E-03    6.610000E+06  0.00400  2.583E-02    0   0.9220   age061_m42            0.0000     2.3670E+01     4.1698   3.1668    92.2618
 55      0.0010     1.9976E-06    3.6471E-06    8.710000E+06  0.00400  1.706E-02    0   0.8983   age067_m42            0.0000     3.9500E+01     5.5743   2.9749    90.8307
 56      0.0000     0.0000E+00    0.0000E+00    1.000000E+07  0.00400  1.271E-02    0   0.8862   age070_m42            0.0000     6.0768E+01     7.0465   2.9512    89.5883
 57      0.0000     0.0000E+00    0.0000E+00    1.445000E+07  0.00400  7.666E-03    0   0.8571   age078_m42            0.0000     7.9524E+01     7.8275   3.3518    86.2148
 58      0.0000     0.0000E+00    0.0000E+00    2.512000E+07  0.00400  5.070E-03    0   0.8174   age090_m42            0.0000     5.1348E+01     6.5004   2.8256    91.0908
 59      0.0000     0.0000E+00    0.0000E+00    4.000000E+07  0.00400  3.505E-03    0   0.7851   age104_m42            0.0000     2.9240E+01     4.7960   2.5241    93.7026
 60      0.0000     0.0000E+00    0.0000E+00    5.500000E+07  0.00400  3.059E-03    0   0.7629   age110_m42            0.0000     1.3738E+01     2.7543   2.6045    97.9116
 61      0.0000     0.0000E+00    0.0000E+00    1.015200E+08  0.00400  2.268E-03    0   0.7207   age116_m42            0.0000     5.1766E+01     4.9945   2.5433   102.5959
 62      0.0000     0.0000E+00    0.0000E+00    1.609000E+08  0.00400  1.720E-03    0   0.6930   age120_m42            0.0000     6.0938E+01     5.5708   2.4109   103.8955
 63      0.0000     0.0000E+00    0.0000E+00    2.861200E+08  0.00400  1.079E-03    0   0.6613   age125_m42            0.0000     6.1266E+01     5.6964   2.0591   104.2893
 64      0.0759     4.0664E-03    5.2175E-03    5.088000E+08  0.00400  6.261E-04    0   0.6313   age130_m42            0.0000     7.2655E+01     6.2081   1.8654   107.1703
 65      0.0000     0.0000E+00    0.0000E+00    9.047900E+08  0.00400  3.535E-04    0   0.6024   age135_m42            0.0000     4.0725E+01     4.9391   1.4685   107.0506
 66      0.0000     0.0000E+00    0.0000E+00    1.278050E+09  0.00400  2.677E-04    0   0.5837   age138_m42            0.0000     2.5911E+01     4.3834   0.8093   103.3370
 67      0.0110     1.9245E-03    2.2358E-03    1.434000E+09  0.00400  1.910E-04    0   0.5716   age139_m42            0.0000     2.5933E+01     4.3471   0.9742   104.3876
 68      0.0000     0.0000E+00    0.0000E+00    2.500000E+09  0.00400  9.818E-05    0   0.5463   age150_m42            0.0000     2.0794E+01     3.7744   0.7139    98.9854
 69      0.0000     0.0000E+00    0.0000E+00    4.250000E+09  0.00400  5.491E-05    0   0.5269   age158_m42            0.0000     2.4572E+01     3.8454   0.5863    96.2151
 70      0.0000     0.0000E+00    0.0000E+00    6.250000E+09  0.00400  3.857E-05    0   0.5151   age166_m42            0.0000     3.4351E+01     4.4451   0.4689    94.6259
 71      0.0000     0.0000E+00    0.0000E+00    7.500000E+09  0.00400  3.243E-05    0   0.5110   age171_m42            0.0000     4.1418E+01     4.8317   0.3969    93.8977
 72      0.0000     0.0000E+00    0.0000E+00    1.000000E+10  0.00400  2.424E-05    0   0.5028   age181_m42            0.0000     5.1465E+01     5.3258   0.3258    93.0233
 73      0.7995     1.4246E+00    1.4266E+00    1.300000E+10  0.00400  1.883E-05    0   0.4927   age193_m42            0.0000     5.9457E+01     5.6908   0.2901    92.5703
 74      0.0000     0.0000E+00    0.0000E+00    1.500000E+10  0.00400  1.685E-05    0   0.4919   age201_m42            0.0000     5.7343E+01     5.5981   0.2929    92.6433
 75      1.2062     2.7874E+00    2.7613E+00    1.800000E+10  0.00400  1.452E-05    0   0.4874   age213_m42            0.0000     5.3482E+01     5.4341   0.3034    93.0369
 76      0.0000     0.0000E+00    0.0000E+00    1.000000E+06  0.00800  1.286E-02    0   1.0000   age020_m52            0.0000     1.4819E+02     9.8049   4.0000    85.5772
 77      0.0000     0.0000E+00    0.0000E+00    3.160000E+06  0.00800  3.147E-02    0   0.9966   age045_m52            0.0000     1.2476E+02     9.0609   4.0000    85.1557
 78      0.0000     0.0000E+00    0.0000E+00    5.010000E+06  0.00800  2.664E-02    0   0.9443   age055_m52            0.0000     7.9780E+01     7.6747   3.8529    84.2949
 79      0.0000     0.0000E+00    0.0000E+00    6.610000E+06  0.00800  2.151E-02    0   0.9177   age061_m52            0.0000     4.8494E+01     5.9150   2.5602    90.7630
 80      0.0000     0.0000E+00    0.0000E+00    8.710000E+06  0.00800  1.628E-02    0   0.8948   age067_m52            0.0000     4.6322E+01     5.9987   2.9306    91.2561
 81      0.0000     0.0000E+00    0.0000E+00    1.000000E+07  0.00800  1.215E-02    0   0.8827   age070_m52            0.0000     5.7941E+01     6.7239   3.2682    89.3931
 82      0.0000     0.0000E+00    0.0000E+00    1.445000E+07  0.00800  8.739E-03    0   0.8552   age078_m52            0.0000     4.6282E+01     5.9675   3.3126    90.6384
 83      0.0000     0.0000E+00    0.0000E+00    2.512000E+07  0.00800  5.676E-03    0   0.8162   age090_m52            0.0000     2.9385E+01     4.5453   2.9210    95.4681
 84      0.0000     0.0000E+00    0.0000E+00    4.000000E+07  0.00800  3.939E-03    0   0.7841   age104_m52            0.0000     2.1531E+01     3.5806   2.7745    97.6438
 85      0.0000     0.0000E+00    0.0000E+00    5.500000E+07  0.00800  3.155E-03    0   0.7627   age110_m52            0.0000     2.2621E+01     3.3736   2.7553    99.1491
 86      0.0000     0.0000E+00    0.0000E+00    1.015200E+08  0.00800  2.206E-03    0   0.7226   age116_m52            0.0000     3.8289E+01     4.3017   2.5949   102.4824
 87      0.0000     0.0000E+00    0.0000E+00    1.609000E+08  0.00800  1.596E-03    0   0.6963   age120_m52            0.0000     4.7805E+01     4.9339   2.3880   103.9691
 88      0.0000     0.0000E+00    0.0000E+00    2.861200E+08  0.00800  1.002E-03    0   0.6665   age125_m52            0.0000     8.0946E+01     6.7725   2.1212   106.0833
 89      0.0000     0.0000E+00    0.0000E+00    5.088000E+08  0.00800  5.759E-04    0   0.6377   age130_m52            0.0000     9.3925E+01     7.5418   1.7960   109.2548
 90      0.0000     0.0000E+00    0.0000E+00    9.047900E+08  0.00800  2.972E-04    0   0.6086   age135_m52            0.0000     6.2853E+01     6.5617   1.2839   106.8730
 91      0.0000     0.0000E+00    0.0000E+00    1.278050E+09  0.00800  2.242E-04    0   0.5907   age138_m52            0.0000     4.2666E+01     5.4385   0.6664   105.2221
 92      0.0000     0.0000E+00    0.0000E+00    1.434000E+09  0.00800  1.645E-04    0   0.5787   age139_m52            0.0000     3.4469E+01     4.9379   0.8079   104.7837
 93      0.0000     0.0000E+00    0.0000E+00    2.500000E+09  0.00800  7.723E-05    0   0.5519   age150_m52            0.0000     4.2680E+01     5.1741   0.4770   100.6066
 94      0.0000     0.0000E+00    0.0000E+00    4.250000E+09  0.00800  4.151E-05    0   0.5320   age158_m52            0.0000     4.5391E+01     5.2041   0.4080    98.0087
 95      0.0000     0.0000E+00    0.0000E+00    6.250000E+09  0.00800  3.010E-05    0   0.5197   age166_m52            0.0000     6.3839E+01     6.0271   0.2275    96.2235
 96      0.0000     0.0000E+00    0.0000E+00    7.500000E+09  0.00800  2.467E-05    0   0.5139   age171_m52            0.0000     6.9021E+01     6.2423   0.1908    95.6970
 97      0.0000     0.0000E+00    0.0000E+00    1.000000E+10  0.00800  1.862E-05    0   0.5054   age181_m52            0.0000     8.6656E+01     6.9463   0.0751    94.9235
