###################################################################
## OUTPUT of StarlightChains_v04.for    [Cid@UFSC - 01/Apr/2007] ##
###################################################################

## Some input info
NGC6352_a_1.cxt                          [arq_obs]
Base.BC03.S                              [arq_base]
NGC6352_a_1.msk                          [arq_masks]
StCv04.C11.config                        [arq_config]
  150                                    [N_base]
    0                                    [N_YAV_components = # of components with extra extinction!]
    0                                    [i_FitPowerLaw (1/0 = Yes/No)]
-9.99                                    [alpha_PowerLaw]
CCM                                      [red_law_option]
 1.458241                                [q_norm = A(l_norm)/A(V)]

## (Re)Sampling Parameters
 3359.00                                 [l_ini (A)]
 6428.00                                 [l_fin (A)]
    1.00                                 [dl    (A)]     (OBS: dl_cushion =    50.00 A)

## Normalization info
 4020.00                                 [l_norm (A) - for base]
 4010.00                                 [llow_norm (A) - window for f_obs]
 4060.00                                 [lupp_norm (A) - window for f_obs]
4.889122E-15                             [fobs_norm (in input units)]

## S/N
 4730.00                                 [llow_SN (A) - window for S/N]
 4780.00                                 [lupp_SN (A) - window for S/N]
  33.884                                 [S/N in S/N window]
  22.882                                 [S/N in norm. window]
 274.330                                 [S/N_err in S/N window]
 185.259                                 [S/N_err in norm. window]
  1.0000                                 [fscale_chi2]

## etc...
  2147483613                             [idum_orig]
  3060                                   [NOl_eff]
   648                                   [Nl_eff]
  2412    NSIGMA                         [Ntot_cliped & clip_method]
  2028880                                [Nglobal_steps]
   7                                     [N_chains]
  28                                     [NEX0s_base = N_base in EX0s-fits]
 0   0   1      257   2.0   3.884E+02    [Clip-Bug, RC-Crash & Burn-In warning-flags, n_censored_weights, wei_nsig_threshold & wei_limit]
    73     73.048     73.036      0.012  [idt_all, wdt_TotTime, wdt_UsrTime & wdt_SysTime (sec)]

## Synthesis Results - Best model ##

 2.80267E+00                             [chi2/Nl_eff]
     1.14496                             [adev (%)]

   100.53172                             [sum-of-x (%)]
 1.06504E-14                             [Flux_tot (units of input spectrum!)]
 4.80316E-10                             [Mini_tot (???)]
 2.42749E-10                             [Mcor_tot (???)]

  15.95                                  [v0_min  (km/s)]
  59.16                                  [vd_min  (km/s)]
 0.5757                                  [AV_min  (mag)]
 0.0000                                  [YAV_min (mag)]

# j     x_j(%)      Mini_j(%)     Mcor_j(%)     age_j(yr)     Z_j      (L/M)_j    YAV?  Mstars   component_j        a/Fe...       SSP_chi2r SSP_adev(%)   SSP_AV   SSP_x(%)
  1      0.0000     0.0000E+00    0.0000E+00    1.000000E+06  0.00010  8.160E-03    0   1.0000   age020_m22            0.0000     2.3650E+03    27.9460   4.0000    93.6359
  2      3.7122     1.7205E-03    3.4042E-03    3.160000E+06  0.00010  4.759E-02    0   1.0000   age045_m22            0.0000     5.9029E+02    11.2754   2.7466    96.8484
  3      4.1601     4.7494E-03    9.0045E-03    5.010000E+06  0.00010  1.932E-02    0   0.9582   age055_m22            0.0000     1.1297E+03    18.0274   2.9343    87.3615
  4      0.0000     0.0000E+00    0.0000E+00    6.610000E+06  0.00010  9.973E-03    0   0.9297   age061_m22            0.0000     2.3127E+03    26.9288   4.0000    96.1560
  5      0.0000     0.0000E+00    0.0000E+00    8.710000E+06  0.00010  7.690E-03    0   0.9030   age067_m22            0.0000     2.2574E+03    26.6172   4.0000    96.4534
  6      0.0000     0.0000E+00    0.0000E+00    1.000000E+07  0.00010  6.375E-03    0   0.8902   age070_m22            0.0000     2.2818E+03    26.6915   4.0000    96.8684
  7      0.0000     0.0000E+00    0.0000E+00    1.445000E+07  0.00010  4.874E-03    0   0.8589   age078_m22            0.0000     1.6111E+03    22.7038   4.0000    96.2936
  8      0.0000     0.0000E+00    0.0000E+00    2.512000E+07  0.00010  4.103E-03    0   0.8174   age090_m22            0.0000     8.6997E+02    15.4839   4.0000    93.3891
  9      0.0000     0.0000E+00    0.0000E+00    4.000000E+07  0.00010  3.654E-03    0   0.7830   age104_m22            0.0000     8.4828E+02    13.4793   3.8652    93.7039
 10      0.0000     0.0000E+00    0.0000E+00    5.500000E+07  0.00010  3.093E-03    0   0.7597   age110_m22            0.0000     8.3694E+02    12.9554   3.7812    94.7469
 11      0.0000     0.0000E+00    0.0000E+00    1.015200E+08  0.00010  2.431E-03    0   0.7138   age116_m22            0.0000     8.9462E+02    12.8000   3.4560    96.9700
 12      0.0000     0.0000E+00    0.0000E+00    1.609000E+08  0.00010  1.319E-03    0   0.6775   age120_m22            0.0000     8.3840E+02    11.9238   2.9727    99.4847
 13      0.0000     0.0000E+00    0.0000E+00    2.861200E+08  0.00010  1.075E-03    0   0.6412   age125_m22            0.0000     1.1533E+03    13.5097   3.0912   101.4482
 14      0.0000     0.0000E+00    0.0000E+00    5.088000E+08  0.00010  7.183E-04    0   0.6083   age130_m22            0.0000     1.2459E+03    14.0013   2.8708   102.9562
 15      0.0000     0.0000E+00    0.0000E+00    9.047900E+08  0.00010  4.524E-04    0   0.5785   age135_m22            0.0000     1.2348E+03    13.9516   2.6703   104.1612
 16      0.0000     0.0000E+00    0.0000E+00    1.278050E+09  0.00010  3.018E-04    0   0.5588   age138_m22            0.0000     8.0613E+02    11.1534   2.1034   103.5180
 17      0.0000     0.0000E+00    0.0000E+00    1.434000E+09  0.00010  2.691E-04    0   0.5532   age139_m22            0.0000     7.2279E+02    10.6041   1.9386   103.2455
 18      0.0000     0.0000E+00    0.0000E+00    2.500000E+09  0.00010  1.582E-04    0   0.5296   age150_m22            0.0000     7.1182E+02    10.6779   1.8152   104.1789
 19      0.0000     0.0000E+00    0.0000E+00    4.250000E+09  0.00010  1.007E-04    0   0.5110   age158_m22            0.0000     5.6211E+02     9.5011   1.6430   103.0852
 20      0.0000     0.0000E+00    0.0000E+00    6.250000E+09  0.00010  6.869E-05    0   0.4985   age166_m22            0.0000     4.5266E+02     8.6161   1.5594   101.0677
 21      0.0000     0.0000E+00    0.0000E+00    7.500000E+09  0.00010  5.873E-05    0   0.4931   age171_m22            0.0000     4.5815E+02     8.7402   1.5420   100.6840
 22      0.0150     7.3606E-03    7.0693E-03    1.000000E+10  0.00010  4.481E-05    0   0.4854   age181_m22            0.0000     4.4657E+02     8.6444   1.5032   100.3490
 23      0.0000     0.0000E+00    0.0000E+00    1.300000E+10  0.00010  3.489E-05    0   0.4791   age193_m22            0.0000     4.2099E+02     8.3961   1.4457    99.8448
 24      0.0000     0.0000E+00    0.0000E+00    1.500000E+10  0.00010  3.035E-05    0   0.4766   age201_m22            0.0000     4.0887E+02     8.2809   1.4050    99.7075
 25      0.0000     0.0000E+00    0.0000E+00    1.800000E+10  0.00010  2.510E-05    0   0.4735   age213_m22            0.0000     3.8370E+02     8.0536   1.3324    99.2295
 26      0.0000     0.0000E+00    0.0000E+00    1.000000E+06  0.00040  8.458E-03    0   1.0000   age020_m32            0.0000     2.4319E+03    28.0203   4.0000    94.6685
 27      0.0000     0.0000E+00    0.0000E+00    3.160000E+06  0.00040  3.973E-02    0   1.0000   age045_m32            0.0000     8.5332E+02    15.0172   3.9918    91.0363
 28      0.0000     0.0000E+00    0.0000E+00    5.010000E+06  0.00040  1.935E-02    0   0.9532   age055_m32            0.0000     1.1933E+03    19.3249   4.0000    90.6916
 29      0.0000     0.0000E+00    0.0000E+00    6.610000E+06  0.00040  1.204E-02    0   0.9243   age061_m32            0.0000     1.7995E+03    23.9530   4.0000    95.4903
 30      0.0000     0.0000E+00    0.0000E+00    8.710000E+06  0.00040  9.433E-03    0   0.9001   age067_m32            0.0000     1.6900E+03    23.2106   4.0000    95.8317
 31      0.0000     0.0000E+00    0.0000E+00    1.000000E+07  0.00040  8.053E-03    0   0.8877   age070_m32            0.0000     1.5810E+03    22.4896   4.0000    95.5693
 32      0.0000     0.0000E+00    0.0000E+00    1.445000E+07  0.00040  7.027E-03    0   0.8578   age078_m32            0.0000     9.4927E+02    16.1291   3.9320    90.2603
 33      0.0000     0.0000E+00    0.0000E+00    2.512000E+07  0.00040  4.707E-03    0   0.8166   age090_m32            0.0000     8.5798E+02    14.5960   3.6700    93.1792
 34      0.0000     0.0000E+00    0.0000E+00    4.000000E+07  0.00040  3.714E-03    0   0.7827   age104_m32            0.0000     8.3423E+02    13.3885   3.5085    95.2612
 35      0.0000     0.0000E+00    0.0000E+00    5.500000E+07  0.00040  2.982E-03    0   0.7593   age110_m32            0.0000     8.3977E+02    13.0140   3.4619    95.9870
 36      0.0000     0.0000E+00    0.0000E+00    1.015200E+08  0.00040  2.188E-03    0   0.7143   age116_m32            0.0000     9.4241E+02    12.7160   3.2491    98.7097
 37      0.0000     0.0000E+00    0.0000E+00    1.609000E+08  0.00040  1.690E-03    0   0.6856   age120_m32            0.0000     1.0621E+03    13.2035   3.0587   100.8553
 38      0.0000     0.0000E+00    0.0000E+00    2.861200E+08  0.00040  1.152E-03    0   0.6509   age125_m32            0.0000     1.1542E+03    13.5008   2.8462   102.5185
 39      0.0000     0.0000E+00    0.0000E+00    5.088000E+08  0.00040  7.331E-04    0   0.6182   age130_m32            0.0000     1.1733E+03    13.5245   2.6881   103.1696
 40      0.0000     0.0000E+00    0.0000E+00    9.047900E+08  0.00040  3.960E-04    0   0.5890   age135_m32            0.0000     8.0314E+02    11.1154   2.1980   102.7630
 41      0.0000     0.0000E+00    0.0000E+00    1.278050E+09  0.00040  2.854E-04    0   0.5687   age138_m32            0.0000     7.4002E+02    10.8008   1.8906   104.8512
 42      0.0000     0.0000E+00    0.0000E+00    1.434000E+09  0.00040  2.531E-04    0   0.5632   age139_m32            0.0000     7.2788E+02    10.7520   1.8285   104.8596
 43      0.0000     0.0000E+00    0.0000E+00    2.500000E+09  0.00040  1.488E-04    0   0.5386   age150_m32            0.0000     5.8508E+02     9.7550   1.5617   103.4365
 44      0.0000     0.0000E+00    0.0000E+00    4.250000E+09  0.00040  9.082E-05    0   0.5199   age158_m32            0.0000     3.9347E+02     7.9946   1.4265   101.2377
 45      1.4311     4.9614E-01    4.9831E-01    6.250000E+09  0.00040  6.362E-05    0   0.5076   age166_m32            0.0000     3.2767E+02     7.4866   1.3511    98.8448
 46      3.2380     1.3503E+00    1.3431E+00    7.500000E+09  0.00040  5.289E-05    0   0.5027   age171_m32            0.0000     3.0285E+02     7.3414   1.3082    97.7996
 47      2.4641     1.3683E+00    1.3396E+00    1.000000E+10  0.00040  3.972E-05    0   0.4948   age181_m32            0.0000     2.7343E+02     7.1142   1.2433    96.5638
 48      0.0000     0.0000E+00    0.0000E+00    1.300000E+10  0.00040  3.283E-05    0   0.4870   age193_m32            0.0000     2.9339E+02     7.0633   1.2181    98.7402
 49      0.0000     0.0000E+00    0.0000E+00    1.500000E+10  0.00040  2.925E-05    0   0.4854   age201_m32            0.0000     3.1670E+02     7.2220   1.2108    99.9986
 50      0.0416     3.7135E-02    3.5409E-02    1.800000E+10  0.00040  2.469E-05    0   0.4819   age213_m32            0.0000     3.2057E+02     7.2399   1.1743   100.4136
 51      0.0000     0.0000E+00    0.0000E+00    1.000000E+06  0.00400  1.114E-02    0   1.0000   age020_m42            0.0000     2.1323E+03    26.4839   4.0000    93.8942
 52      0.0000     0.0000E+00    0.0000E+00    3.160000E+06  0.00400  4.073E-02    0   0.9999   age045_m42            0.0000     6.9016E+02    13.0410   3.7132    93.0821
 53      0.0000     0.0000E+00    0.0000E+00    5.010000E+06  0.00400  2.534E-02    0   0.9488   age055_m42            0.0000     9.0177E+02    16.5633   4.0000    89.9418
 54      0.0000     0.0000E+00    0.0000E+00    6.610000E+06  0.00400  2.583E-02    0   0.9220   age061_m42            0.0000     7.2731E+02    13.0788   3.5492    93.3335
 55      0.0000     0.0000E+00    0.0000E+00    8.710000E+06  0.00400  1.706E-02    0   0.8983   age067_m42            0.0000     8.1144E+02    14.7270   3.3363    92.6293
 56      0.0000     0.0000E+00    0.0000E+00    1.000000E+07  0.00400  1.271E-02    0   0.8862   age070_m42            0.0000     9.3583E+02    16.3022   3.3016    91.8213
 57      0.0000     0.0000E+00    0.0000E+00    1.445000E+07  0.00400  7.666E-03    0   0.8571   age078_m42            0.0000     9.7412E+02    17.2318   3.6766    89.3665
 58      0.0000     0.0000E+00    0.0000E+00    2.512000E+07  0.00400  5.070E-03    0   0.8174   age090_m42            0.0000     8.5347E+02    15.6103   3.1705    93.5146
 59      0.0000     0.0000E+00    0.0000E+00    4.000000E+07  0.00400  3.505E-03    0   0.7851   age104_m42            0.0000     6.7197E+02    13.5250   2.8736    95.9972
 60      0.0000     0.0000E+00    0.0000E+00    5.500000E+07  0.00400  3.059E-03    0   0.7629   age110_m42            0.0000     6.6832E+02    11.5411   2.9978    98.5569
 61      0.0000     0.0000E+00    0.0000E+00    1.015200E+08  0.00400  2.268E-03    0   0.7207   age116_m42            0.0000     9.1859E+02    12.1354   2.9741   101.6409
 62      0.0000     0.0000E+00    0.0000E+00    1.609000E+08  0.00400  1.720E-03    0   0.6930   age120_m42            0.0000     9.2252E+02    11.9818   2.8352   103.1194
 63      0.0000     0.0000E+00    0.0000E+00    2.861200E+08  0.00400  1.079E-03    0   0.6613   age125_m42            0.0000     9.0070E+02    11.7534   2.4766   103.9404
 64      0.0000     0.0000E+00    0.0000E+00    5.088000E+08  0.00400  6.261E-04    0   0.6313   age130_m42            0.0000     9.6399E+02    12.3572   2.2875   106.6233
 65      0.0000     0.0000E+00    0.0000E+00    9.047900E+08  0.00400  3.535E-04    0   0.6024   age135_m42            0.0000     6.5847E+02    10.1382   1.8654   107.5331
 66      0.0000     0.0000E+00    0.0000E+00    1.278050E+09  0.00400  2.677E-04    0   0.5837   age138_m42            0.0000     2.1829E+02     5.9065   1.1633   105.8390
 67      0.1179     1.3611E-02    1.5394E-02    1.434000E+09  0.00400  1.910E-04    0   0.5716   age139_m42            0.0000     3.0621E+02     6.7282   1.3356   106.4507
 68      0.0000     0.0000E+00    0.0000E+00    2.500000E+09  0.00400  9.818E-05    0   0.5463   age150_m42            0.0000     9.0638E+01     3.5450   1.0323   102.7051
 69      0.4630     1.8600E-01    1.9391E-01    4.250000E+09  0.00400  5.491E-05    0   0.5269   age158_m42            0.0000     4.1829E+01     2.6603   0.8898   100.5206
 70      0.0000     0.0000E+00    0.0000E+00    6.250000E+09  0.00400  3.857E-05    0   0.5151   age166_m42            0.0000     2.0938E+01     2.0564   0.7605    99.3007
 71      0.1404     9.5521E-02    9.6580E-02    7.500000E+09  0.00400  3.243E-05    0   0.5110   age171_m42            0.0000     1.6477E+01     1.8858   0.6826    98.7745
 72      8.6189     7.8425E+00    7.8022E+00    1.000000E+10  0.00400  2.424E-05    0   0.5028   age181_m42            0.0000     1.7541E+01     1.9019   0.6033    98.2018
 73      2.3185     2.7158E+00    2.6476E+00    1.300000E+10  0.00400  1.883E-05    0   0.4927   age193_m42            0.0000     2.4295E+01     2.1929   0.5617    97.9951
 74      0.0000     0.0000E+00    0.0000E+00    1.500000E+10  0.00400  1.685E-05    0   0.4919   age201_m42            0.0000     2.3509E+01     2.1143   0.5651    98.0507
 75      2.4885     3.7801E+00    3.6455E+00    1.800000E+10  0.00400  1.452E-05    0   0.4874   age213_m42            0.0000     2.3253E+01     2.0299   0.5787    98.3592
 76      0.0000     0.0000E+00    0.0000E+00    1.000000E+06  0.00800  1.286E-02    0   1.0000   age020_m52            0.0000     2.0207E+03    25.5320   4.0000    95.3929
 77      0.0000     0.0000E+00    0.0000E+00    3.160000E+06  0.00800  3.147E-02    0   0.9966   age045_m52            0.0000     1.7823E+03    23.9861   4.0000    95.3425
 78      0.0000     0.0000E+00    0.0000E+00    5.010000E+06  0.00800  2.664E-02    0   0.9443   age055_m52            0.0000     1.0417E+03    18.2406   4.0000    91.8214
 79      0.0000     0.0000E+00    0.0000E+00    6.610000E+06  0.00800  2.151E-02    0   0.9177   age061_m52            0.0000     6.9086E+02    14.2562   2.8840    93.9616
 80      0.0000     0.0000E+00    0.0000E+00    8.710000E+06  0.00800  1.628E-02    0   0.8948   age067_m52            0.0000     8.4101E+02    15.2418   3.2728    93.6399
 81      0.0000     0.0000E+00    0.0000E+00    1.000000E+07  0.00800  1.215E-02    0   0.8827   age070_m52            0.0000     9.3308E+02    16.2670   3.6031    91.9846
 82      0.0000     0.0000E+00    0.0000E+00    1.445000E+07  0.00800  8.739E-03    0   0.8552   age078_m52            0.0000     9.0452E+02    15.5961   3.6624    92.6724
 83      0.0000     0.0000E+00    0.0000E+00    2.512000E+07  0.00800  5.676E-03    0   0.8162   age090_m52            0.0000     8.9709E+02    14.2852   3.3016    96.2061
 84      0.0000     0.0000E+00    0.0000E+00    4.000000E+07  0.00800  3.939E-03    0   0.7841   age104_m52            0.0000     8.3503E+02    12.9853   3.1668    97.9952
 85      0.0000     0.0000E+00    0.0000E+00    5.500000E+07  0.00800  3.155E-03    0   0.7627   age110_m52            0.0000     8.2903E+02    12.2674   3.1610    99.0833
 86      0.0000     0.0000E+00    0.0000E+00    1.015200E+08  0.00800  2.206E-03    0   0.7226   age116_m52            0.0000     8.5216E+02    11.6700   3.0111   101.9746
 87      0.0000     0.0000E+00    0.0000E+00    1.609000E+08  0.00800  1.596E-03    0   0.6963   age120_m52            0.0000     8.7815E+02    11.6432   2.8050   103.4544
 88      0.0000     0.0000E+00    0.0000E+00    2.861200E+08  0.00800  1.002E-03    0   0.6665   age125_m52            0.0000     9.7472E+02    12.2506   2.5337   105.7797
 89      0.0000     0.0000E+00    0.0000E+00    5.088000E+08  0.00800  5.759E-04    0   0.6377   age130_m52            0.0000     9.1678E+02    11.6327   2.1893   109.7033
 90      0.0000     0.0000E+00    0.0000E+00    9.047900E+08  0.00800  2.972E-04    0   0.6086   age135_m52            0.0000     5.0611E+02     8.3926   1.6334   109.2518
 91      0.0000     0.0000E+00    0.0000E+00    1.278050E+09  0.00800  2.242E-04    0   0.5907   age138_m52            0.0000     1.5443E+02     4.7365   0.9843   108.9860
 92      0.0000     0.0000E+00    0.0000E+00    1.434000E+09  0.00800  1.645E-04    0   0.5787   age139_m52            0.0000     1.5396E+02     4.7149   1.1272   108.4597
 93      0.0000     0.0000E+00    0.0000E+00    2.500000E+09  0.00800  7.723E-05    0   0.5519   age150_m52            0.0000     3.9601E+01     2.6485   0.7678   105.2891
 94      3.0494     1.6203E+00    1.7056E+00    4.250000E+09  0.00800  4.151E-05    0   0.5320   age158_m52            0.0000     1.9239E+01     1.9979   0.6870   103.0144
 95     24.7158     1.8111E+01    1.8624E+01    6.250000E+09  0.00800  3.010E-05    0   0.5197   age166_m52            0.0000     1.5181E+01     2.0320   0.4914   101.7722
 96     12.0717     1.0793E+01    1.0974E+01    7.500000E+09  0.00800  2.467E-05    0   0.5139   age171_m52            0.0000     1.9047E+01     2.2443   0.4508   101.3772
 97     13.1562     1.5584E+01    1.5584E+01    1.000000E+10  0.00800  1.862E-05    0   0.5054   age181_m52            0.0000     4.1702E+01     3.1827   0.3240   100.9772
