###################################################################
## OUTPUT of StarlightChains_v04.for    [Cid@UFSC - 01/Apr/2007] ##
###################################################################

## Some input info
NGC6304_a_1.cxt                          [arq_obs]
Base.BC03.S                              [arq_base]
NGC6304_a_1.msk                          [arq_masks]
StCv04.C11.config                        [arq_config]
  150                                    [N_base]
    0                                    [N_YAV_components = # of components with extra extinction!]
    0                                    [i_FitPowerLaw (1/0 = Yes/No)]
-9.99                                    [alpha_PowerLaw]
CCM                                      [red_law_option]
 1.458241                                [q_norm = A(l_norm)/A(V)]

## (Re)Sampling Parameters
 3359.00                                 [l_ini (A)]
 6428.00                                 [l_fin (A)]
    1.00                                 [dl    (A)]     (OBS: dl_cushion =    50.00 A)

## Normalization info
 4020.00                                 [l_norm (A) - for base]
 4010.00                                 [llow_norm (A) - window for f_obs]
 4060.00                                 [lupp_norm (A) - window for f_obs]
6.037552E-15                             [fobs_norm (in input units)]

## S/N
 4730.00                                 [llow_SN (A) - window for S/N]
 4780.00                                 [lupp_SN (A) - window for S/N]
  34.026                                 [S/N in S/N window]
  19.978                                 [S/N in norm. window]
 118.990                                 [S/N_err in S/N window]
  69.864                                 [S/N_err in norm. window]
  1.0000                                 [fscale_chi2]

## etc...
  2147483619                             [idum_orig]
  3066                                   [NOl_eff]
  1275                                   [Nl_eff]
  1791    NSIGMA                         [Ntot_cliped & clip_method]
  1851150                                [Nglobal_steps]
   7                                     [N_chains]
  27                                     [NEX0s_base = N_base in EX0s-fits]
 0   0   1      178   2.0   5.094E+02    [Clip-Bug, RC-Crash & Burn-In warning-flags, n_censored_weights, wei_nsig_threshold & wei_limit]
    63     62.490     62.482      0.008  [idt_all, wdt_TotTime, wdt_UsrTime & wdt_SysTime (sec)]

## Synthesis Results - Best model ##

 2.46488E+00                             [chi2/Nl_eff]
     2.27126                             [adev (%)]

    98.87212                             [sum-of-x (%)]
 3.44993E-14                             [Flux_tot (units of input spectrum!)]
 2.08758E-09                             [Mini_tot (???)]
 1.04186E-09                             [Mcor_tot (???)]

   6.54                                  [v0_min  (km/s)]
  36.73                                  [vd_min  (km/s)]
 1.3062                                  [AV_min  (mag)]
 0.0000                                  [YAV_min (mag)]

# j     x_j(%)      Mini_j(%)     Mcor_j(%)     age_j(yr)     Z_j      (L/M)_j    YAV?  Mstars   component_j        a/Fe...       SSP_chi2r SSP_adev(%)   SSP_AV   SSP_x(%)
  1      2.7643     5.6622E-03    1.1345E-02    1.000000E+06  0.00010  8.160E-03    0   1.0000   age020_m22            0.0000     2.3618E+03    36.6351   4.0000    89.6086
  2      9.3395     3.2802E-03    6.5725E-03    3.160000E+06  0.00010  4.759E-02    0   1.0000   age045_m22            0.0000     2.9315E+02     9.9157   3.6341    96.9644
  3      4.5288     3.9180E-03    7.5224E-03    5.010000E+06  0.00010  1.932E-02    0   0.9582   age055_m22            0.0000     4.4443E+02    16.0447   4.0000    86.2852
  4      0.0000     0.0000E+00    0.0000E+00    6.610000E+06  0.00010  9.973E-03    0   0.9297   age061_m22            0.0000     2.2829E+03    36.3009   4.0000    92.1238
  5      0.0000     0.0000E+00    0.0000E+00    8.710000E+06  0.00010  7.690E-03    0   0.9030   age067_m22            0.0000     2.2242E+03    35.9909   4.0000    92.5644
  6      0.3978     1.0429E-03    1.8603E-03    1.000000E+07  0.00010  6.375E-03    0   0.8902   age070_m22            0.0000     2.1974E+03    36.1403   4.0000    92.7214
  7      0.0000     0.0000E+00    0.0000E+00    1.445000E+07  0.00010  4.874E-03    0   0.8589   age078_m22            0.0000     1.7484E+03    31.7303   4.0000    95.4814
  8      0.0000     0.0000E+00    0.0000E+00    2.512000E+07  0.00010  4.103E-03    0   0.8174   age090_m22            0.0000     1.0163E+03    22.0231   4.0000   100.1451
  9      0.0000     0.0000E+00    0.0000E+00    4.000000E+07  0.00010  3.654E-03    0   0.7830   age104_m22            0.0000     7.4654E+02    15.2340   4.0000   102.2540
 10      0.0000     0.0000E+00    0.0000E+00    5.500000E+07  0.00010  3.093E-03    0   0.7597   age110_m22            0.0000     6.7060E+02    13.3103   4.0000   102.4915
 11      0.0000     0.0000E+00    0.0000E+00    1.015200E+08  0.00010  2.431E-03    0   0.7138   age116_m22            0.0000     5.9223E+02     8.6650   4.0000   101.2967
 12      0.0000     0.0000E+00    0.0000E+00    1.609000E+08  0.00010  1.319E-03    0   0.6775   age120_m22            0.0000     5.4724E+02     8.9228   3.7273   100.6545
 13      0.0000     0.0000E+00    0.0000E+00    2.861200E+08  0.00010  1.075E-03    0   0.6412   age125_m22            0.0000     8.6309E+02     9.5904   3.7044   103.3730
 14      0.0000     0.0000E+00    0.0000E+00    5.088000E+08  0.00010  7.183E-04    0   0.6083   age130_m22            0.0000     9.5764E+02    10.4977   3.4295   105.0158
 15      0.0000     0.0000E+00    0.0000E+00    9.047900E+08  0.00010  4.524E-04    0   0.5785   age135_m22            0.0000     9.5561E+02    10.5557   3.2213   106.3176
 16      0.0000     0.0000E+00    0.0000E+00    1.278050E+09  0.00010  3.018E-04    0   0.5588   age138_m22            0.0000     6.1400E+02     8.2541   2.7183   104.9425
 17      0.0000     0.0000E+00    0.0000E+00    1.434000E+09  0.00010  2.691E-04    0   0.5532   age139_m22            0.0000     5.4844E+02     7.8585   2.5684   104.4559
 18      0.0000     0.0000E+00    0.0000E+00    2.500000E+09  0.00010  1.582E-04    0   0.5296   age150_m22            0.0000     5.2534E+02     7.8793   2.4944   105.2403
 19      0.0000     0.0000E+00    0.0000E+00    4.250000E+09  0.00010  1.007E-04    0   0.5110   age158_m22            0.0000     3.9820E+02     7.2999   2.3629   103.9130
 20      0.0001     1.4509E-05    1.4492E-05    6.250000E+09  0.00010  6.869E-05    0   0.4985   age166_m22            0.0000     2.9449E+02     7.0751   2.3268   101.4442
 21      0.0000     0.0000E+00    0.0000E+00    7.500000E+09  0.00010  5.873E-05    0   0.4931   age171_m22            0.0000     2.8690E+02     7.2811   2.3282   100.9371
 22      0.0000     0.0000E+00    0.0000E+00    1.000000E+10  0.00010  4.481E-05    0   0.4854   age181_m22            0.0000     2.7950E+02     7.1557   2.2852   100.5725
 23      0.0000     0.0000E+00    0.0000E+00    1.300000E+10  0.00010  3.489E-05    0   0.4791   age193_m22            0.0000     2.6374E+02     6.9443   2.2217   100.0580
 24      0.0000     2.6344E-05    2.5158E-05    1.500000E+10  0.00010  3.035E-05    0   0.4766   age201_m22            0.0000     2.5507E+02     6.8693   2.1825    99.8959
 25      0.0022     1.4936E-03    1.4170E-03    1.800000E+10  0.00010  2.510E-05    0   0.4735   age213_m22            0.0000     2.3566E+02     6.7311   2.1139    99.3657
 26      2.8890     5.7093E-03    1.1440E-02    1.000000E+06  0.00040  8.458E-03    0   1.0000   age020_m32            0.0000     2.3643E+03    37.0168   4.0000    90.1781
 27      0.0000     0.0000E+00    0.0000E+00    3.160000E+06  0.00040  3.973E-02    0   1.0000   age045_m32            0.0000     9.1740E+02    19.7750   4.0000    99.7107
 28      0.0000     0.0000E+00    0.0000E+00    5.010000E+06  0.00040  1.935E-02    0   0.9532   age055_m32            0.0000     1.4444E+03    26.1886   4.0000    95.0820
 29      0.0000     0.0000E+00    0.0000E+00    6.610000E+06  0.00040  1.204E-02    0   0.9243   age061_m32            0.0000     1.9452E+03    32.9519   4.0000    94.0750
 30      0.0036     6.3850E-06    1.1516E-05    8.710000E+06  0.00040  9.433E-03    0   0.9001   age067_m32            0.0000     1.8358E+03    32.1179   4.0000    94.9572
 31      0.0000     0.0000E+00    0.0000E+00    1.000000E+07  0.00040  8.053E-03    0   0.8877   age070_m32            0.0000     1.7573E+03    31.2722   4.0000    95.3530
 32      0.0000     0.0000E+00    0.0000E+00    1.445000E+07  0.00040  7.027E-03    0   0.8578   age078_m32            0.0000     9.5236E+02    19.3085   4.0000    98.2179
 33      0.0000     0.0000E+00    0.0000E+00    2.512000E+07  0.00040  4.707E-03    0   0.8166   age090_m32            0.0000     6.3253E+02    12.5537   4.0000    99.4727
 34      0.0000     0.0000E+00    0.0000E+00    4.000000E+07  0.00040  3.714E-03    0   0.7827   age104_m32            0.0000     5.3318E+02     9.1743   4.0000   100.2619
 35      0.0000     0.0000E+00    0.0000E+00    5.500000E+07  0.00040  2.982E-03    0   0.7593   age110_m32            0.0000     5.3067E+02     8.7602   4.0000   100.4152
 36      0.0000     0.0000E+00    0.0000E+00    1.015200E+08  0.00040  2.188E-03    0   0.7143   age116_m32            0.0000     6.4621E+02     9.2848   3.9771   100.3353
 37      0.0000     0.0000E+00    0.0000E+00    1.609000E+08  0.00040  1.690E-03    0   0.6856   age120_m32            0.0000     7.7660E+02     9.2766   3.7310   102.6847
 38      0.0000     0.0000E+00    0.0000E+00    2.861200E+08  0.00040  1.152E-03    0   0.6509   age125_m32            0.0000     8.8281E+02     9.7681   3.4427   104.4192
 39      0.0000     0.0000E+00    0.0000E+00    5.088000E+08  0.00040  7.331E-04    0   0.6182   age130_m32            0.0000     9.0991E+02    10.2913   3.2443   105.2595
 40      0.0000     0.0000E+00    0.0000E+00    9.047900E+08  0.00040  3.960E-04    0   0.5890   age135_m32            0.0000     6.1921E+02     8.4876   2.7895   104.3354
 41      0.0000     0.0000E+00    0.0000E+00    1.278050E+09  0.00040  2.854E-04    0   0.5687   age138_m32            0.0000     5.6448E+02     7.9327   2.5470   106.2710
 42      0.0000     0.0000E+00    0.0000E+00    1.434000E+09  0.00040  2.531E-04    0   0.5632   age139_m32            0.0000     5.5321E+02     7.8882   2.4885   106.2092
 43      0.0000     0.0000E+00    0.0000E+00    2.500000E+09  0.00040  1.488E-04    0   0.5386   age150_m32            0.0000     4.4178E+02     7.2305   2.2327   104.5514
 44      0.0000     0.0000E+00    0.0000E+00    4.250000E+09  0.00040  9.082E-05    0   0.5199   age158_m32            0.0000     2.7179E+02     6.4063   2.1610   101.6819
 45      1.0273     2.6989E-01    2.7450E-01    6.250000E+09  0.00040  6.362E-05    0   0.5076   age166_m32            0.0000     1.8996E+02     6.6503   2.1596    98.7438
 46      1.3461     4.2539E-01    4.2848E-01    7.500000E+09  0.00040  5.289E-05    0   0.5027   age171_m32            0.0000     1.7114E+02     6.4994   2.1198    97.5607
 47      0.0000     0.0000E+00    0.0000E+00    1.000000E+10  0.00040  3.972E-05    0   0.4948   age181_m32            0.0000     1.5360E+02     6.1962   2.0473    96.2093
 48      0.0001     6.5794E-05    6.4202E-05    1.300000E+10  0.00040  3.283E-05    0   0.4870   age193_m32            0.0000     1.8639E+02     5.8887   1.9801    98.7957
 49      0.0000     0.0000E+00    0.0000E+00    1.500000E+10  0.00040  2.925E-05    0   0.4854   age201_m32            0.0000     2.1333E+02     5.8517   1.9513   100.2811
 50      0.0000     0.0000E+00    0.0000E+00    1.800000E+10  0.00040  2.469E-05    0   0.4819   age213_m32            0.0000     2.2203E+02     5.7448   1.9010   100.7771
 51      0.2551     3.8282E-04    7.6706E-04    1.000000E+06  0.00400  1.114E-02    0   1.0000   age020_m42            0.0000     2.2140E+03    35.3463   4.0000    90.6543
 52      0.0000     0.0000E+00    0.0000E+00    3.160000E+06  0.00400  4.073E-02    0   0.9999   age045_m42            0.0000     5.4460E+02    12.8448   4.0000    99.6085
 53      0.0000     0.0000E+00    0.0000E+00    5.010000E+06  0.00400  2.534E-02    0   0.9488   age055_m42            0.0000     1.1051E+03    22.4000   4.0000    96.8563
 54      0.0001     6.4553E-08    1.1926E-07    6.610000E+06  0.00400  2.583E-02    0   0.9220   age061_m42            0.0000     4.7955E+02     9.4597   4.0000    98.5907
 55      0.0000     0.0000E+00    0.0000E+00    8.710000E+06  0.00400  1.706E-02    0   0.8983   age067_m42            0.0000     4.2969E+02     9.4058   4.0000    95.7681
 56      0.0000     0.0000E+00    0.0000E+00    1.000000E+07  0.00400  1.271E-02    0   0.8862   age070_m42            0.0000     4.7074E+02    10.3731   4.0000    94.6593
 57      0.0000     0.0000E+00    0.0000E+00    1.445000E+07  0.00400  7.666E-03    0   0.8571   age078_m42            0.0000     7.7075E+02    14.3489   4.0000    95.1993
 58      0.0000     0.0000E+00    0.0000E+00    2.512000E+07  0.00400  5.070E-03    0   0.8174   age090_m42            0.0000     3.8972E+02    10.7688   4.0000    94.7486
 59      0.0000     0.0000E+00    0.0000E+00    4.000000E+07  0.00400  3.505E-03    0   0.7851   age104_m42            0.0000     3.1280E+02    10.7330   3.8063    95.3436
 60      0.0000     0.0000E+00    0.0000E+00    5.500000E+07  0.00400  3.059E-03    0   0.7629   age110_m42            0.0000     4.0416E+02     8.2501   3.7835    99.1227
 61      0.0000     0.0000E+00    0.0000E+00    1.015200E+08  0.00400  2.268E-03    0   0.7207   age116_m42            0.0000     6.8041E+02     8.3229   3.6135   103.7518
 62      0.0000     0.0000E+00    0.0000E+00    1.609000E+08  0.00400  1.720E-03    0   0.6930   age120_m42            0.0000     7.0098E+02     8.4980   3.4368   105.4850
 63      0.0000     0.0000E+00    0.0000E+00    2.861200E+08  0.00400  1.079E-03    0   0.6613   age125_m42            0.0000     6.9235E+02     8.6628   3.0540   105.8213
 64      0.0000     0.0000E+00    0.0000E+00    5.088000E+08  0.00400  6.261E-04    0   0.6313   age130_m42            0.0000     7.5510E+02     8.8418   2.8676   108.8388
 65      0.0000     0.0000E+00    0.0000E+00    9.047900E+08  0.00400  3.535E-04    0   0.6024   age135_m42            0.0000     5.2032E+02     7.3045   2.4679   109.5870
 66      0.0000     0.0000E+00    0.0000E+00    1.278050E+09  0.00400  2.677E-04    0   0.5837   age138_m42            0.0000     2.0728E+02     6.3384   1.6896   107.4361
 67      0.0000     0.0000E+00    0.0000E+00    1.434000E+09  0.00400  1.910E-04    0   0.5716   age139_m42            0.0000     2.7715E+02     6.3557   1.8773   108.2911
 68      0.0000     0.0000E+00    0.0000E+00    2.500000E+09  0.00400  9.818E-05    0   0.5463   age150_m42            0.0000     9.9654E+01     4.5831   1.6097   103.5741
 69      0.0001     3.7442E-05    3.9529E-05    4.250000E+09  0.00400  5.491E-05    0   0.5269   age158_m42            0.0000     4.9120E+01     3.6714   1.4982   100.7881
 70      0.0000     0.0000E+00    0.0000E+00    6.250000E+09  0.00400  3.857E-05    0   0.5151   age166_m42            0.0000     3.2451E+01     3.8788   1.3497    99.4797
 71      0.0000     0.0000E+00    0.0000E+00    7.500000E+09  0.00400  3.243E-05    0   0.5110   age171_m42            0.0000     2.8256E+01     4.2101   1.2537    98.9200
 72      0.0000     0.0000E+00    0.0000E+00    1.000000E+10  0.00400  2.424E-05    0   0.5028   age181_m42            0.0000     2.5861E+01     4.6499   1.1546    98.2825
 73      0.0000     0.0000E+00    0.0000E+00    1.300000E+10  0.00400  1.883E-05    0   0.4927   age193_m42            0.0000     2.5947E+01     4.9753   1.1049    97.9644
 74      0.0000     0.0000E+00    0.0000E+00    1.500000E+10  0.00400  1.685E-05    0   0.4919   age201_m42            0.0000     2.5165E+01     4.8372   1.1136    97.9735
 75      0.0000     0.0000E+00    0.0000E+00    1.800000E+10  0.00400  1.452E-05    0   0.4874   age213_m42            0.0000     2.4241E+01     4.6216   1.1354    98.2493
 76      0.0000     0.0000E+00    0.0000E+00    1.000000E+06  0.00800  1.286E-02    0   1.0000   age020_m52            0.0000     2.0697E+03    34.6282   4.0000    92.3516
 77      0.0000     0.0000E+00    0.0000E+00    3.160000E+06  0.00800  3.147E-02    0   0.9966   age045_m52            0.0000     1.9433E+03    32.8310   4.0000    93.8419
 78      0.0000     0.0000E+00    0.0000E+00    5.010000E+06  0.00800  2.664E-02    0   0.9443   age055_m52            0.0000     1.3179E+03    25.0896   4.0000    96.5770
 79      0.0000     0.0000E+00    0.0000E+00    6.610000E+06  0.00800  2.151E-02    0   0.9177   age061_m52            0.0000     2.8876E+02    12.8067   3.8913    92.9121
 80      0.0000     0.0000E+00    0.0000E+00    8.710000E+06  0.00800  1.628E-02    0   0.8948   age067_m52            0.0000     4.1882E+02     9.7618   4.0000    95.9880
 81      0.0000     0.0000E+00    0.0000E+00    1.000000E+07  0.00800  1.215E-02    0   0.8827   age070_m52            0.0000     6.5529E+02    12.2488   4.0000    97.4404
 82      0.0000     0.0000E+00    0.0000E+00    1.445000E+07  0.00800  8.739E-03    0   0.8552   age078_m52            0.0000     6.7315E+02    12.8398   4.0000    98.9034
 83      0.0000     0.0000E+00    0.0000E+00    2.512000E+07  0.00800  5.676E-03    0   0.8162   age090_m52            0.0000     4.7844E+02     8.9531   4.0000    98.9252
 84      0.0000     0.0000E+00    0.0000E+00    4.000000E+07  0.00800  3.939E-03    0   0.7841   age104_m52            0.0000     4.6472E+02     9.5356   4.0000    98.6189
 85      0.0000     0.0000E+00    0.0000E+00    5.500000E+07  0.00800  3.155E-03    0   0.7627   age110_m52            0.0000     5.0636E+02     9.1065   3.9630    99.8676
 86      0.0000     0.0000E+00    0.0000E+00    1.015200E+08  0.00800  2.206E-03    0   0.7226   age116_m52            0.0000     5.9753E+02     8.2549   3.6996   103.8709
 87      0.0000     0.0000E+00    0.0000E+00    1.609000E+08  0.00800  1.596E-03    0   0.6963   age120_m52            0.0000     6.4114E+02     8.1498   3.4464   105.5958
 88      0.0000     0.0000E+00    0.0000E+00    2.861200E+08  0.00800  1.002E-03    0   0.6665   age125_m52            0.0000     7.6948E+02     9.5148   3.0613   108.2413
 89      0.0000     0.0000E+00    0.0000E+00    5.088000E+08  0.00800  5.759E-04    0   0.6377   age130_m52            0.0000     7.5903E+02    10.4485   2.6475   112.6944
 90      0.0000     0.0000E+00    0.0000E+00    9.047900E+08  0.00800  2.972E-04    0   0.6086   age135_m52            0.0000     4.4772E+02     9.4608   2.0650   111.7776
 91      0.0000     0.0000E+00    0.0000E+00    1.278050E+09  0.00800  2.242E-04    0   0.5907   age138_m52            0.0000     1.7769E+02     7.1259   1.4676   110.3320
 92      0.0000     0.0000E+00    0.0000E+00    1.434000E+09  0.00800  1.645E-04    0   0.5787   age139_m52            0.0000     1.7169E+02     6.3357   1.6444   109.7535
 93      0.0000     0.0000E+00    0.0000E+00    2.500000E+09  0.00800  7.723E-05    0   0.5519   age150_m52            0.0000     6.6169E+01     5.1368   1.3136   106.0151
 94      0.3470     1.3973E-01    1.4895E-01    4.250000E+09  0.00800  4.151E-05    0   0.5320   age158_m52            0.0000     4.1841E+01     4.5978   1.2565   103.3726
 95      0.0000     0.0000E+00    0.0000E+00    6.250000E+09  0.00800  3.010E-05    0   0.5197   age166_m52            0.0000     3.0416E+01     5.0958   1.0369   101.9577
 96      0.0000     0.0000E+00    0.0000E+00    7.500000E+09  0.00800  2.467E-05    0   0.5139   age171_m52            0.0000     3.0768E+01     5.3667   0.9855   101.5688
 97     11.0927     9.9575E+00    1.0084E+01    1.000000E+10  0.00800  1.862E-05    0   0.5054   age181_m52            0.0000     3.8330E+01     6.3590   0.8231   101.2713
