###################################################################
## OUTPUT of StarlightChains_v04.for    [Cid@UFSC - 01/Apr/2007] ##
###################################################################

## Some input info
NGC6388_a_1.cxt                          [arq_obs]
Base.BC03.S                              [arq_base]
NGC6388_a_1.msk                          [arq_masks]
StCv04.C11.config                        [arq_config]
  150                                    [N_base]
    0                                    [N_YAV_components = # of components with extra extinction!]
    0                                    [i_FitPowerLaw (1/0 = Yes/No)]
-9.99                                    [alpha_PowerLaw]
CCM                                      [red_law_option]
 1.458241                                [q_norm = A(l_norm)/A(V)]

## (Re)Sampling Parameters
 3359.00                                 [l_ini (A)]
 6428.00                                 [l_fin (A)]
    1.00                                 [dl    (A)]     (OBS: dl_cushion =    50.00 A)

## Normalization info
 4020.00                                 [l_norm (A) - for base]
 4010.00                                 [llow_norm (A) - window for f_obs]
 4060.00                                 [lupp_norm (A) - window for f_obs]
4.539934E-14                             [fobs_norm (in input units)]

## S/N
 4730.00                                 [llow_SN (A) - window for S/N]
 4780.00                                 [lupp_SN (A) - window for S/N]
  38.687                                 [S/N in S/N window]
  24.472                                 [S/N in norm. window]
 271.099                                 [S/N_err in S/N window]
 171.489                                 [S/N_err in norm. window]
  1.0000                                 [fscale_chi2]

## etc...
  2147483610                             [idum_orig]
  3069                                   [NOl_eff]
   694                                   [Nl_eff]
  2375    NSIGMA                         [Ntot_cliped & clip_method]
  1988350                                [Nglobal_steps]
   7                                     [N_chains]
  25                                     [NEX0s_base = N_base in EX0s-fits]
 0   0   1      207   2.0   3.750E+02    [Clip-Bug, RC-Crash & Burn-In warning-flags, n_censored_weights, wei_nsig_threshold & wei_limit]
    75     75.585     75.573      0.012  [idt_all, wdt_TotTime, wdt_UsrTime & wdt_SysTime (sec)]

## Synthesis Results - Best model ##

 2.67794E+00                             [chi2/Nl_eff]
     1.14661                             [adev (%)]

   100.57680                             [sum-of-x (%)]
 1.68680E-13                             [Flux_tot (units of input spectrum!)]
 8.23806E-09                             [Mini_tot (???)]
 4.17984E-09                             [Mcor_tot (???)]

 -12.26                                  [v0_min  (km/s)]
  43.78                                  [vd_min  (km/s)]
 0.9729                                  [AV_min  (mag)]
 0.0000                                  [YAV_min (mag)]

# j     x_j(%)      Mini_j(%)     Mcor_j(%)     age_j(yr)     Z_j      (L/M)_j    YAV?  Mstars   component_j        a/Fe...       SSP_chi2r SSP_adev(%)   SSP_AV   SSP_x(%)
  1      0.0000     0.0000E+00    0.0000E+00    1.000000E+06  0.00010  8.160E-03    0   1.0000   age020_m22            0.0000     4.2585E+03    37.5429   4.0000    97.4956
  2      4.4844     1.9184E-03    3.7809E-03    3.160000E+06  0.00010  4.759E-02    0   1.0000   age045_m22            0.0000     4.3072E+02    10.8815   3.0111    97.5850
  3      2.1819     2.2992E-03    4.3420E-03    5.010000E+06  0.00010  1.932E-02    0   0.9582   age055_m22            0.0000     1.1502E+03    19.6364   3.2299    86.2172
  4      0.0000     0.0000E+00    0.0000E+00    6.610000E+06  0.00010  9.973E-03    0   0.9297   age061_m22            0.0000     4.0390E+03    36.4011   4.0000   100.2409
  5      0.0000     0.0000E+00    0.0000E+00    8.710000E+06  0.00010  7.690E-03    0   0.9030   age067_m22            0.0000     3.9438E+03    35.9966   4.0000   100.6398
  6      0.0000     0.0000E+00    0.0000E+00    1.000000E+07  0.00010  6.375E-03    0   0.8902   age070_m22            0.0000     3.9818E+03    36.0125   4.0000   101.0055
  7      0.0000     0.0000E+00    0.0000E+00    1.445000E+07  0.00010  4.874E-03    0   0.8589   age078_m22            0.0000     2.8026E+03    31.1099   4.0000   101.5708
  8      0.0000     0.0000E+00    0.0000E+00    2.512000E+07  0.00010  4.103E-03    0   0.8174   age090_m22            0.0000     1.1077E+03    20.3643   4.0000   100.5340
  9      0.0000     0.0000E+00    0.0000E+00    4.000000E+07  0.00010  3.654E-03    0   0.7830   age104_m22            0.0000     6.4980E+02    13.8697   4.0000    98.2520
 10      0.0000     0.0000E+00    0.0000E+00    5.500000E+07  0.00010  3.093E-03    0   0.7597   age110_m22            0.0000     5.9563E+02    12.3275   4.0000    97.1117
 11      0.0000     0.0000E+00    0.0000E+00    1.015200E+08  0.00010  2.431E-03    0   0.7138   age116_m22            0.0000     6.3710E+02    11.9418   3.6795    99.3336
 12      0.0000     0.0000E+00    0.0000E+00    1.609000E+08  0.00010  1.319E-03    0   0.6775   age120_m22            0.0000     5.8172E+02    11.0953   3.2030   101.6269
 13      0.0000     0.0000E+00    0.0000E+00    2.861200E+08  0.00010  1.075E-03    0   0.6412   age125_m22            0.0000     8.8867E+02    13.5443   3.3194   103.7596
 14      0.0000     0.0000E+00    0.0000E+00    5.088000E+08  0.00010  7.183E-04    0   0.6083   age130_m22            0.0000     9.8767E+02    14.3176   3.0977   105.1777
 15      0.0000     0.0000E+00    0.0000E+00    9.047900E+08  0.00010  4.524E-04    0   0.5785   age135_m22            0.0000     9.8295E+02    14.3019   2.8928   106.4699
 16      0.0000     0.0000E+00    0.0000E+00    1.278050E+09  0.00010  3.018E-04    0   0.5588   age138_m22            0.0000     5.9139E+02    10.7485   2.3341   105.5668
 17      0.0000     0.0000E+00    0.0000E+00    1.434000E+09  0.00010  2.691E-04    0   0.5532   age139_m22            0.0000     5.2150E+02    10.0367   2.1737   105.1572
 18      0.0000     0.0000E+00    0.0000E+00    2.500000E+09  0.00010  1.582E-04    0   0.5296   age150_m22            0.0000     4.9773E+02     9.8718   2.0445   106.3511
 19      0.0000     0.0000E+00    0.0000E+00    4.250000E+09  0.00010  1.007E-04    0   0.5110   age158_m22            0.0000     3.7854E+02     8.4244   1.8818   104.8961
 20      0.0818     2.4246E-02    2.3821E-02    6.250000E+09  0.00010  6.869E-05    0   0.4985   age166_m22            0.0000     3.0224E+02     7.5233   1.8161   102.2865
 21      0.4780     1.6568E-01    1.6102E-01    7.500000E+09  0.00010  5.873E-05    0   0.4931   age171_m22            0.0000     3.0751E+02     7.6513   1.7969   101.9315
 22      0.0000     0.0000E+00    0.0000E+00    1.000000E+10  0.00010  4.481E-05    0   0.4854   age181_m22            0.0000     2.9845E+02     7.5506   1.7590   101.5459
 23      0.0000     0.0000E+00    0.0000E+00    1.300000E+10  0.00010  3.489E-05    0   0.4791   age193_m22            0.0000     2.7999E+02     7.3210   1.7028   100.9729
 24      0.0000     0.0000E+00    0.0000E+00    1.500000E+10  0.00010  3.035E-05    0   0.4766   age201_m22            0.0000     2.7090E+02     7.2204   1.6636   100.7970
 25      0.7523     6.1022E-01    5.6947E-01    1.800000E+10  0.00010  2.510E-05    0   0.4735   age213_m22            0.0000     2.5410E+02     7.0360   1.5941   100.2221
 26      0.0000     0.0000E+00    0.0000E+00    1.000000E+06  0.00040  8.458E-03    0   1.0000   age020_m32            0.0000     4.3374E+03    37.6238   4.0000    98.4433
 27      0.0000     0.0000E+00    0.0000E+00    3.160000E+06  0.00040  3.973E-02    0   1.0000   age045_m32            0.0000     9.1037E+02    18.4824   4.0000    98.0801
 28      0.0000     0.0000E+00    0.0000E+00    5.010000E+06  0.00040  1.935E-02    0   0.9532   age055_m32            0.0000     1.7669E+03    25.8074   4.0000    96.6801
 29      0.0000     0.0000E+00    0.0000E+00    6.610000E+06  0.00040  1.204E-02    0   0.9243   age061_m32            0.0000     3.1161E+03    32.7640   4.0000   100.4549
 30      0.0000     0.0000E+00    0.0000E+00    8.710000E+06  0.00040  9.433E-03    0   0.9001   age067_m32            0.0000     2.9036E+03    31.7509   4.0000   101.0447
 31      0.0000     0.0000E+00    0.0000E+00    1.000000E+07  0.00040  8.053E-03    0   0.8877   age070_m32            0.0000     2.7023E+03    30.8144   4.0000   100.9536
 32      0.0000     0.0000E+00    0.0000E+00    1.445000E+07  0.00040  7.027E-03    0   0.8578   age078_m32            0.0000     9.4388E+02    18.9453   4.0000    95.5309
 33      0.0000     0.0000E+00    0.0000E+00    2.512000E+07  0.00040  4.707E-03    0   0.8166   age090_m32            0.0000     6.7250E+02    14.8494   3.9224    94.0425
 34      0.0000     0.0000E+00    0.0000E+00    4.000000E+07  0.00040  3.714E-03    0   0.7827   age104_m32            0.0000     6.0399E+02    13.0066   3.7442    96.9225
 35      0.0000     0.0000E+00    0.0000E+00    5.500000E+07  0.00040  2.982E-03    0   0.7593   age110_m32            0.0000     5.9767E+02    12.4115   3.6919    97.8968
 36      0.0000     0.0000E+00    0.0000E+00    1.015200E+08  0.00040  2.188E-03    0   0.7143   age116_m32            0.0000     6.8264E+02    12.0020   3.4678   101.2571
 37      0.0000     0.0000E+00    0.0000E+00    1.609000E+08  0.00040  1.690E-03    0   0.6856   age120_m32            0.0000     8.0195E+02    12.9316   3.2838   103.4792
 38      0.0000     0.0000E+00    0.0000E+00    2.861200E+08  0.00040  1.152E-03    0   0.6509   age125_m32            0.0000     8.9635E+02    13.6189   3.0758   104.7893
 39      0.0000     0.0000E+00    0.0000E+00    5.088000E+08  0.00040  7.331E-04    0   0.6182   age130_m32            0.0000     9.2687E+02    13.8024   2.9156   105.3691
 40      0.0000     0.0000E+00    0.0000E+00    9.047900E+08  0.00040  3.960E-04    0   0.5890   age135_m32            0.0000     5.9756E+02    10.8390   2.4369   104.4974
 41      0.0000     0.0000E+00    0.0000E+00    1.278050E+09  0.00040  2.854E-04    0   0.5687   age138_m32            0.0000     5.2508E+02    10.1754   2.1176   107.0920
 42      0.0000     0.0000E+00    0.0000E+00    1.434000E+09  0.00040  2.531E-04    0   0.5632   age139_m32            0.0000     5.1522E+02    10.1040   2.0546   107.1541
 43      0.0000     0.0000E+00    0.0000E+00    2.500000E+09  0.00040  1.488E-04    0   0.5386   age150_m32            0.0000     4.0700E+02     8.9357   1.7997   105.3532
 44      2.1193     4.7507E-01    4.8680E-01    4.250000E+09  0.00040  9.082E-05    0   0.5199   age158_m32            0.0000     2.6001E+02     6.8698   1.6859   102.3767
 45     11.9534     3.8251E+00    3.8267E+00    6.250000E+09  0.00040  6.362E-05    0   0.5076   age166_m32            0.0000     2.2922E+02     6.6391   1.6261    99.4332
 46      7.7065     2.9663E+00    2.9390E+00    7.500000E+09  0.00040  5.289E-05    0   0.5027   age171_m32            0.0000     2.1543E+02     6.5590   1.5896    98.1675
 47     15.7712     8.0834E+00    7.8830E+00    1.000000E+10  0.00040  3.972E-05    0   0.4948   age181_m32            0.0000     1.9551E+02     6.3645   1.5298    96.7415
 48      1.3175     8.1701E-01    7.8419E-01    1.300000E+10  0.00040  3.283E-05    0   0.4870   age193_m32            0.0000     1.9059E+02     6.0453   1.4954    99.3246
 49      0.0704     4.9017E-02    4.6894E-02    1.500000E+10  0.00040  2.925E-05    0   0.4854   age201_m32            0.0000     1.9942E+02     6.0812   1.4818   100.8482
 50      0.0000     0.0000E+00    0.0000E+00    1.800000E+10  0.00040  2.469E-05    0   0.4819   age213_m32            0.0000     1.9883E+02     6.0659   1.4457   101.3124
 51      0.0000     0.0000E+00    0.0000E+00    1.000000E+06  0.00400  1.114E-02    0   1.0000   age020_m42            0.0000     3.8602E+03    35.8997   4.0000    98.0290
 52      0.0000     0.0000E+00    0.0000E+00    3.160000E+06  0.00400  4.073E-02    0   0.9999   age045_m42            0.0000     5.2003E+02    12.9069   3.9904    93.4060
 53      0.0000     0.0000E+00    0.0000E+00    5.010000E+06  0.00400  2.534E-02    0   0.9488   age055_m42            0.0000     1.2070E+03    21.6926   4.0000    96.6085
 54      0.0000     0.0000E+00    0.0000E+00    6.610000E+06  0.00400  2.583E-02    0   0.9220   age061_m42            0.0000     5.3160E+02    12.7456   3.8086    94.3349
 55      0.0000     0.0000E+00    0.0000E+00    8.710000E+06  0.00400  1.706E-02    0   0.8983   age067_m42            0.0000     6.5825E+02    15.1019   3.5980    93.3904
 56      0.0000     0.0000E+00    0.0000E+00    1.000000E+07  0.00400  1.271E-02    0   0.8862   age070_m42            0.0000     8.1703E+02    17.1830   3.5661    92.3912
 57      0.0000     0.0000E+00    0.0000E+00    1.445000E+07  0.00400  7.666E-03    0   0.8571   age078_m42            0.0000     9.0420E+02    18.3285   3.9616    89.1133
 58      0.0000     0.0000E+00    0.0000E+00    2.512000E+07  0.00400  5.070E-03    0   0.8174   age090_m42            0.0000     7.3066E+02    16.4284   3.4413    94.0307
 59      0.0000     0.0000E+00    0.0000E+00    4.000000E+07  0.00400  3.505E-03    0   0.7851   age104_m42            0.0000     5.3475E+02    14.0828   3.1427    96.7114
 60      0.0000     0.0000E+00    0.0000E+00    5.500000E+07  0.00400  3.059E-03    0   0.7629   age110_m42            0.0000     4.5143E+02    10.9263   3.2431   100.2640
 61      0.0000     0.0000E+00    0.0000E+00    1.015200E+08  0.00400  2.268E-03    0   0.7207   age116_m42            0.0000     6.7622E+02    11.7670   3.2001   104.2196
 62      0.0000     0.0000E+00    0.0000E+00    1.609000E+08  0.00400  1.720E-03    0   0.6930   age120_m42            0.0000     6.9147E+02    11.8372   3.0758   105.3354
 63      0.0000     0.0000E+00    0.0000E+00    2.861200E+08  0.00400  1.079E-03    0   0.6613   age125_m42            0.0000     6.5406E+02    11.4613   2.7132   106.0817
 64      0.0000     0.0000E+00    0.0000E+00    5.088000E+08  0.00400  6.261E-04    0   0.6313   age130_m42            0.0000     7.1563E+02    12.2005   2.5100   109.3551
 65      0.0000     0.0000E+00    0.0000E+00    9.047900E+08  0.00400  3.535E-04    0   0.6024   age135_m42            0.0000     4.5941E+02     9.5452   2.0984   110.0057
 66      0.0000     0.0000E+00    0.0000E+00    1.278050E+09  0.00400  2.677E-04    0   0.5837   age138_m42            0.0000     1.4296E+02     5.4944   1.4411   106.8959
 67      0.0000     0.0000E+00    0.0000E+00    1.434000E+09  0.00400  1.910E-04    0   0.5716   age139_m42            0.0000     2.0295E+02     6.0886   1.6097   107.6817
 68      0.0000     0.0000E+00    0.0000E+00    2.500000E+09  0.00400  9.818E-05    0   0.5463   age150_m42            0.0000     4.9510E+01     2.8206   1.3474   102.6358
 69      0.0000     0.0000E+00    0.0000E+00    4.250000E+09  0.00400  5.491E-05    0   0.5269   age158_m42            0.0000     2.2153E+01     2.1851   1.2209   100.0279
 70      0.0000     0.0000E+00    0.0000E+00    6.250000E+09  0.00400  3.857E-05    0   0.5151   age166_m42            0.0000     1.9267E+01     2.2430   1.1075    98.4540
 71      0.0000     0.0000E+00    0.0000E+00    7.500000E+09  0.00400  3.243E-05    0   0.5110   age171_m42            0.0000     2.4785E+01     2.5172   1.0386    97.7272
 72      0.0000     0.0000E+00    0.0000E+00    1.000000E+10  0.00400  2.424E-05    0   0.5028   age181_m42            0.0000     3.8334E+01     3.0734   0.9691    96.9070
 73      0.0000     0.0000E+00    0.0000E+00    1.300000E+10  0.00400  1.883E-05    0   0.4927   age193_m42            0.0000     5.3554E+01     3.6517   0.9327    96.5610
 74      0.0000     0.0000E+00    0.0000E+00    1.500000E+10  0.00400  1.685E-05    0   0.4919   age201_m42            0.0000     5.0449E+01     3.5136   0.9372    96.6207
 75      0.0000     0.0000E+00    0.0000E+00    1.800000E+10  0.00400  1.452E-05    0   0.4874   age213_m42            0.0000     4.5385E+01     3.2928   0.9510    96.9705
 76      0.0000     0.0000E+00    0.0000E+00    1.000000E+06  0.00800  1.286E-02    0   1.0000   age020_m52            0.0000     3.6296E+03    34.7359   4.0000    99.7532
 77      0.0000     0.0000E+00    0.0000E+00    3.160000E+06  0.00800  3.147E-02    0   0.9966   age045_m52            0.0000     3.1460E+03    32.8653   4.0000   100.2844
 78      0.0000     0.0000E+00    0.0000E+00    5.010000E+06  0.00800  2.664E-02    0   0.9443   age055_m52            0.0000     1.6010E+03    24.7793   4.0000    98.1425
 79      0.0000     0.0000E+00    0.0000E+00    6.610000E+06  0.00800  2.151E-02    0   0.9177   age061_m52            0.0000     6.1183E+02    15.0980   3.1705    93.8136
 80      0.0000     0.0000E+00    0.0000E+00    8.710000E+06  0.00800  1.628E-02    0   0.8948   age067_m52            0.0000     6.8777E+02    15.8372   3.5514    94.0433
 81      0.0000     0.0000E+00    0.0000E+00    1.000000E+07  0.00800  1.215E-02    0   0.8827   age070_m52            0.0000     7.7838E+02    16.9332   3.8913    92.1674
 82      0.0000     0.0000E+00    0.0000E+00    1.445000E+07  0.00800  8.739E-03    0   0.8552   age078_m52            0.0000     7.1838E+02    16.0007   3.9416    93.2802
 83      0.0000     0.0000E+00    0.0000E+00    2.512000E+07  0.00800  5.676E-03    0   0.8162   age090_m52            0.0000     6.3597E+02    13.9663   3.5624    97.7953
 84      0.0000     0.0000E+00    0.0000E+00    4.000000E+07  0.00800  3.939E-03    0   0.7841   age104_m52            0.0000     5.6518E+02    12.2669   3.4190    99.7776
 85      0.0000     0.0000E+00    0.0000E+00    5.500000E+07  0.00800  3.155E-03    0   0.7627   age110_m52            0.0000     5.6012E+02    11.3687   3.3998   101.1420
 86      0.0000     0.0000E+00    0.0000E+00    1.015200E+08  0.00800  2.206E-03    0   0.7226   age116_m52            0.0000     6.0190E+02    10.9576   3.2417   104.3515
 87      0.0000     0.0000E+00    0.0000E+00    1.609000E+08  0.00800  1.596E-03    0   0.6963   age120_m52            0.0000     6.2428E+02    11.0777   3.0367   105.8692
 88      0.0000     0.0000E+00    0.0000E+00    2.861200E+08  0.00800  1.002E-03    0   0.6665   age125_m52            0.0000     7.3877E+02    12.2950   2.7717   107.9509
 89      0.0000     0.0000E+00    0.0000E+00    5.088000E+08  0.00800  5.759E-04    0   0.6377   age130_m52            0.0000     7.2448E+02    11.9533   2.4419   111.5327
 90      0.0000     0.0000E+00    0.0000E+00    9.047900E+08  0.00800  2.972E-04    0   0.6086   age135_m52            0.0000     4.0137E+02     8.3940   1.9202   109.7547
 91      0.0000     0.0000E+00    0.0000E+00    1.278050E+09  0.00800  2.242E-04    0   0.5907   age138_m52            0.0000     1.1843E+02     4.6812   1.3000   108.7441
 92      0.0000     0.0000E+00    0.0000E+00    1.434000E+09  0.00800  1.645E-04    0   0.5787   age139_m52            0.0000     1.0826E+02     4.2936   1.4397   108.3108
 93      0.0000     0.0000E+00    0.0000E+00    2.500000E+09  0.00800  7.723E-05    0   0.5519   age150_m52            0.0000     3.0605E+01     2.7847   1.1122   104.3384
 94      0.2358     1.1565E-01    1.2126E-01    4.250000E+09  0.00800  4.151E-05    0   0.5320   age158_m52            0.0000     2.0615E+01     2.6486   1.0445   101.7678
 95      1.2542     8.4827E-01    8.6887E-01    6.250000E+09  0.00800  3.010E-05    0   0.5197   age166_m52            0.0000     3.8278E+01     3.5041   0.8686   100.0432
 96      2.4527     2.0240E+00    2.0500E+00    7.500000E+09  0.00800  2.467E-05    0   0.5139   age171_m52            0.0000     4.6997E+01     3.8175   0.8317    99.5518
 97      0.9595     1.0490E+00    1.0449E+00    1.000000E+10  0.00800  1.862E-05    0   0.5054   age181_m52            0.0000     8.2180E+01     4.8662   0.7179    98.8243
