###################################################################
## OUTPUT of StarlightChains_v04.for    [Cid@UFSC - 01/Apr/2007] ##
###################################################################

## Some input info
NGC6284_a_1.cxt                          [arq_obs]
Base.BC03.S                              [arq_base]
NGC6284_a_1.msk                          [arq_masks]
StCv04.C11.config                        [arq_config]
  150                                    [N_base]
    0                                    [N_YAV_components = # of components with extra extinction!]
    0                                    [i_FitPowerLaw (1/0 = Yes/No)]
-9.99                                    [alpha_PowerLaw]
CCM                                      [red_law_option]
 1.458241                                [q_norm = A(l_norm)/A(V)]

## (Re)Sampling Parameters
 3359.00                                 [l_ini (A)]
 6428.00                                 [l_fin (A)]
    1.00                                 [dl    (A)]     (OBS: dl_cushion =    50.00 A)

## Normalization info
 4020.00                                 [l_norm (A) - for base]
 4010.00                                 [llow_norm (A) - window for f_obs]
 4060.00                                 [lupp_norm (A) - window for f_obs]
9.247314E-15                             [fobs_norm (in input units)]

## S/N
 4730.00                                 [llow_SN (A) - window for S/N]
 4780.00                                 [lupp_SN (A) - window for S/N]
  76.302                                 [S/N in S/N window]
  62.584                                 [S/N in norm. window]
  42.607                                 [S/N_err in S/N window]
  34.947                                 [S/N_err in norm. window]
  1.0000                                 [fscale_chi2]

## etc...
  2147483621                             [idum_orig]
  3068                                   [NOl_eff]
  1584                                   [Nl_eff]
  1484    NSIGMA                         [Ntot_cliped & clip_method]
  1752450                                [Nglobal_steps]
   7                                     [N_chains]
  30                                     [NEX0s_base = N_base in EX0s-fits]
 0   0   1      208   2.0   7.609E+02    [Clip-Bug, RC-Crash & Burn-In warning-flags, n_censored_weights, wei_nsig_threshold & wei_limit]
    52     51.856     51.844      0.012  [idt_all, wdt_TotTime, wdt_UsrTime & wdt_SysTime (sec)]

## Synthesis Results - Best model ##

 1.20452E+00                             [chi2/Nl_eff]
     1.50156                             [adev (%)]

   100.02984                             [sum-of-x (%)]
 2.62180E-14                             [Flux_tot (units of input spectrum!)]
 7.57676E-10                             [Mini_tot (???)]
 3.74901E-10                             [Mcor_tot (???)]

  -6.42                                  [v0_min  (km/s)]
  52.85                                  [vd_min  (km/s)]
 0.7757                                  [AV_min  (mag)]
 0.0000                                  [YAV_min (mag)]

# j     x_j(%)      Mini_j(%)     Mcor_j(%)     age_j(yr)     Z_j      (L/M)_j    YAV?  Mstars   component_j        a/Fe...       SSP_chi2r SSP_adev(%)   SSP_AV   SSP_x(%)
  1      0.0000     0.0000E+00    0.0000E+00    1.000000E+06  0.00010  8.160E-03    0   1.0000   age020_m22            0.0000     7.1133E+02    13.2376   4.0000    74.8677
  2      5.8800     4.2742E-03    8.6381E-03    3.160000E+06  0.00010  4.759E-02    0   1.0000   age045_m22            0.0000     6.2524E+01     5.3416   2.4013    93.4567
  3      0.0000     0.0000E+00    0.0000E+00    5.010000E+06  0.00010  1.932E-02    0   0.9582   age055_m22            0.0000     3.8505E+02    13.6626   2.9083    80.0121
  4      0.0000     0.0000E+00    0.0000E+00    6.610000E+06  0.00010  9.973E-03    0   0.9297   age061_m22            0.0000     6.3126E+02    12.9159   4.0000    77.1416
  5      0.0000     0.0000E+00    0.0000E+00    8.710000E+06  0.00010  7.690E-03    0   0.9030   age067_m22            0.0000     5.9636E+02    12.4945   4.0000    77.6128
  6      0.0000     0.0000E+00    0.0000E+00    1.000000E+07  0.00010  6.375E-03    0   0.8902   age070_m22            0.0000     5.7726E+02    12.6766   4.0000    77.8429
  7      0.0000     0.0000E+00    0.0000E+00    1.445000E+07  0.00010  4.874E-03    0   0.8589   age078_m22            0.0000     3.6902E+02     8.0426   4.0000    80.7351
  8      0.0000     0.0000E+00    0.0000E+00    2.512000E+07  0.00010  4.103E-03    0   0.8174   age090_m22            0.0000     1.3022E+02     8.2600   3.8360    86.3972
  9      0.7301     6.9118E-03    1.0938E-02    4.000000E+07  0.00010  3.654E-03    0   0.7830   age104_m22            0.0000     1.0738E+02     4.8697   3.4450    90.8194
 10      0.6206     6.9404E-03    1.0656E-02    5.500000E+07  0.00010  3.093E-03    0   0.7597   age110_m22            0.0000     1.1764E+02     3.9204   3.2911    92.6497
 11     14.2713     2.0308E-01    2.9296E-01    1.015200E+08  0.00010  2.431E-03    0   0.7138   age116_m22            0.0000     1.7154E+02     4.4567   2.8758    95.6013
 12      0.0000     0.0000E+00    0.0000E+00    1.609000E+08  0.00010  1.319E-03    0   0.6775   age120_m22            0.0000     1.6589E+02     5.3514   2.3282    98.5248
 13      0.0000     0.0000E+00    0.0000E+00    2.861200E+08  0.00010  1.075E-03    0   0.6412   age125_m22            0.0000     4.8671E+02    12.0176   2.1286   103.7593
 14      0.0000     0.0000E+00    0.0000E+00    5.088000E+08  0.00010  7.183E-04    0   0.6083   age130_m22            0.0000     6.0604E+02    15.0264   1.7618   106.5808
 15      0.0000     0.0000E+00    0.0000E+00    9.047900E+08  0.00010  4.524E-04    0   0.5785   age135_m22            0.0000     6.1346E+02    15.8097   1.5256   108.0382
 16      0.0000     0.0000E+00    0.0000E+00    1.278050E+09  0.00010  3.018E-04    0   0.5588   age138_m22            0.0000     2.7157E+02    10.6434   1.1899   105.0786
 17      0.0000     0.0000E+00    0.0000E+00    1.434000E+09  0.00010  2.691E-04    0   0.5532   age139_m22            0.0000     2.1362E+02     9.6201   1.0674   104.3840
 18      0.0006     1.3868E-04    1.4843E-04    2.500000E+09  0.00010  1.582E-04    0   0.5296   age150_m22            0.0000     1.7923E+02     8.5046   1.0135   104.4260
 19      0.0000     0.0000E+00    0.0000E+00    4.250000E+09  0.00010  1.007E-04    0   0.5110   age158_m22            0.0000     8.3572E+01     5.7155   0.9527   102.3996
 20      0.0000     0.0000E+00    0.0000E+00    6.250000E+09  0.00010  6.869E-05    0   0.4985   age166_m22            0.0000     2.7613E+01     3.1353   0.9798    99.4566
 21      0.0000     0.0000E+00    0.0000E+00    7.500000E+09  0.00010  5.873E-05    0   0.4931   age171_m22            0.0000     2.2981E+01     2.7406   0.9929    98.7244
 22      0.0000     0.0000E+00    0.0000E+00    1.000000E+10  0.00010  4.481E-05    0   0.4854   age181_m22            0.0000     2.1254E+01     2.6471   0.9541    98.4497
 23      0.0000     7.8381E-06    7.5893E-06    1.300000E+10  0.00010  3.489E-05    0   0.4791   age193_m22            0.0000     1.7424E+01     2.4338   0.8988    98.0572
 24      0.0090     1.0302E-02    9.9233E-03    1.500000E+10  0.00010  3.035E-05    0   0.4766   age201_m22            0.0000     1.5103E+01     2.2775   0.8641    97.9179
 25     16.3515     2.2536E+01    2.1565E+01    1.800000E+10  0.00010  2.510E-05    0   0.4735   age213_m22            0.0000     1.1079E+01     2.0005   0.8079    97.3859
 26      0.0000     0.0000E+00    0.0000E+00    1.000000E+06  0.00040  8.458E-03    0   1.0000   age020_m32            0.0000     6.9819E+02    13.7730   4.0000    75.4131
 27      0.0000     0.0000E+00    0.0000E+00    3.160000E+06  0.00040  3.973E-02    0   1.0000   age045_m32            0.0000     1.4773E+02     9.0851   3.7634    86.2675
 28      0.0000     0.0000E+00    0.0000E+00    5.010000E+06  0.00040  1.935E-02    0   0.9532   age055_m32            0.0000     3.3084E+02    11.3393   4.0000    80.4055
 29      0.0000     0.0000E+00    0.0000E+00    6.610000E+06  0.00040  1.204E-02    0   0.9243   age061_m32            0.0000     4.7080E+02     9.3370   4.0000    79.0947
 30      0.0000     0.0000E+00    0.0000E+00    8.710000E+06  0.00040  9.433E-03    0   0.9001   age067_m32            0.0000     4.1321E+02     8.6744   4.0000    79.9941
 31      0.0000     0.0000E+00    0.0000E+00    1.000000E+07  0.00040  8.053E-03    0   0.8877   age070_m32            0.0000     3.8235E+02     8.3315   4.0000    80.4434
 32      0.0000     0.0000E+00    0.0000E+00    1.445000E+07  0.00040  7.027E-03    0   0.8578   age078_m32            0.0000     1.8126E+02    10.0991   3.7465    84.7433
 33      0.0000     0.0000E+00    0.0000E+00    2.512000E+07  0.00040  4.707E-03    0   0.8166   age090_m32            0.0000     1.0776E+02     7.3449   3.3806    88.6792
 34      0.0242     2.2565E-04    3.5695E-04    4.000000E+07  0.00040  3.714E-03    0   0.7827   age104_m32            0.0000     9.3103E+01     4.8871   3.0997    92.0252
 35      0.0000     0.0000E+00    0.0000E+00    5.500000E+07  0.00040  2.982E-03    0   0.7593   age110_m32            0.0000     1.0469E+02     4.1901   2.9955    93.3303
 36      0.0000     0.0000E+00    0.0000E+00    1.015200E+08  0.00040  2.188E-03    0   0.7143   age116_m32            0.0000     2.4556E+02     6.4723   2.5484    98.5575
 37      0.0000     1.6995E-07    2.3548E-07    1.609000E+08  0.00040  1.690E-03    0   0.6856   age120_m32            0.0000     3.8905E+02     9.4839   2.2268   101.8670
 38      0.0000     0.0000E+00    0.0000E+00    2.861200E+08  0.00040  1.152E-03    0   0.6509   age125_m32            0.0000     5.1829E+02    13.1812   1.8307   105.2687
 39      0.0000     0.0000E+00    0.0000E+00    5.088000E+08  0.00040  7.331E-04    0   0.6182   age130_m32            0.0000     5.6352E+02    14.7775   1.5868   106.7519
 40      0.0000     0.0000E+00    0.0000E+00    9.047900E+08  0.00040  3.960E-04    0   0.5890   age135_m32            0.0000     2.7498E+02    11.1755   1.2387   104.9977
 41      0.0000     0.0000E+00    0.0000E+00    1.278050E+09  0.00040  2.854E-04    0   0.5687   age138_m32            0.0000     2.1407E+02     9.4449   1.0405   105.7188
 42      0.0000     0.0000E+00    0.0000E+00    1.434000E+09  0.00040  2.531E-04    0   0.5632   age139_m32            0.0000     2.0708E+02     9.2971   0.9871   105.6137
 43      7.1033     1.6514E+00    1.7975E+00    2.500000E+09  0.00040  1.488E-04    0   0.5386   age150_m32            0.0000     1.2907E+02     7.6449   0.7769   103.8527
 44     23.8002     9.0654E+00    9.5252E+00    4.250000E+09  0.00040  9.082E-05    0   0.5199   age158_m32            0.0000     2.4623E+01     3.3910   0.8116   100.1870
 45      5.9263     3.2224E+00    3.3057E+00    6.250000E+09  0.00040  6.362E-05    0   0.5076   age166_m32            0.0000     1.1016E+01     2.0123   0.8833    96.4809
 46      0.0000     4.8683E-06    4.9460E-06    7.500000E+09  0.00040  5.289E-05    0   0.5027   age171_m32            0.0000     1.6736E+01     2.2147   0.8576    95.4004
 47      0.0000     0.0000E+00    0.0000E+00    1.000000E+10  0.00040  3.972E-05    0   0.4948   age181_m32            0.0000     2.3618E+01     2.3245   0.7933    94.3491
 48      0.0000     0.0000E+00    0.0000E+00    1.300000E+10  0.00040  3.283E-05    0   0.4870   age193_m32            0.0000     7.5696E+00     1.6275   0.6950    97.1677
 49      0.0000     0.0000E+00    0.0000E+00    1.500000E+10  0.00040  2.925E-05    0   0.4854   age201_m32            0.0000     8.4605E+00     2.0747   0.6439    98.8005
 50      0.0078     1.0878E-02    1.0595E-02    1.800000E+10  0.00040  2.469E-05    0   0.4819   age213_m32            0.0000     1.0754E+01     2.3850   0.5883    99.4154
 51      0.0000     0.0000E+00    0.0000E+00    1.000000E+06  0.00400  1.114E-02    0   1.0000   age020_m42            0.0000     6.4154E+02    11.5530   4.0000    75.9827
 52      0.0000     0.0000E+00    0.0000E+00    3.160000E+06  0.00400  4.073E-02    0   0.9999   age045_m42            0.0000     9.7627E+01     7.0219   3.4139    89.3819
 53      0.0000     0.0000E+00    0.0000E+00    5.010000E+06  0.00400  2.534E-02    0   0.9488   age055_m42            0.0000     2.3180E+02    11.1765   3.9210    82.8776
 54      0.0000     0.0000E+00    0.0000E+00    6.610000E+06  0.00400  2.583E-02    0   0.9220   age061_m42            0.0000     9.2567E+01     6.0455   3.2107    89.9019
 55      0.0000     0.0000E+00    0.0000E+00    8.710000E+06  0.00400  1.706E-02    0   0.8983   age067_m42            0.0000     1.2915E+02     8.3279   3.1116    87.6087
 56      0.0000     0.0000E+00    0.0000E+00    1.000000E+07  0.00400  1.271E-02    0   0.8862   age070_m42            0.0000     1.7910E+02     9.8371   3.1426    85.8409
 57      0.0000     0.0000E+00    0.0000E+00    1.445000E+07  0.00400  7.666E-03    0   0.8571   age078_m42            0.0000     2.5933E+02    11.5305   3.5661    83.1344
 58      0.0000     0.0000E+00    0.0000E+00    2.512000E+07  0.00400  5.070E-03    0   0.8174   age090_m42            0.0000     1.4962E+02     8.8655   2.9823    87.8399
 59      0.0000     0.0000E+00    0.0000E+00    4.000000E+07  0.00400  3.505E-03    0   0.7851   age104_m42            0.0000     9.1749E+01     6.3853   2.5986    91.4413
 60      0.0000     0.0000E+00    0.0000E+00    5.500000E+07  0.00400  3.059E-03    0   0.7629   age110_m42            0.0000     8.1601E+01     2.9182   2.4885    96.6354
 61      0.0000     0.0000E+00    0.0000E+00    1.015200E+08  0.00400  2.268E-03    0   0.7207   age116_m42            0.0000     3.2499E+02     8.3898   2.1537   103.0733
 62      0.0000     0.0000E+00    0.0000E+00    1.609000E+08  0.00400  1.720E-03    0   0.6930   age120_m42            0.0000     3.6009E+02     9.8020   1.9417   105.4517
 63      0.0000     0.0000E+00    0.0000E+00    2.861200E+08  0.00400  1.079E-03    0   0.6613   age125_m42            0.0000     3.7230E+02    11.3072   1.5196   106.5005
 64      1.0553     5.8307E-02    7.4391E-02    5.088000E+08  0.00400  6.261E-04    0   0.6313   age130_m42            0.0000     4.4606E+02    13.1535   1.2647   109.5920
 65      0.0000     0.0000E+00    0.0000E+00    9.047900E+08  0.00400  3.535E-04    0   0.6024   age135_m42            0.0000     2.3938E+02    10.2845   0.9550   109.5866
 66      0.0000     0.0000E+00    0.0000E+00    1.278050E+09  0.00400  2.677E-04    0   0.5837   age138_m42            0.0000     7.0235E+01     7.2785   0.3454   108.4896
 67      0.0000     0.0000E+00    0.0000E+00    1.434000E+09  0.00400  1.910E-04    0   0.5716   age139_m42            0.0000     8.9329E+01     7.6841   0.4923   108.8933
 68      0.0000     0.0000E+00    0.0000E+00    2.500000E+09  0.00400  9.818E-05    0   0.5463   age150_m42            0.0000     3.7062E+01     5.1736   0.3452   104.2240
 69      0.0000     0.0000E+00    0.0000E+00    4.250000E+09  0.00400  5.491E-05    0   0.5269   age158_m42            0.0000     6.6632E+01     4.4586   0.2834   101.4911
 70      0.0207     1.8522E-02    1.9282E-02    6.250000E+09  0.00400  3.857E-05    0   0.5151   age166_m42            0.0000     1.0496E+02     4.9870   0.1623   100.6064
 71      0.7019     7.4869E-01    7.7320E-01    7.500000E+09  0.00400  3.243E-05    0   0.5110   age171_m42            0.0000     1.3171E+02     5.4211   0.0790   100.3717
 72      0.0000     0.0000E+00    0.0000E+00    1.000000E+10  0.00400  2.424E-05    0   0.5028   age181_m42            0.0000     1.7687E+02     5.9523  -0.0055   100.1563
 73      0.0000     0.0000E+00    0.0000E+00    1.300000E+10  0.00400  1.883E-05    0   0.4927   age193_m42            0.0000     2.2141E+02     6.2914  -0.0442   100.1283
 74      0.0000     0.0000E+00    0.0000E+00    1.500000E+10  0.00400  1.685E-05    0   0.4919   age201_m42            0.0000     2.1009E+02     6.1585  -0.0364   100.0434
 75      0.0000     0.0000E+00    0.0000E+00    1.800000E+10  0.00400  1.452E-05    0   0.4874   age213_m42            0.0000     1.9038E+02     5.9176  -0.0132   100.1197
 76      0.0000     0.0000E+00    0.0000E+00    1.000000E+06  0.00800  1.286E-02    0   1.0000   age020_m52            0.0000     5.4757E+02    10.5984   4.0000    77.7572
 77      0.0000     0.0000E+00    0.0000E+00    3.160000E+06  0.00800  3.147E-02    0   0.9966   age045_m52            0.0000     4.7968E+02     8.9032   4.0000    79.0221
 78      0.0000     0.0000E+00    0.0000E+00    5.010000E+06  0.00800  2.664E-02    0   0.9443   age055_m52            0.0000     2.8313E+02    10.8756   4.0000    82.1613
 79      0.0000     0.0000E+00    0.0000E+00    6.610000E+06  0.00800  2.151E-02    0   0.9177   age061_m52            0.0000     1.5808E+02     9.0182   2.7014    88.5855
 80      0.0000     0.0000E+00    0.0000E+00    8.710000E+06  0.00800  1.628E-02    0   0.8948   age067_m52            0.0000     1.4083E+02     8.6042   3.0672    88.2745
 81      0.0000     0.0000E+00    0.0000E+00    1.000000E+07  0.00800  1.215E-02    0   0.8827   age070_m52            0.0000     1.7999E+02     9.6870   3.4309    86.3142
 82      0.0000     0.0000E+00    0.0000E+00    1.445000E+07  0.00800  8.739E-03    0   0.8552   age078_m52            0.0000     1.4951E+02     8.6336   3.4427    87.5390
 83      0.0000     0.0000E+00    0.0000E+00    2.512000E+07  0.00800  5.676E-03    0   0.8162   age090_m52            0.0000     1.1106E+02     5.6957   2.9704    91.9521
 84      0.0000     0.0000E+00    0.0000E+00    4.000000E+07  0.00800  3.939E-03    0   0.7841   age104_m52            0.0000     1.0876E+02     4.0030   2.7206    95.0394
 85      0.0000     0.0000E+00    0.0000E+00    5.500000E+07  0.00800  3.155E-03    0   0.7627   age110_m52            0.0000     1.3621E+02     3.7432   2.6119    97.3311
 86      0.0000     0.0000E+00    0.0000E+00    1.015200E+08  0.00800  2.206E-03    0   0.7226   age116_m52            0.0000     2.3694E+02     6.6866   2.2779   102.3517
 87      0.0000     0.0000E+00    0.0000E+00    1.609000E+08  0.00800  1.596E-03    0   0.6963   age120_m52            0.0000     2.9506E+02     8.6126   1.9787   104.7506
 88      0.0000     0.0000E+00    0.0000E+00    2.861200E+08  0.00800  1.002E-03    0   0.6665   age125_m52            0.0000     4.6952E+02    13.3862   1.4716   109.5466
 89      0.0000     0.0000E+00    0.0000E+00    5.088000E+08  0.00800  5.759E-04    0   0.6377   age130_m52            0.0000     4.9944E+02    15.6342   1.0027   114.9198
 90      0.0000     0.0000E+00    0.0000E+00    9.047900E+08  0.00800  2.972E-04    0   0.6086   age135_m52            0.0000     2.3498E+02    13.1309   0.5256   114.0978
 91      0.0000     0.0000E+00    0.0000E+00    1.278050E+09  0.00800  2.242E-04    0   0.5907   age138_m52            0.0000     9.6230E+01     8.7573   0.1088   112.5953
 92      0.0000     0.0000E+00    0.0000E+00    1.434000E+09  0.00800  1.645E-04    0   0.5787   age139_m52            0.0000     7.4859E+01     7.7271   0.2988   111.4275
 93      0.0000     0.0000E+00    0.0000E+00    2.500000E+09  0.00800  7.723E-05    0   0.5519   age150_m52            0.0000     1.0053E+02     7.2248   0.0000   108.1004
 94      0.0000     9.9737E-06    1.0723E-05    4.250000E+09  0.00800  4.151E-05    0   0.5320   age158_m52            0.0000     1.2366E+02     6.3631   0.0000   105.2867
 95      0.0644     7.3967E-02    7.7689E-02    6.250000E+09  0.00800  3.010E-05    0   0.5197   age166_m52            0.0000     2.0062E+02     7.0155  -0.1854   104.5696
 96      0.0000     0.0000E+00    0.0000E+00    7.500000E+09  0.00800  2.467E-05    0   0.5139   age171_m52            0.0000     2.2286E+02     7.2852  -0.2318   104.3915
 97      0.8611     1.5998E+00    1.6340E+00    1.000000E+10  0.00800  1.862E-05    0   0.5054   age181_m52            0.0000     2.9093E+02     8.2283  -0.3858   104.7118
