###################################################################
## OUTPUT of StarlightChains_v04.for    [Cid@UFSC - 01/Apr/2007] ##
###################################################################

## Some input info
NGC6254_a_1.cxt                          [arq_obs]
Base.BC03.S                              [arq_base]
NGC6254_a_1.msk                          [arq_masks]
StCv04.C11.config                        [arq_config]
  150                                    [N_base]
    0                                    [N_YAV_components = # of components with extra extinction!]
    0                                    [i_FitPowerLaw (1/0 = Yes/No)]
-9.99                                    [alpha_PowerLaw]
CCM                                      [red_law_option]
 1.458241                                [q_norm = A(l_norm)/A(V)]

## (Re)Sampling Parameters
 3359.00                                 [l_ini (A)]
 6428.00                                 [l_fin (A)]
    1.00                                 [dl    (A)]     (OBS: dl_cushion =    50.00 A)

## Normalization info
 4020.00                                 [l_norm (A) - for base]
 4010.00                                 [llow_norm (A) - window for f_obs]
 4060.00                                 [lupp_norm (A) - window for f_obs]
2.492239E-14                             [fobs_norm (in input units)]

## S/N
 4730.00                                 [llow_SN (A) - window for S/N]
 4780.00                                 [lupp_SN (A) - window for S/N]
 102.867                                 [S/N in S/N window]
  85.513                                 [S/N in norm. window]
 113.249                                 [S/N_err in S/N window]
  94.144                                 [S/N_err in norm. window]
  1.0000                                 [fscale_chi2]

## etc...
  2147483623                             [idum_orig]
  3068                                   [NOl_eff]
  1563                                   [Nl_eff]
  1505    NSIGMA                         [Ntot_cliped & clip_method]
  1515080                                [Nglobal_steps]
   7                                     [N_chains]
  23                                     [NEX0s_base = N_base in EX0s-fits]
 0   0   1      142   2.0   2.178E+02    [Clip-Bug, RC-Crash & Burn-In warning-flags, n_censored_weights, wei_nsig_threshold & wei_limit]
    59     58.916     58.904      0.012  [idt_all, wdt_TotTime, wdt_UsrTime & wdt_SysTime (sec)]

## Synthesis Results - Best model ##

 2.19213E+00                             [chi2/Nl_eff]
     1.39623                             [adev (%)]

   100.80727                             [sum-of-x (%)]
 6.80688E-14                             [Flux_tot (units of input spectrum!)]
 1.30291E-09                             [Mini_tot (???)]
 6.53289E-10                             [Mcor_tot (???)]

 -15.95                                  [v0_min  (km/s)]
  72.43                                  [vd_min  (km/s)]
 0.7421                                  [AV_min  (mag)]
 0.0000                                  [YAV_min (mag)]

# j     x_j(%)      Mini_j(%)     Mcor_j(%)     age_j(yr)     Z_j      (L/M)_j    YAV?  Mstars   component_j        a/Fe...       SSP_chi2r SSP_adev(%)   SSP_AV   SSP_x(%)
  1      0.0000     0.0000E+00    0.0000E+00    1.000000E+06  0.00010  8.160E-03    0   1.0000   age020_m22            0.0000     1.6363E+02    11.3961   4.0000    81.9781
  2     11.9010     1.2960E-02    2.5847E-02    3.160000E+06  0.00010  4.759E-02    0   1.0000   age045_m22            0.0000     1.7233E+01     3.5457   2.0902    99.2918
  3      0.8251     2.2134E-03    4.2299E-03    5.010000E+06  0.00010  1.932E-02    0   0.9582   age055_m22            0.0000     1.3516E+02    10.5578   2.3770    87.4844
  4      0.0000     0.0000E+00    0.0000E+00    6.610000E+06  0.00010  9.973E-03    0   0.9297   age061_m22            0.0000     1.5611E+02    11.3462   4.0000    84.4051
  5      0.0000     0.0000E+00    0.0000E+00    8.710000E+06  0.00010  7.690E-03    0   0.9030   age067_m22            0.0000     1.4651E+02    11.0023   4.0000    84.6496
  6      0.0000     0.0000E+00    0.0000E+00    1.000000E+07  0.00010  6.375E-03    0   0.8902   age070_m22            0.0000     1.3904E+02    10.6807   4.0000    85.0155
  7      0.0000     0.0000E+00    0.0000E+00    1.445000E+07  0.00010  4.874E-03    0   0.8589   age078_m22            0.0000     9.9396E+01     9.1761   3.8470    87.1788
  8      0.0000     0.0000E+00    0.0000E+00    2.512000E+07  0.00010  4.103E-03    0   0.8174   age090_m22            0.0000     4.3731E+01     6.0689   3.4523    92.9513
  9      0.0000     0.0000E+00    0.0000E+00    4.000000E+07  0.00010  3.654E-03    0   0.7830   age104_m22            0.0000     3.7249E+01     4.3060   3.1705    97.0148
 10      0.0000     0.0000E+00    0.0000E+00    5.500000E+07  0.00010  3.093E-03    0   0.7597   age110_m22            0.0000     4.1186E+01     4.0371   3.0700    98.4491
 11      0.0000     0.0000E+00    0.0000E+00    1.015200E+08  0.00010  2.431E-03    0   0.7138   age116_m22            0.0000     5.9701E+01     4.4564   2.7288   101.1927
 12      0.0000     0.0000E+00    0.0000E+00    1.609000E+08  0.00010  1.319E-03    0   0.6775   age120_m22            0.0000     6.4973E+01     4.5089   2.2469   103.6786
 13      0.0000     0.0000E+00    0.0000E+00    2.861200E+08  0.00010  1.075E-03    0   0.6412   age125_m22            0.0000     1.8159E+02     8.3279   2.3135   106.8551
 14      0.0000     0.0000E+00    0.0000E+00    5.088000E+08  0.00010  7.183E-04    0   0.6083   age130_m22            0.0000     2.2796E+02     9.7347   2.0806   108.5258
 15      0.0000     0.0000E+00    0.0000E+00    9.047900E+08  0.00010  4.524E-04    0   0.5785   age135_m22            0.0000     2.3172E+02     9.9531   1.8796   109.6861
 16      0.0000     0.0000E+00    0.0000E+00    1.278050E+09  0.00010  3.018E-04    0   0.5588   age138_m22            0.0000     1.1022E+02     6.9100   1.3497   107.9812
 17      0.0000     0.0000E+00    0.0000E+00    1.434000E+09  0.00010  2.691E-04    0   0.5532   age139_m22            0.0000     8.9407E+01     6.2913   1.1935   107.4140
 18      0.0000     0.0000E+00    0.0000E+00    2.500000E+09  0.00010  1.582E-04    0   0.5296   age150_m22            0.0000     7.5021E+01     5.6088   1.0843   108.1023
 19      0.0068     3.4914E-03    3.5582E-03    4.250000E+09  0.00010  1.007E-04    0   0.5110   age158_m22            0.0000     3.8829E+01     4.0875   0.9282   106.5368
 20      0.0147     1.1056E-02    1.0992E-02    6.250000E+09  0.00010  6.869E-05    0   0.4985   age166_m22            0.0000     1.4519E+01     2.6007   0.8652   103.9363
 21      0.0002     1.5649E-04    1.5390E-04    7.500000E+09  0.00010  5.873E-05    0   0.4931   age171_m22            0.0000     1.1771E+01     2.3485   0.8542   103.4170
 22      0.4751     5.4944E-01    5.3190E-01    1.000000E+10  0.00010  4.481E-05    0   0.4854   age181_m22            0.0000     1.1111E+01     2.3024   0.8153   103.0548
 23      2.8778     4.2747E+00    4.0845E+00    1.300000E+10  0.00010  3.489E-05    0   0.4791   age193_m22            0.0000     9.4831E+00     2.1880   0.7563   102.5335
 24      3.0277     5.1700E+00    4.9142E+00    1.500000E+10  0.00010  3.035E-05    0   0.4766   age201_m22            0.0000     8.5353E+00     2.1163   0.7167   102.3545
 25      3.9266     8.1074E+00    7.6562E+00    1.800000E+10  0.00010  2.510E-05    0   0.4735   age213_m22            0.0000     6.3880E+00     1.9287   0.6470   101.7697
 26      0.0000     0.0000E+00    0.0000E+00    1.000000E+06  0.00040  8.458E-03    0   1.0000   age020_m32            0.0000     1.6016E+02    11.2652   4.0000    82.9615
 27      0.0000     0.0000E+00    0.0000E+00    3.160000E+06  0.00040  3.973E-02    0   1.0000   age045_m32            0.0000     4.8805E+01     6.5487   3.3518    93.0013
 28      0.0000     5.0920E-08    9.6801E-08    5.010000E+06  0.00040  1.935E-02    0   0.9532   age055_m32            0.0000     1.1391E+02     9.9731   3.5743    87.6902
 29      0.0000     0.0000E+00    0.0000E+00    6.610000E+06  0.00040  1.204E-02    0   0.9243   age061_m32            0.0000     1.2761E+02    10.3999   3.8794    85.9123
 30      0.0000     0.0000E+00    0.0000E+00    8.710000E+06  0.00040  9.433E-03    0   0.9001   age067_m32            0.0000     1.1316E+02     9.8294   3.8529    86.7013
 31      0.0000     0.0000E+00    0.0000E+00    1.000000E+07  0.00040  8.053E-03    0   0.8877   age070_m32            0.0000     1.0749E+02     9.5978   3.8182    87.1144
 32      0.0000     0.0000E+00    0.0000E+00    1.445000E+07  0.00040  7.027E-03    0   0.8578   age078_m32            0.0000     6.3412E+01     7.5018   3.3089    91.8410
 33      0.0000     0.0000E+00    0.0000E+00    2.512000E+07  0.00040  4.707E-03    0   0.8166   age090_m32            0.0000     3.8995E+01     5.5146   3.0193    95.4366
 34      0.0000     0.0000E+00    0.0000E+00    4.000000E+07  0.00040  3.714E-03    0   0.7827   age104_m32            0.0000     3.3874E+01     4.1366   2.8247    98.3712
 35      0.0000     0.0000E+00    0.0000E+00    5.500000E+07  0.00040  2.982E-03    0   0.7593   age110_m32            0.0000     3.8155E+01     3.9894   2.7643    99.4374
 36      0.0000     0.0000E+00    0.0000E+00    1.015200E+08  0.00040  2.188E-03    0   0.7143   age116_m32            0.0000     8.9092E+01     5.3628   2.5004   103.4534
 37      0.0000     0.0000E+00    0.0000E+00    1.609000E+08  0.00040  1.690E-03    0   0.6856   age120_m32            0.0000     1.3793E+02     6.8856   2.3008   105.9572
 38      0.0000     0.0000E+00    0.0000E+00    2.861200E+08  0.00040  1.152E-03    0   0.6509   age125_m32            0.0000     1.9272E+02     8.7728   2.0673   107.9296
 39      0.0000     0.0000E+00    0.0000E+00    5.088000E+08  0.00040  7.331E-04    0   0.6182   age130_m32            0.0000     2.1314E+02     9.5140   1.9010   108.6271
 40      0.0000     0.0000E+00    0.0000E+00    9.047900E+08  0.00040  3.960E-04    0   0.5890   age135_m32            0.0000     1.1697E+02     7.3671   1.4310   107.3909
 41      0.0000     0.0000E+00    0.0000E+00    1.278050E+09  0.00040  2.854E-04    0   0.5687   age138_m32            0.0000     8.8702E+01     6.2130   1.1478   109.0783
 42      0.0000     0.0000E+00    0.0000E+00    1.434000E+09  0.00040  2.531E-04    0   0.5632   age139_m32            0.0000     8.5455E+01     6.0856   1.0894   109.0040
 43      0.0000     0.0000E+00    0.0000E+00    2.500000E+09  0.00040  1.488E-04    0   0.5386   age150_m32            0.0000     5.5643E+01     5.0969   0.8308   107.2610
 44      5.6086     3.2005E+00    3.3185E+00    4.250000E+09  0.00040  9.082E-05    0   0.5199   age158_m32            0.0000     1.4840E+01     2.8100   0.7244   104.1699
 45     37.8232     3.0811E+01    3.1192E+01    6.250000E+09  0.00040  6.362E-05    0   0.5076   age166_m32            0.0000     2.6664E+00     1.4867   0.6769   101.0188
 46     31.5790     3.0943E+01    3.1023E+01    7.500000E+09  0.00040  5.289E-05    0   0.5027   age171_m32            0.0000     2.8530E+00     1.5452   0.6368    99.8289
 47      0.0175     2.2873E-02    2.2571E-02    1.000000E+10  0.00040  3.972E-05    0   0.4948   age181_m32            0.0000     4.0925E+00     1.7712   0.5703    98.5191
 48      0.0000     0.0000E+00    0.0000E+00    1.300000E+10  0.00040  3.283E-05    0   0.4870   age193_m32            0.0000     5.1799E+00     1.9725   0.5318   101.1016
 49      0.0000     0.0000E+00    0.0000E+00    1.500000E+10  0.00040  2.925E-05    0   0.4854   age201_m32            0.0000     8.9538E+00     2.4435   0.5169   102.6017
 50      0.0026     5.4740E-03    5.2610E-03    1.800000E+10  0.00040  2.469E-05    0   0.4819   age213_m32            0.0000     1.1402E+01     2.7241   0.4785   103.0752
 51      0.0000     0.0000E+00    0.0000E+00    1.000000E+06  0.00400  1.114E-02    0   1.0000   age020_m42            0.0000     1.5073E+02    11.0173   3.9904    82.3360
 52      0.0000     0.0000E+00    0.0000E+00    3.160000E+06  0.00400  4.073E-02    0   0.9999   age045_m42            0.0000     2.8919E+01     4.9268   3.0587    95.4493
 53      0.0000     0.0000E+00    0.0000E+00    5.010000E+06  0.00400  2.534E-02    0   0.9488   age055_m42            0.0000     7.1792E+01     7.9878   3.4501    89.6794
 54      0.0000     7.5832E-08    1.3944E-07    6.610000E+06  0.00400  2.583E-02    0   0.9220   age061_m42            0.0000     2.7703E+01     4.3415   2.8809    96.0189
 55      0.0000     0.0000E+00    0.0000E+00    8.710000E+06  0.00400  1.706E-02    0   0.8983   age067_m42            0.0000     4.1251E+01     5.9441   2.7082    94.4311
 56      0.0000     2.9019E-08    5.1290E-08    1.000000E+07  0.00400  1.271E-02    0   0.8862   age070_m42            0.0000     6.3646E+01     7.5477   2.6977    93.1421
 57      0.0000     0.0000E+00    0.0000E+00    1.445000E+07  0.00400  7.666E-03    0   0.8571   age078_m42            0.0000     8.5382E+01     8.4931   3.0817    90.2834
 58      0.0000     0.0000E+00    0.0000E+00    2.512000E+07  0.00400  5.070E-03    0   0.8174   age090_m42            0.0000     5.1334E+01     6.8426   2.5602    94.9477
 59      0.0000     0.0000E+00    0.0000E+00    4.000000E+07  0.00400  3.505E-03    0   0.7851   age104_m42            0.0000     2.8519E+01     5.0722   2.2373    97.9271
 60      0.0000     0.0000E+00    0.0000E+00    5.500000E+07  0.00400  3.059E-03    0   0.7629   age110_m42            0.0000     3.3374E+01     3.5506   2.2980   102.0028
 61      0.0000     0.0000E+00    0.0000E+00    1.015200E+08  0.00400  2.268E-03    0   0.7207   age116_m42            0.0000     1.2126E+02     6.6281   2.2121   106.7048
 62      0.0000     0.0000E+00    0.0000E+00    1.609000E+08  0.00400  1.720E-03    0   0.6930   age120_m42            0.0000     1.3789E+02     7.4381   2.0687   108.3164
 63      0.0000     0.0000E+00    0.0000E+00    2.861200E+08  0.00400  1.079E-03    0   0.6613   age125_m42            0.0000     1.4853E+02     7.8715   1.7156   108.7594
 64      0.0000     0.0000E+00    0.0000E+00    5.088000E+08  0.00400  6.261E-04    0   0.6313   age130_m42            0.0000     1.7023E+02     8.5147   1.5261   111.4501
 65      0.0000     0.0000E+00    0.0000E+00    9.047900E+08  0.00400  3.535E-04    0   0.6024   age135_m42            0.0000     1.0110E+02     6.9774   1.1227   111.6697
 66      0.0000     0.0000E+00    0.0000E+00    1.278050E+09  0.00400  2.677E-04    0   0.5837   age138_m42            0.0000     6.3856E+01     6.5233   0.4251   109.0644
 67      0.0000     0.0000E+00    0.0000E+00    1.434000E+09  0.00400  1.910E-04    0   0.5716   age139_m42            0.0000     6.4676E+01     6.3939   0.5947   110.0050
 68      0.0000     0.0000E+00    0.0000E+00    2.500000E+09  0.00400  9.818E-05    0   0.5463   age150_m42            0.0000     4.6954E+01     5.6125   0.3133   105.2644
 69      0.0000     0.0000E+00    0.0000E+00    4.250000E+09  0.00400  5.491E-05    0   0.5269   age158_m42            0.0000     5.2278E+01     5.7321   0.1894   102.4684
 70      0.0000     0.0000E+00    0.0000E+00    6.250000E+09  0.00400  3.857E-05    0   0.5151   age166_m42            0.0000     7.0813E+01     6.4551   0.0616   101.0201
 71      0.0000     0.0000E+00    0.0000E+00    7.500000E+09  0.00400  3.243E-05    0   0.5110   age171_m42            0.0000     8.4885E+01     6.9463  -0.0172   100.3987
 72      0.0000     0.0000E+00    0.0000E+00    1.000000E+10  0.00400  2.424E-05    0   0.5028   age181_m42            0.0000     1.0516E+02     7.5906  -0.0966    99.6844
 73      0.0000     0.0000E+00    0.0000E+00    1.300000E+10  0.00400  1.883E-05    0   0.4927   age193_m42            0.0000     1.2128E+02     8.0861  -0.1356    99.3319
 74      0.0000     0.0000E+00    0.0000E+00    1.500000E+10  0.00400  1.685E-05    0   0.4919   age201_m42            0.0000     1.1665E+02     7.9614  -0.1296    99.3641
 75      0.0000     0.0000E+00    0.0000E+00    1.800000E+10  0.00400  1.452E-05    0   0.4874   age213_m42            0.0000     1.0824E+02     7.7374  -0.1134    99.6770
 76      0.0000     0.0000E+00    0.0000E+00    1.000000E+06  0.00800  1.286E-02    0   1.0000   age020_m52            0.0000     1.2856E+02    10.3322   3.9689    84.0962
 77      0.0000     0.0000E+00    0.0000E+00    3.160000E+06  0.00800  3.147E-02    0   0.9966   age045_m52            0.0000     1.2323E+02    10.1884   3.8853    85.6073
 78      0.0000     0.0000E+00    0.0000E+00    5.010000E+06  0.00800  2.664E-02    0   0.9443   age055_m52            0.0000     8.6913E+01     8.6801   3.5587    88.9110
 79      0.0000     0.0000E+00    0.0000E+00    6.610000E+06  0.00800  2.151E-02    0   0.9177   age061_m52            0.0000     4.5155E+01     6.3849   2.2706    95.2541
 80      0.0000     0.0000E+00    0.0000E+00    8.710000E+06  0.00800  1.628E-02    0   0.8948   age067_m52            0.0000     4.6753E+01     6.5225   2.6548    95.2904
 81      0.0003     1.4755E-06    2.5976E-06    1.000000E+07  0.00800  1.215E-02    0   0.8827   age070_m52            0.0000     6.0778E+01     7.4030   2.9919    93.5119
 82      0.0000     0.0000E+00    0.0000E+00    1.445000E+07  0.00800  8.739E-03    0   0.8552   age078_m52            0.0000     5.0243E+01     6.5770   3.0348    94.5968
 83      0.0000     0.0000E+00    0.0000E+00    2.512000E+07  0.00800  5.676E-03    0   0.8162   age090_m52            0.0000     4.1206E+01     5.0176   2.6534    98.8679
 84      0.0000     0.0000E+00    0.0000E+00    4.000000E+07  0.00800  3.939E-03    0   0.7841   age104_m52            0.0000     4.1893E+01     4.2366   2.4899   101.2552
 85      0.0000     0.0000E+00    0.0000E+00    5.500000E+07  0.00800  3.155E-03    0   0.7627   age110_m52            0.0000     5.3590E+01     4.1783   2.4552   102.9153
 86      0.0000     0.0000E+00    0.0000E+00    1.015200E+08  0.00800  2.206E-03    0   0.7226   age116_m52            0.0000     9.2630E+01     5.5840   2.2669   106.6190
 87      0.0000     0.0000E+00    0.0000E+00    1.609000E+08  0.00800  1.596E-03    0   0.6963   age120_m52            0.0000     1.1736E+02     6.6645   2.0518   108.2472
 88      0.0000     0.0000E+00    0.0000E+00    2.861200E+08  0.00800  1.002E-03    0   0.6665   age125_m52            0.0000     1.8885E+02     9.2894   1.7567   110.9481
 89      0.0000     0.0000E+00    0.0000E+00    5.088000E+08  0.00800  5.759E-04    0   0.6377   age130_m52            0.0000     2.0888E+02    10.3939   1.4045   114.9127
 90      0.0000     0.0000E+00    0.0000E+00    9.047900E+08  0.00800  2.972E-04    0   0.6086   age135_m52            0.0000     1.3238E+02     8.8269   0.8514   113.8650
 91      0.0000     0.0000E+00    0.0000E+00    1.278050E+09  0.00800  2.242E-04    0   0.5907   age138_m52            0.0000     8.9295E+01     7.5617   0.2357   112.3572
 92      0.0000     0.0000E+00    0.0000E+00    1.434000E+09  0.00800  1.645E-04    0   0.5787   age139_m52            0.0000     7.3683E+01     6.9078   0.3852   111.7997
 93      0.0000     0.0000E+00    0.0000E+00    2.500000E+09  0.00800  7.723E-05    0   0.5519   age150_m52            0.0000     8.3050E+01     7.1525   0.0408   107.9077
 94      0.0000     0.0000E+00    0.0000E+00    4.250000E+09  0.00800  4.151E-05    0   0.5320   age158_m52            0.0000     8.8231E+01     7.2117  -0.0289   105.2309
 95      0.0000     0.0000E+00    0.0000E+00    6.250000E+09  0.00800  3.010E-05    0   0.5197   age166_m52            0.0000     1.2294E+02     8.2249  -0.2249   103.7191
 96      0.0000     0.0000E+00    0.0000E+00    7.500000E+09  0.00800  2.467E-05    0   0.5139   age171_m52            0.0000     1.3313E+02     8.4922  -0.2670   103.2740
 97      0.0000     0.0000E+00    0.0000E+00    1.000000E+10  0.00800  1.862E-05    0   0.5054   age181_m52            0.0000     1.6645E+02     9.3482  -0.4001   102.8196
