###################################################################
## OUTPUT of StarlightChains_v04.for    [Cid@UFSC - 01/Apr/2007] ##
###################################################################

## Some input info
NGC6723_a_1.cxt                          [arq_obs]
Base.BC03.S                              [arq_base]
NGC6723_a_1.msk                          [arq_masks]
StCv04.C11.config                        [arq_config]
  150                                    [N_base]
    0                                    [N_YAV_components = # of components with extra extinction!]
    0                                    [i_FitPowerLaw (1/0 = Yes/No)]
-9.99                                    [alpha_PowerLaw]
CCM                                      [red_law_option]
 1.458241                                [q_norm = A(l_norm)/A(V)]

## (Re)Sampling Parameters
 3359.00                                 [l_ini (A)]
 6428.00                                 [l_fin (A)]
    1.00                                 [dl    (A)]     (OBS: dl_cushion =    50.00 A)

## Normalization info
 4020.00                                 [l_norm (A) - for base]
 4010.00                                 [llow_norm (A) - window for f_obs]
 4060.00                                 [lupp_norm (A) - window for f_obs]
2.195815E-14                             [fobs_norm (in input units)]

## S/N
 4730.00                                 [llow_SN (A) - window for S/N]
 4780.00                                 [lupp_SN (A) - window for S/N]
  66.760                                 [S/N in S/N window]
  58.282                                 [S/N in norm. window]
  95.225                                 [S/N_err in S/N window]
  83.132                                 [S/N_err in norm. window]
  1.0000                                 [fscale_chi2]

## etc...
  2147483590                             [idum_orig]
  3065                                   [NOl_eff]
  1839                                   [Nl_eff]
  1226    NSIGMA                         [Ntot_cliped & clip_method]
  1737400                                [Nglobal_steps]
   7                                     [N_chains]
  31                                     [NEX0s_base = N_base in EX0s-fits]
 0   0   1      119   2.0   1.985E+02    [Clip-Bug, RC-Crash & Burn-In warning-flags, n_censored_weights, wei_nsig_threshold & wei_limit]
    48     47.927     47.923      0.004  [idt_all, wdt_TotTime, wdt_UsrTime & wdt_SysTime (sec)]

## Synthesis Results - Best model ##

 2.49322E+00                             [chi2/Nl_eff]
     1.71786                             [adev (%)]

   101.11618                             [sum-of-x (%)]
 2.61632E-14                             [Flux_tot (units of input spectrum!)]
 5.23639E-10                             [Mini_tot (???)]
 2.67476E-10                             [Mcor_tot (???)]

   0.83                                  [v0_min  (km/s)]
  16.61                                  [vd_min  (km/s)]
 0.1222                                  [AV_min  (mag)]
 0.0000                                  [YAV_min (mag)]

# j     x_j(%)      Mini_j(%)     Mcor_j(%)     age_j(yr)     Z_j      (L/M)_j    YAV?  Mstars   component_j        a/Fe...       SSP_chi2r SSP_adev(%)   SSP_AV   SSP_x(%)
  1      0.0000     0.0000E+00    0.0000E+00    1.000000E+06  0.00010  8.160E-03    0   1.0000   age020_m22            0.0000     1.6257E+02    13.6296   3.7332    79.3033
  2      5.8473     6.0712E-03    1.1886E-02    3.160000E+06  0.00010  4.759E-02    0   1.0000   age045_m22            0.0000     3.6407E+01     6.1051   1.7522    97.6638
  3      0.0000     0.0000E+00    0.0000E+00    5.010000E+06  0.00010  1.932E-02    0   0.9582   age055_m22            0.0000     1.5018E+02    13.2595   2.0399    85.0810
  4      0.0000     0.0000E+00    0.0000E+00    6.610000E+06  0.00010  9.973E-03    0   0.9297   age061_m22            0.0000     1.6483E+02    13.8019   3.7026    81.7184
  5      0.0000     0.0000E+00    0.0000E+00    8.710000E+06  0.00010  7.690E-03    0   0.9030   age067_m22            0.0000     1.5637E+02    13.4614   3.6967    82.1100
  6      0.0000     0.0000E+00    0.0000E+00    1.000000E+07  0.00010  6.375E-03    0   0.8902   age070_m22            0.0000     1.4898E+02    13.1310   3.7095    82.3006
  7      0.0000     0.0000E+00    0.0000E+00    1.445000E+07  0.00010  4.874E-03    0   0.8589   age078_m22            0.0000     1.1423E+02    11.6315   3.5359    84.9954
  8      0.0000     0.0000E+00    0.0000E+00    2.512000E+07  0.00010  4.103E-03    0   0.8174   age090_m22            0.0000     6.2375E+01     8.5499   3.1391    91.0631
  9      0.0000     0.0000E+00    0.0000E+00    4.000000E+07  0.00010  3.654E-03    0   0.7830   age104_m22            0.0000     5.1278E+01     6.6087   2.8530    95.3815
 10      0.0000     0.0000E+00    0.0000E+00    5.500000E+07  0.00010  3.093E-03    0   0.7597   age110_m22            0.0000     5.1021E+01     6.1292   2.7539    96.8588
 11      0.7619     1.5486E-02    2.1641E-02    1.015200E+08  0.00010  2.431E-03    0   0.7138   age116_m22            0.0000     6.2984E+01     6.1611   2.4109    99.6173
 12      0.0000     0.0000E+00    0.0000E+00    1.609000E+08  0.00010  1.319E-03    0   0.6775   age120_m22            0.0000     6.0951E+01     5.9646   1.9335   101.8782
 13      0.0000     0.0000E+00    0.0000E+00    2.861200E+08  0.00010  1.075E-03    0   0.6412   age125_m22            0.0000     1.3654E+02     8.1950   2.0075   105.2529
 14      0.0000     0.0000E+00    0.0000E+00    5.088000E+08  0.00010  7.183E-04    0   0.6083   age130_m22            0.0000     1.6427E+02     9.0917   1.7773   106.9883
 15      0.0000     0.0000E+00    0.0000E+00    9.047900E+08  0.00010  4.524E-04    0   0.5785   age135_m22            0.0000     1.6525E+02     9.2553   1.5809   108.1418
 16      0.0000     0.0000E+00    0.0000E+00    1.278050E+09  0.00010  3.018E-04    0   0.5588   age138_m22            0.0000     8.0867E+01     6.6726   1.0377   106.4252
 17      0.0000     0.0000E+00    0.0000E+00    1.434000E+09  0.00010  2.691E-04    0   0.5532   age139_m22            0.0000     6.6150E+01     6.1212   0.8802   105.8524
 18      0.0000     0.0000E+00    0.0000E+00    2.500000E+09  0.00010  1.582E-04    0   0.5296   age150_m22            0.0000     5.7967E+01     5.9224   0.7678   106.5180
 19      0.0000     0.0000E+00    0.0000E+00    4.250000E+09  0.00010  1.007E-04    0   0.5110   age158_m22            0.0000     3.3127E+01     4.6180   0.6111   104.9024
 20      0.0000     0.0000E+00    0.0000E+00    6.250000E+09  0.00010  6.869E-05    0   0.4985   age166_m22            0.0000     1.7921E+01     3.5603   0.5485   102.2488
 21      0.0000     0.0000E+00    0.0000E+00    7.500000E+09  0.00010  5.873E-05    0   0.4931   age171_m22            0.0000     1.7440E+01     3.5942   0.5358   101.7231
 22      0.0000     1.1983E-05    1.1387E-05    1.000000E+10  0.00010  4.481E-05    0   0.4854   age181_m22            0.0000     1.6472E+01     3.5145   0.4968   101.3786
 23      0.0000     3.6950E-05    3.4657E-05    1.300000E+10  0.00010  3.489E-05    0   0.4791   age193_m22            0.0000     1.4530E+01     3.3293   0.4387   100.8561
 24      0.0000     0.0000E+00    0.0000E+00    1.500000E+10  0.00010  3.035E-05    0   0.4766   age201_m22            0.0000     1.3591E+01     3.2473   0.3985   100.6829
 25      0.0010     1.8745E-03    1.7376E-03    1.800000E+10  0.00010  2.510E-05    0   0.4735   age213_m22            0.0000     1.1815E+01     3.0962   0.3283   100.0931
 26      0.0000     0.0000E+00    0.0000E+00    1.000000E+06  0.00040  8.458E-03    0   1.0000   age020_m32            0.0000     1.6083E+02    13.5622   3.7501    79.8667
 27      0.0000     0.0000E+00    0.0000E+00    3.160000E+06  0.00040  3.973E-02    0   1.0000   age045_m32            0.0000     6.8300E+01     9.0281   3.0325    91.1112
 28      0.0000     0.0000E+00    0.0000E+00    5.010000E+06  0.00040  1.935E-02    0   0.9532   age055_m32            0.0000     1.3024E+02    12.5386   3.2536    85.3879
 29      0.0000     0.0000E+00    0.0000E+00    6.610000E+06  0.00040  1.204E-02    0   0.9243   age061_m32            0.0000     1.4038E+02    12.8511   3.5661    83.6016
 30      0.0000     0.0000E+00    0.0000E+00    8.710000E+06  0.00040  9.433E-03    0   0.9001   age067_m32            0.0000     1.2725E+02    12.2738   3.5410    84.4422
 31      0.0000     0.0000E+00    0.0000E+00    1.000000E+07  0.00040  8.053E-03    0   0.8877   age070_m32            0.0000     1.2220E+02    12.0462   3.5062    84.8776
 32      0.0000     0.0000E+00    0.0000E+00    1.445000E+07  0.00040  7.027E-03    0   0.8578   age078_m32            0.0000     8.3604E+01    10.0704   2.9905    89.7953
 33      0.0000     0.0000E+00    0.0000E+00    2.512000E+07  0.00040  4.707E-03    0   0.8166   age090_m32            0.0000     5.9065E+01     8.1851   2.7000    93.5112
 34      0.0000     0.0000E+00    0.0000E+00    4.000000E+07  0.00040  3.714E-03    0   0.7827   age104_m32            0.0000     4.9587E+01     6.6879   2.5040    96.6430
 35      0.0000     0.0000E+00    0.0000E+00    5.500000E+07  0.00040  2.982E-03    0   0.7593   age110_m32            0.0000     5.0471E+01     6.3271   2.4456    97.7467
 36      0.5469     1.2351E-02    1.7272E-02    1.015200E+08  0.00040  2.188E-03    0   0.7143   age116_m32            0.0000     7.9963E+01     6.4835   2.1870   101.8652
 37      0.0000     0.0000E+00    0.0000E+00    1.609000E+08  0.00040  1.690E-03    0   0.6856   age120_m32            0.0000     1.1262E+02     7.4902   1.9837   104.4204
 38      0.0000     0.0000E+00    0.0000E+00    2.861200E+08  0.00040  1.152E-03    0   0.6509   age125_m32            0.0000     1.4258E+02     8.4031   1.7590   106.3942
 39      0.0000     0.0000E+00    0.0000E+00    5.088000E+08  0.00040  7.331E-04    0   0.6182   age130_m32            0.0000     1.5334E+02     8.8030   1.5959   107.1460
 40      0.0000     0.0000E+00    0.0000E+00    9.047900E+08  0.00040  3.960E-04    0   0.5890   age135_m32            0.0000     8.2609E+01     6.7439   1.1300   105.8048
 41      0.0000     0.0000E+00    0.0000E+00    1.278050E+09  0.00040  2.854E-04    0   0.5687   age138_m32            0.0000     6.5653E+01     6.2032   0.8367   107.4698
 42      0.0000     0.0000E+00    0.0000E+00    1.434000E+09  0.00040  2.531E-04    0   0.5632   age139_m32            0.0000     6.3854E+01     6.1533   0.7741   107.4503
 43      2.5583     8.4955E-01    8.9579E-01    2.500000E+09  0.00040  1.488E-04    0   0.5386   age150_m32            0.0000     4.3243E+01     5.1589   0.5098   105.8181
 44     29.6831     1.6150E+01    1.6437E+01    4.250000E+09  0.00040  9.082E-05    0   0.5199   age158_m32            0.0000     1.4784E+01     3.1549   0.4028   102.5871
 45      8.9311     6.9366E+00    6.8931E+00    6.250000E+09  0.00040  6.362E-05    0   0.5076   age166_m32            0.0000     9.8049E+00     2.9634   0.3562    99.2586
 46     10.5991     9.9023E+00    9.7452E+00    7.500000E+09  0.00040  5.289E-05    0   0.5027   age171_m32            0.0000     9.5626E+00     2.9980   0.3180    98.0567
 47      0.0001     1.4880E-04    1.4414E-04    1.000000E+10  0.00040  3.972E-05    0   0.4948   age181_m32            0.0000     9.0188E+00     2.9116   0.2546    96.7586
 48      0.0000     0.0000E+00    0.0000E+00    1.300000E+10  0.00040  3.283E-05    0   0.4870   age193_m32            0.0000     6.9985E+00     2.4619   0.2126    99.4303
 49      0.0000     0.0000E+00    0.0000E+00    1.500000E+10  0.00040  2.925E-05    0   0.4854   age201_m32            0.0000     8.2937E+00     2.5401   0.1957   100.9803
 50      0.0000     0.0000E+00    0.0000E+00    1.800000E+10  0.00040  2.469E-05    0   0.4819   age213_m32            0.0000     8.9752E+00     2.6063   0.1549   101.4928
 51      0.0000     0.0000E+00    0.0000E+00    1.000000E+06  0.00400  1.114E-02    0   1.0000   age020_m42            0.0000     1.5482E+02    13.2755   3.6825    80.2617
 52      0.0000     0.0000E+00    0.0000E+00    3.160000E+06  0.00400  4.073E-02    0   0.9999   age045_m42            0.0000     4.8166E+01     7.3906   2.7288    93.7398
 53      0.0000     0.0000E+00    0.0000E+00    5.010000E+06  0.00400  2.534E-02    0   0.9488   age055_m42            0.0000     8.9915E+01    10.4317   3.1332    87.6204
 54      0.0000     0.0000E+00    0.0000E+00    6.610000E+06  0.00400  2.583E-02    0   0.9220   age061_m42            0.0000     4.5599E+01     6.8527   2.5515    94.4241
 55      0.0000     0.0000E+00    0.0000E+00    8.710000E+06  0.00400  1.706E-02    0   0.8983   age067_m42            0.0000     6.2666E+01     8.7275   2.3702    92.5696
 56      0.0000     0.0000E+00    0.0000E+00    1.000000E+07  0.00400  1.271E-02    0   0.8862   age070_m42            0.0000     8.4564E+01    10.3489   2.3533    91.0368
 57      0.0000     0.0000E+00    0.0000E+00    1.445000E+07  0.00400  7.666E-03    0   0.8571   age078_m42            0.0000     1.0408E+02    11.2883   2.7553    88.0034
 58      0.0000     0.0000E+00    0.0000E+00    2.512000E+07  0.00400  5.070E-03    0   0.8174   age090_m42            0.0000     7.2840E+01     9.6847   2.2181    92.7109
 59      0.0000     0.0000E+00    0.0000E+00    4.000000E+07  0.00400  3.505E-03    0   0.7851   age104_m42            0.0000     4.7131E+01     7.7662   1.8974    95.7001
 60      0.0000     0.0000E+00    0.0000E+00    5.500000E+07  0.00400  3.059E-03    0   0.7629   age110_m42            0.0000     3.9024E+01     5.4630   1.9631   100.1898
 61      0.0000     0.0000E+00    0.0000E+00    1.015200E+08  0.00400  2.268E-03    0   0.7207   age116_m42            0.0000     9.4601E+01     6.6552   1.8892   105.1752
 62      1.4104     4.0518E-02    5.4971E-02    1.609000E+08  0.00400  1.720E-03    0   0.6930   age120_m42            0.0000     1.0300E+02     6.8862   1.7508   106.7825
 63      0.0000     0.0000E+00    0.0000E+00    2.861200E+08  0.00400  1.079E-03    0   0.6613   age125_m42            0.0000     1.0260E+02     7.1736   1.3931   107.3473
 64      0.0000     0.0000E+00    0.0000E+00    5.088000E+08  0.00400  6.261E-04    0   0.6313   age130_m42            0.0000     1.1687E+02     7.8042   1.2026   110.1462
 65      0.0000     0.0000E+00    0.0000E+00    9.047900E+08  0.00400  3.535E-04    0   0.6024   age135_m42            0.0000     6.5342E+01     6.0400   0.7955   110.3394
 66      0.0000     0.0000E+00    0.0000E+00    1.278050E+09  0.00400  2.677E-04    0   0.5837   age138_m42            0.0000     2.1037E+01     4.1498   0.0916   107.8032
 67      0.0000     0.0000E+00    0.0000E+00    1.434000E+09  0.00400  1.910E-04    0   0.5716   age139_m42            0.0000     2.7185E+01     4.3404   0.2643   108.6869
 68      5.8173     2.9278E+00    3.1312E+00    2.500000E+09  0.00400  9.818E-05    0   0.5463   age150_m42            0.0000     8.7351E+00     2.9833  -0.0122   103.8450
 69      0.0000     4.2810E-06    4.4159E-06    4.250000E+09  0.00400  5.491E-05    0   0.5269   age158_m42            0.0000     1.1258E+01     3.1955  -0.1401   101.0533
 70      9.3827     1.2020E+01    1.2121E+01    6.250000E+09  0.00400  3.857E-05    0   0.5151   age166_m42            0.0000     1.8735E+01     3.9039  -0.2680    99.6986
 71      9.8719     1.5042E+01    1.5047E+01    7.500000E+09  0.00400  3.243E-05    0   0.5110   age171_m42            0.0000     2.4539E+01     4.3665  -0.3471    99.1234
 72      7.5483     1.5387E+01    1.5146E+01    1.000000E+10  0.00400  2.424E-05    0   0.5028   age181_m42            0.0000     3.3901E+01     4.9933  -0.4272    98.4683
 73      0.0000     3.5081E-05    3.3838E-05    1.300000E+10  0.00400  1.883E-05    0   0.4927   age193_m42            0.0000     4.2464E+01     5.4799  -0.4680    98.1407
 74      0.0000     0.0000E+00    0.0000E+00    1.500000E+10  0.00400  1.685E-05    0   0.4919   age201_m42            0.0000     4.0191E+01     5.3513  -0.4640    98.1725
 75      0.0000     0.0000E+00    0.0000E+00    1.800000E+10  0.00400  1.452E-05    0   0.4874   age213_m42            0.0000     3.6209E+01     5.1211  -0.4501    98.4586
 76      0.0000     0.0000E+00    0.0000E+00    1.000000E+06  0.00800  1.286E-02    0   1.0000   age020_m52            0.0000     1.3757E+02    12.6140   3.6642    81.8826
 77      0.0000     0.0000E+00    0.0000E+00    3.160000E+06  0.00800  3.147E-02    0   0.9966   age045_m52            0.0000     1.3501E+02    12.5317   3.5802    83.2598
 78      0.0000     0.0000E+00    0.0000E+00    5.010000E+06  0.00800  2.664E-02    0   0.9443   age055_m52            0.0000     1.0282E+02    11.0504   3.2536    86.6627
 79      0.0000     0.0000E+00    0.0000E+00    6.610000E+06  0.00800  2.151E-02    0   0.9177   age061_m52            0.0000     6.4183E+01     9.0600   1.9394    92.9424
 80      0.0000     0.0000E+00    0.0000E+00    8.710000E+06  0.00800  1.628E-02    0   0.8948   age067_m52            0.0000     6.8556E+01     9.3167   2.3208    93.0544
 81      0.0000     0.0000E+00    0.0000E+00    1.000000E+07  0.00800  1.215E-02    0   0.8827   age070_m52            0.0000     8.2932E+01    10.1912   2.6630    91.1882
 82      0.0000     0.0000E+00    0.0000E+00    1.445000E+07  0.00800  8.739E-03    0   0.8552   age078_m52            0.0000     7.2133E+01     9.3242   2.7073    92.4296
 83      0.0000     1.3138E-07    2.0993E-07    2.512000E+07  0.00800  5.676E-03    0   0.8162   age090_m52            0.0000     6.0181E+01     7.9085   2.3104    96.9142
 84      0.0000     0.0000E+00    0.0000E+00    4.000000E+07  0.00800  3.939E-03    0   0.7841   age104_m52            0.0000     5.4436E+01     6.7618   2.1514    99.3869
 85      0.0000     0.0000E+00    0.0000E+00    5.500000E+07  0.00800  3.155E-03    0   0.7627   age110_m52            0.0000     5.7023E+01     6.1523   2.1258   101.1093
 86      0.0000     0.0000E+00    0.0000E+00    1.015200E+08  0.00800  2.206E-03    0   0.7226   age116_m52            0.0000     7.5192E+01     6.0582   1.9468   104.9435
 87      0.0000     0.0000E+00    0.0000E+00    1.609000E+08  0.00800  1.596E-03    0   0.6963   age120_m52            0.0000     8.6114E+01     6.4434   1.7325   106.6750
 88      0.0000     0.0000E+00    0.0000E+00    2.861200E+08  0.00800  1.002E-03    0   0.6665   age125_m52            0.0000     1.2444E+02     7.9527   1.4375   109.5572
 89      0.0000     0.0000E+00    0.0000E+00    5.088000E+08  0.00800  5.759E-04    0   0.6377   age130_m52            0.0000     1.2996E+02     8.5301   1.0852   113.5879
 90      0.0000     0.0000E+00    0.0000E+00    9.047900E+08  0.00800  2.972E-04    0   0.6086   age135_m52            0.0000     6.8821E+01     6.7864   0.5422   112.2740
 91      0.0000     0.0000E+00    0.0000E+00    1.278050E+09  0.00800  2.242E-04    0   0.5907   age138_m52            0.0000     2.8753E+01     4.8012  -0.0795   110.5053
 92      0.0000     0.0000E+00    0.0000E+00    1.434000E+09  0.00800  1.645E-04    0   0.5787   age139_m52            0.0000     2.2405E+01     4.2648   0.0696   109.9226
 93      0.0000     0.0000E+00    0.0000E+00    2.500000E+09  0.00800  7.723E-05    0   0.5519   age150_m52            0.0000     2.2139E+01     4.3426  -0.2712   106.0312
 94      0.0000     0.0000E+00    0.0000E+00    4.250000E+09  0.00800  4.151E-05    0   0.5320   age158_m52            0.0000     2.4440E+01     4.5114  -0.3420   103.4799
 95      0.0020     3.3448E-03    3.4031E-03    6.250000E+09  0.00800  3.010E-05    0   0.5197   age166_m52            0.0000     4.0162E+01     5.4991  -0.5360   102.0184
 96      0.7315     1.4651E+00    1.4740E+00    7.500000E+09  0.00800  2.467E-05    0   0.5139   age171_m52            0.0000     4.4978E+01     5.7621  -0.5774   101.6009
 97      2.4700     6.5549E+00    6.4855E+00    1.000000E+10  0.00800  1.862E-05    0   0.5054   age181_m52            0.0000     6.0643E+01     6.5936  -0.7082   101.1763
