###################################################################
## OUTPUT of StarlightChains_v04.for    [Cid@UFSC - 01/Apr/2007] ##
###################################################################

## Some input info
NGC7078_a_2.cxt                          [arq_obs]
Base.BC03.S                              [arq_base]
NGC7078_a_2.msk                          [arq_masks]
StCv04.C11.config                        [arq_config]
  150                                    [N_base]
    0                                    [N_YAV_components = # of components with extra extinction!]
    0                                    [i_FitPowerLaw (1/0 = Yes/No)]
-9.99                                    [alpha_PowerLaw]
CCM                                      [red_law_option]
 1.458241                                [q_norm = A(l_norm)/A(V)]

## (Re)Sampling Parameters
 3359.00                                 [l_ini (A)]
 6428.00                                 [l_fin (A)]
    1.00                                 [dl    (A)]     (OBS: dl_cushion =    50.00 A)

## Normalization info
 4020.00                                 [l_norm (A) - for base]
 4010.00                                 [llow_norm (A) - window for f_obs]
 4060.00                                 [lupp_norm (A) - window for f_obs]
1.263103E-13                             [fobs_norm (in input units)]

## S/N
 4730.00                                 [llow_SN (A) - window for S/N]
 4780.00                                 [lupp_SN (A) - window for S/N]
 205.831                                 [S/N in S/N window]
 202.695                                 [S/N in norm. window]
 485.220                                 [S/N_err in S/N window]
 477.827                                 [S/N_err in norm. window]
  1.0000                                 [fscale_chi2]

## etc...
  2147483587                             [idum_orig]
  3067                                   [NOl_eff]
   696                                   [Nl_eff]
  2371    NSIGMA                         [Ntot_cliped & clip_method]
  4375350                                [Nglobal_steps]
   7                                     [N_chains]
  15                                     [NEX0s_base = N_base in EX0s-fits]
 0   0   1      254   2.0   1.005E+03    [Clip-Bug, RC-Crash & Burn-In warning-flags, n_censored_weights, wei_nsig_threshold & wei_limit]
   242    242.029    241.960      0.068  [idt_all, wdt_TotTime, wdt_UsrTime & wdt_SysTime (sec)]

## Synthesis Results - Best model ##

 2.80192E+00                             [chi2/Nl_eff]
     0.35717                             [adev (%)]

   103.85087                             [sum-of-x (%)]
 3.11360E-13                             [Flux_tot (units of input spectrum!)]
 2.14490E-09                             [Mini_tot (???)]
 1.09027E-09                             [Mcor_tot (???)]

 -54.83                                  [v0_min  (km/s)]
  88.25                                  [vd_min  (km/s)]
 0.6436                                  [AV_min  (mag)]
 0.0000                                  [YAV_min (mag)]

# j     x_j(%)      Mini_j(%)     Mcor_j(%)     age_j(yr)     Z_j      (L/M)_j    YAV?  Mstars   component_j        a/Fe...       SSP_chi2r SSP_adev(%)   SSP_AV   SSP_x(%)
  1      0.0000     0.0000E+00    0.0000E+00    1.000000E+06  0.00010  8.160E-03    0   1.0000   age020_m22            0.0000     4.5364E+03    11.3224   3.4642    77.7765
  2     33.7050     9.8998E-02    1.9476E-01    3.160000E+06  0.00010  4.759E-02    0   1.0000   age045_m22            0.0000     3.6647E+02     3.0324   1.4101    99.1037
  3      0.0000     0.0000E+00    0.0000E+00    5.010000E+06  0.00010  1.932E-02    0   0.9582   age055_m22            0.0000     4.1469E+03    11.4028   1.7449    83.8439
  4      0.0000     0.0000E+00    0.0000E+00    6.610000E+06  0.00010  9.973E-03    0   0.9297   age061_m22            0.0000     4.5223E+03    11.6443   3.4153    80.5727
  5      0.0000     0.0000E+00    0.0000E+00    8.710000E+06  0.00010  7.690E-03    0   0.9030   age067_m22            0.0000     4.2607E+03    11.2840   3.4080    81.0590
  6      0.0000     0.0000E+00    0.0000E+00    1.000000E+07  0.00010  6.375E-03    0   0.8902   age070_m22            0.0000     4.0444E+03    10.9649   3.4213    81.3173
  7      0.0000     0.0000E+00    0.0000E+00    1.445000E+07  0.00010  4.874E-03    0   0.8589   age078_m22            0.0000     2.8818E+03     9.1577   3.2372    84.4979
  8      0.0000     0.0000E+00    0.0000E+00    2.512000E+07  0.00010  4.103E-03    0   0.8174   age090_m22            0.0000     9.2787E+02     5.1607   2.8146    91.8724
  9      0.0068     2.5906E-04    3.9905E-04    4.000000E+07  0.00010  3.654E-03    0   0.7830   age104_m22            0.0000     1.9538E+02     2.0830   2.4990    97.6428
 10      0.0000     0.0000E+00    0.0000E+00    5.500000E+07  0.00010  3.093E-03    0   0.7597   age110_m22            0.0000     1.4329E+02     1.5232   2.3917    99.5352
 11      6.8594     3.9441E-01    5.5386E-01    1.015200E+08  0.00010  2.431E-03    0   0.7138   age116_m22            0.0000     3.2255E+02     2.0162   2.0340   102.9586
 12      0.0000     0.0000E+00    0.0000E+00    1.609000E+08  0.00010  1.319E-03    0   0.6775   age120_m22            0.0000     3.9332E+02     2.3636   1.5594   105.0387
 13      0.0000     0.0000E+00    0.0000E+00    2.861200E+08  0.00010  1.075E-03    0   0.6412   age125_m22            0.0000     2.3446E+03     7.0985   1.6083   109.8773
 14      0.0000     0.0000E+00    0.0000E+00    5.088000E+08  0.00010  7.183E-04    0   0.6083   age130_m22            0.0000     3.2455E+03     8.5463   1.3753   111.8184
 15      0.0000     0.0000E+00    0.0000E+00    9.047900E+08  0.00010  4.524E-04    0   0.5785   age135_m22            0.0000     3.3752E+03     8.8438   1.1797   113.0060
 16      0.0000     0.0000E+00    0.0000E+00    1.278050E+09  0.00010  3.018E-04    0   0.5588   age138_m22            0.0000     1.3212E+03     5.8595   0.6563   110.1558
 17      0.0000     0.0000E+00    0.0000E+00    1.434000E+09  0.00010  2.691E-04    0   0.5532   age139_m22            0.0000     1.0176E+03     5.2694   0.5036   109.3103
 18      0.0000     0.0000E+00    0.0000E+00    2.500000E+09  0.00010  1.582E-04    0   0.5296   age150_m22            0.0000     7.3534E+02     4.3523   0.3923   109.8869
 19      0.0000     0.0000E+00    0.0000E+00    4.250000E+09  0.00010  1.007E-04    0   0.5110   age158_m22            0.0000     2.7035E+02     2.8182   0.2497   107.5624
 20      0.9824     1.9991E+00    1.9605E+00    6.250000E+09  0.00010  6.869E-05    0   0.4985   age166_m22            0.0000     7.6977E+01     1.4591   0.2015   104.1762
 21     17.0438     4.0565E+01    3.9351E+01    7.500000E+09  0.00010  5.873E-05    0   0.4931   age171_m22            0.0000     5.8683E+01     1.1284   0.1903   103.5273
 22      0.0000     0.0000E+00    0.0000E+00    1.000000E+10  0.00010  4.481E-05    0   0.4854   age181_m22            0.0000     6.4650E+01     1.1788   0.1525   103.1243
 23      4.5307     1.8152E+01    1.7109E+01    1.300000E+10  0.00010  3.489E-05    0   0.4791   age193_m22            0.0000     7.9453E+01     1.2812   0.0967   102.4855
 24      0.1358     6.2565E-01    5.8662E-01    1.500000E+10  0.00010  3.035E-05    0   0.4766   age201_m22            0.0000     8.6737E+01     1.3006   0.0578   102.2367
 25      0.0000     0.0000E+00    0.0000E+00    1.800000E+10  0.00010  2.510E-05    0   0.4735   age213_m22            0.0000     1.1002E+02     1.3212  -0.0096   101.4820
 26      0.0000     0.0000E+00    0.0000E+00    1.000000E+06  0.00040  8.458E-03    0   1.0000   age020_m32            0.0000     4.4867E+03    11.3493   3.4774    78.4427
 27      0.0000     0.0000E+00    0.0000E+00    3.160000E+06  0.00040  3.973E-02    0   1.0000   age045_m32            0.0000     1.1252E+03     5.6814   2.7059    91.8286
 28      0.0000     0.0000E+00    0.0000E+00    5.010000E+06  0.00040  1.935E-02    0   0.9532   age055_m32            0.0000     3.2569E+03    10.0798   2.9498    84.8232
 29      0.0000     0.0000E+00    0.0000E+00    6.610000E+06  0.00040  1.204E-02    0   0.9243   age061_m32            0.0000     3.6859E+03    10.4923   3.2728    82.7566
 30      0.0000     0.0000E+00    0.0000E+00    8.710000E+06  0.00040  9.433E-03    0   0.9001   age067_m32            0.0000     3.2476E+03     9.8044   3.2431    83.8105
 31      0.0000     0.0000E+00    0.0000E+00    1.000000E+07  0.00040  8.053E-03    0   0.8877   age070_m32            0.0000     3.0794E+03     9.5293   3.2070    84.3124
 32      0.0000     0.0000E+00    0.0000E+00    1.445000E+07  0.00040  7.027E-03    0   0.8578   age078_m32            0.0000     1.5720E+03     6.9563   2.6680    90.1860
 33      0.0000     0.0000E+00    0.0000E+00    2.512000E+07  0.00040  4.707E-03    0   0.8166   age090_m32            0.0000     6.8235E+02     4.5827   2.3629    94.6653
 34      0.0000     0.0000E+00    0.0000E+00    4.000000E+07  0.00040  3.714E-03    0   0.7827   age104_m32            0.0000     1.8436E+02     2.1923   2.1486    98.7836
 35      0.0000     0.0000E+00    0.0000E+00    5.500000E+07  0.00040  2.982E-03    0   0.7593   age110_m32            0.0000     1.2536E+02     1.5058   2.0842   100.2587
 36      1.9428     1.2412E-01    1.7442E-01    1.015200E+08  0.00040  2.188E-03    0   0.7143   age116_m32            0.0000     7.6429E+02     3.7558   1.8011   105.7192
 37      1.0666     8.8218E-02    1.1899E-01    1.609000E+08  0.00040  1.690E-03    0   0.6856   age120_m32            0.0000     1.6235E+03     5.6384   1.5831   108.9736
 38      0.0000     0.0000E+00    0.0000E+00    2.861200E+08  0.00040  1.152E-03    0   0.6509   age125_m32            0.0000     2.5809E+03     7.5296   1.3584   111.1281
 39      0.0000     0.0000E+00    0.0000E+00    5.088000E+08  0.00040  7.331E-04    0   0.6182   age130_m32            0.0000     3.0354E+03     8.3796   1.1967   111.8743
 40      0.0000     0.0000E+00    0.0000E+00    9.047900E+08  0.00040  3.960E-04    0   0.5890   age135_m32            0.0000     1.4882E+03     6.4870   0.7540   109.4392
 41      0.0000     0.0000E+00    0.0000E+00    1.278050E+09  0.00040  2.854E-04    0   0.5687   age138_m32            0.0000     9.6003E+02     5.0704   0.4598   111.0062
 42      0.1688     9.3249E-02    1.0332E-01    1.434000E+09  0.00040  2.531E-04    0   0.5632   age139_m32            0.0000     9.1349E+02     4.9102   0.3971   110.9621
 43     33.7261     3.1682E+01    3.3570E+01    2.500000E+09  0.00040  1.488E-04    0   0.5386   age150_m32            0.0000     5.4767E+02     4.0228   0.1430   108.8232
 44      3.1385     4.8304E+00    4.9406E+00    4.250000E+09  0.00040  9.082E-05    0   0.5199   age158_m32            0.0000     1.2821E+02     2.0355   0.0574   104.4345
 45      0.2034     4.4684E-01    4.4622E-01    6.250000E+09  0.00040  6.362E-05    0   0.5076   age166_m32            0.0000     2.4402E+02     1.5032   0.0277   100.1592
 46      0.3407     9.0049E-01    8.9056E-01    7.500000E+09  0.00040  5.289E-05    0   0.5027   age171_m32            0.0000     3.3265E+02     1.7287  -0.0057    98.7459
 47      0.0000     0.0000E+00    0.0000E+00    1.000000E+10  0.00040  3.972E-05    0   0.4948   age181_m32            0.0000     4.1764E+02     1.9848  -0.0654    97.3105
 48      0.0000     0.0000E+00    0.0000E+00    1.300000E+10  0.00040  3.283E-05    0   0.4870   age193_m32            0.0000     2.3072E+02     1.9019  -0.1171   100.4427
 49      0.0000     0.0000E+00    0.0000E+00    1.500000E+10  0.00040  2.925E-05    0   0.4854   age201_m32            0.0000     1.8202E+02     2.0578  -0.1401   102.2871
 50      0.0000     0.0000E+00    0.0000E+00    1.800000E+10  0.00040  2.469E-05    0   0.4819   age213_m32            0.0000     1.8727E+02     2.2169  -0.1829   102.8769
 51      0.0000     0.0000E+00    0.0000E+00    1.000000E+06  0.00400  1.114E-02    0   1.0000   age020_m42            0.0000     4.3159E+03    11.0089   3.4080    78.8938
 52      0.0000     0.0000E+00    0.0000E+00    3.160000E+06  0.00400  4.073E-02    0   0.9999   age045_m42            0.0000     6.2824E+02     4.0945   2.3976    94.8559
 53      0.0000     0.0000E+00    0.0000E+00    5.010000E+06  0.00400  2.534E-02    0   0.9488   age055_m42            0.0000     2.0601E+03     7.6007   2.8247    87.5028
 54      0.0000     2.6611E-08    4.8268E-08    6.610000E+06  0.00400  2.583E-02    0   0.9220   age061_m42            0.0000     3.6174E+02     2.9872   2.2085    95.9448
 55      0.0000     0.0000E+00    0.0000E+00    8.710000E+06  0.00400  1.706E-02    0   0.8983   age067_m42            0.0000     9.8881E+02     5.4741   2.0354    93.2761
 56      0.0000     0.0000E+00    0.0000E+00    1.000000E+07  0.00400  1.271E-02    0   0.8862   age070_m42            0.0000     1.6469E+03     7.2664   2.0230    91.2663
 57      0.0000     0.0000E+00    0.0000E+00    1.445000E+07  0.00400  7.666E-03    0   0.8571   age078_m42            0.0000     2.4312E+03     8.4858   2.4419    87.6200
 58      0.0000     0.0000E+00    0.0000E+00    2.512000E+07  0.00400  5.070E-03    0   0.8174   age090_m42            0.0000     1.3829E+03     6.5537   1.8883    92.9477
 59      0.0000     0.0000E+00    0.0000E+00    4.000000E+07  0.00400  3.505E-03    0   0.7851   age104_m42            0.0000     7.2302E+02     4.3501   1.5625    96.2575
 60      0.0000     0.0000E+00    0.0000E+00    5.500000E+07  0.00400  3.059E-03    0   0.7629   age110_m42            0.0000     1.0853E+02     1.3792   1.6023   102.3486
 61      0.0000     0.0000E+00    0.0000E+00    1.015200E+08  0.00400  2.268E-03    0   0.7207   age116_m42            0.0000     1.4082E+03     5.6752   1.4950   109.2916
 62      0.0000     0.0000E+00    0.0000E+00    1.609000E+08  0.00400  1.720E-03    0   0.6930   age120_m42            0.0000     1.7428E+03     6.5533   1.3547   111.1410
 63      0.0000     0.0000E+00    0.0000E+00    2.861200E+08  0.00400  1.079E-03    0   0.6613   age125_m42            0.0000     1.8668E+03     6.8166   1.0058   111.2435
 64      0.0000     0.0000E+00    0.0000E+00    5.088000E+08  0.00400  6.261E-04    0   0.6313   age130_m42            0.0000     2.3224E+03     7.4832   0.8099   114.3746
 65      0.0000     0.0000E+00    0.0000E+00    9.047900E+08  0.00400  3.535E-04    0   0.6024   age135_m42            0.0000     1.2992E+03     6.0629   0.4177   113.7473
 66      0.0000     0.0000E+00    0.0000E+00    1.278050E+09  0.00400  2.677E-04    0   0.5837   age138_m42            0.0000     1.1709E+03     6.1595  -0.2519   109.2808
 67      0.0000     0.0000E+00    0.0000E+00    1.434000E+09  0.00400  1.910E-04    0   0.5716   age139_m42            0.0000     1.0578E+03     6.0786  -0.0877   110.7273
 68      0.0000     0.0000E+00    0.0000E+00    2.500000E+09  0.00400  9.818E-05    0   0.5463   age150_m42            0.0000     1.1190E+03     5.3578  -0.3344   104.4458
 69      0.0000     0.0000E+00    0.0000E+00    4.250000E+09  0.00400  5.491E-05    0   0.5269   age158_m42            0.0000     1.3757E+03     5.2323  -0.4494   100.9951
 70      0.0000     0.0000E+00    0.0000E+00    6.250000E+09  0.00400  3.857E-05    0   0.5151   age166_m42            0.0000     1.7808E+03     5.8471  -0.5678    99.2447
 71      0.0000     0.0000E+00    0.0000E+00    7.500000E+09  0.00400  3.243E-05    0   0.5110   age171_m42            0.0000     2.0532E+03     6.2654  -0.6424    98.4796
 72      0.0000     0.0000E+00    0.0000E+00    1.000000E+10  0.00400  2.424E-05    0   0.5028   age181_m42            0.0000     2.4374E+03     6.7851  -0.7166    97.5812
 73      0.0000     0.0000E+00    0.0000E+00    1.300000E+10  0.00400  1.883E-05    0   0.4927   age193_m42            0.0000     2.7330E+03     7.0998  -0.7539    97.0773
 74      0.0000     0.0000E+00    0.0000E+00    1.500000E+10  0.00400  1.685E-05    0   0.4919   age201_m42            0.0000     2.6379E+03     6.9573  -0.7508    97.1243
 75      0.0000     0.0000E+00    0.0000E+00    1.800000E+10  0.00400  1.452E-05    0   0.4874   age213_m42            0.0000     2.4673E+03     6.7087  -0.7391    97.4624
 76      0.0000     0.0000E+00    0.0000E+00    1.000000E+06  0.00800  1.286E-02    0   1.0000   age020_m52            0.0000     3.7809E+03    10.2652   3.3829    80.7945
 77      0.0000     0.0000E+00    0.0000E+00    3.160000E+06  0.00800  3.147E-02    0   0.9966   age045_m52            0.0000     3.6059E+03    10.0833   3.2897    82.3927
 78      0.0000     0.0000E+00    0.0000E+00    5.010000E+06  0.00800  2.664E-02    0   0.9443   age055_m52            0.0000     2.4857E+03     8.1559   2.9521    86.2371
 79      0.0000     0.0000E+00    0.0000E+00    6.610000E+06  0.00800  2.151E-02    0   0.9177   age061_m52            0.0000     1.5545E+03     6.3472   1.6201    92.7419
 80      0.0000     0.0000E+00    0.0000E+00    8.710000E+06  0.00800  1.628E-02    0   0.8948   age067_m52            0.0000     1.2315E+03     6.0515   1.9897    93.4295
 81      0.0000     0.0000E+00    0.0000E+00    1.000000E+07  0.00800  1.215E-02    0   0.8827   age070_m52            0.0000     1.5984E+03     6.9147   2.3364    91.3980
 82      0.0000     0.0000E+00    0.0000E+00    1.445000E+07  0.00800  8.739E-03    0   0.8552   age078_m52            0.0000     1.1352E+03     5.7225   2.3725    93.1343
 83      0.0000     0.0000E+00    0.0000E+00    2.512000E+07  0.00800  5.676E-03    0   0.8162   age090_m52            0.0000     4.1675E+02     3.5437   1.9482    98.8013
 84      0.0000     0.0000E+00    0.0000E+00    4.000000E+07  0.00800  3.939E-03    0   0.7841   age104_m52            0.0000     1.9842E+02     2.0030   1.7819   101.8856
 85      0.0000     0.0000E+00    0.0000E+00    5.500000E+07  0.00800  3.155E-03    0   0.7627   age110_m52            0.0000     2.4859E+02     1.6106   1.7503   104.0835
 86      0.0000     0.0000E+00    0.0000E+00    1.015200E+08  0.00800  2.206E-03    0   0.7226   age116_m52            0.0000     8.7093E+02     4.4071   1.5589   108.7113
 87      0.0000     0.0000E+00    0.0000E+00    1.609000E+08  0.00800  1.596E-03    0   0.6963   age120_m52            0.0000     1.2886E+03     5.6061   1.3452   110.5041
 88      0.0000     0.0000E+00    0.0000E+00    2.861200E+08  0.00800  1.002E-03    0   0.6665   age125_m52            0.0000     2.6473E+03     8.3645   1.0459   113.6500
 89      0.0000     0.0000E+00    0.0000E+00    5.088000E+08  0.00800  5.759E-04    0   0.6377   age130_m52            0.0000     3.1808E+03     9.5673   0.6956   117.6310
 90      0.0000     0.0000E+00    0.0000E+00    9.047900E+08  0.00800  2.972E-04    0   0.6086   age135_m52            0.0000     2.1542E+03     8.6026   0.1783   115.1606
 91      0.0000     0.0000E+00    0.0000E+00    1.278050E+09  0.00800  2.242E-04    0   0.5907   age138_m52            0.0000     1.7778E+03     7.3312  -0.4176   111.8273
 92      0.0000     0.0000E+00    0.0000E+00    1.434000E+09  0.00800  1.645E-04    0   0.5787   age139_m52            0.0000     1.4682E+03     6.6844  -0.2696   111.2814
 93      0.0000     0.0000E+00    0.0000E+00    2.500000E+09  0.00800  7.723E-05    0   0.5519   age150_m52            0.0000     1.9219E+03     6.8516  -0.5883   106.3184
 94      0.0000     0.0000E+00    0.0000E+00    4.250000E+09  0.00800  4.151E-05    0   0.5320   age158_m52            0.0000     2.0572E+03     6.7262  -0.6494   103.3786
 95      0.0000     0.0000E+00    0.0000E+00    6.250000E+09  0.00800  3.010E-05    0   0.5197   age166_m52            0.0000     2.7565E+03     7.5894  -0.8324   101.4694
 96      0.0000     0.0000E+00    0.0000E+00    7.500000E+09  0.00800  2.467E-05    0   0.5139   age171_m52            0.0000     2.9595E+03     7.8554  -0.8715   100.9741
 97      0.0000     0.0000E+00    0.0000E+00    1.000000E+10  0.00800  1.862E-05    0   0.5054   age181_m52            0.0000     3.5855E+03     8.6903  -0.9962   100.3485
