###################################################################
## OUTPUT of StarlightChains_v04.for    [Cid@UFSC - 01/Apr/2007] ##
###################################################################

## Some input info
NGC7089_a_1.cxt                          [arq_obs]
Base.BC03.S                              [arq_base]
NGC7089_a_1.msk                          [arq_masks]
StCv04.C11.config                        [arq_config]
  150                                    [N_base]
    0                                    [N_YAV_components = # of components with extra extinction!]
    0                                    [i_FitPowerLaw (1/0 = Yes/No)]
-9.99                                    [alpha_PowerLaw]
CCM                                      [red_law_option]
 1.458241                                [q_norm = A(l_norm)/A(V)]

## (Re)Sampling Parameters
 3359.00                                 [l_ini (A)]
 6428.00                                 [l_fin (A)]
    1.00                                 [dl    (A)]     (OBS: dl_cushion =    50.00 A)

## Normalization info
 4020.00                                 [l_norm (A) - for base]
 4010.00                                 [llow_norm (A) - window for f_obs]
 4060.00                                 [lupp_norm (A) - window for f_obs]
7.608305E-14                             [fobs_norm (in input units)]

## S/N
 4730.00                                 [llow_SN (A) - window for S/N]
 4780.00                                 [lupp_SN (A) - window for S/N]
 117.458                                 [S/N in S/N window]
 112.425                                 [S/N in norm. window]
 300.443                                 [S/N_err in S/N window]
 287.568                                 [S/N_err in norm. window]
  1.0000                                 [fscale_chi2]

## etc...
  2147483586                             [idum_orig]
  3067                                   [NOl_eff]
   684                                   [Nl_eff]
  2383    NSIGMA                         [Ntot_cliped & clip_method]
  1603350                                [Nglobal_steps]
   7                                     [N_chains]
  21                                     [NEX0s_base = N_base in EX0s-fits]
 0   0   1      249   2.0   6.084E+02    [Clip-Bug, RC-Crash & Burn-In warning-flags, n_censored_weights, wei_nsig_threshold & wei_limit]
    68     67.476     67.460      0.016  [idt_all, wdt_TotTime, wdt_UsrTime & wdt_SysTime (sec)]

## Synthesis Results - Best model ##

 2.48432E+00                             [chi2/Nl_eff]
     0.64843                             [adev (%)]

   102.23086                             [sum-of-x (%)]
 9.39306E-14                             [Flux_tot (units of input spectrum!)]
 9.10445E-10                             [Mini_tot (???)]
 4.79390E-10                             [Mcor_tot (???)]

 -18.87                                  [v0_min  (km/s)]
  57.23                                  [vd_min  (km/s)]
 0.1405                                  [AV_min  (mag)]
 0.0000                                  [YAV_min (mag)]

# j     x_j(%)      Mini_j(%)     Mcor_j(%)     age_j(yr)     Z_j      (L/M)_j    YAV?  Mstars   component_j        a/Fe...       SSP_chi2r SSP_adev(%)   SSP_AV   SSP_x(%)
  1      0.0000     0.0000E+00    0.0000E+00    1.000000E+06  0.00010  8.160E-03    0   1.0000   age020_m22            0.0000     2.4546E+03    15.8163   3.7014    75.2181
  2     14.9975     3.1804E-02    6.0401E-02    3.160000E+06  0.00010  4.759E-02    0   1.0000   age045_m22            0.0000     3.1117E+02     5.7721   1.5498    96.2530
  3      0.0000     0.0000E+00    0.0000E+00    5.010000E+06  0.00010  1.932E-02    0   0.9582   age055_m22            0.0000     2.1670E+03    14.9211   1.9897    81.2347
  4      0.0000     0.0000E+00    0.0000E+00    6.610000E+06  0.00010  9.973E-03    0   0.9297   age061_m22            0.0000     2.3930E+03    15.7452   3.6594    77.9997
  5      0.0000     0.0000E+00    0.0000E+00    8.710000E+06  0.00010  7.690E-03    0   0.9030   age067_m22            0.0000     2.2618E+03    15.3409   3.6470    78.4905
  6      0.0000     0.0000E+00    0.0000E+00    1.000000E+07  0.00010  6.375E-03    0   0.8902   age070_m22            0.0000     2.1503E+03    14.9782   3.6594    78.7139
  7      0.0000     0.0000E+00    0.0000E+00    1.445000E+07  0.00010  4.874E-03    0   0.8589   age078_m22            0.0000     1.5826E+03    13.0564   3.4509    81.8325
  8      0.0000     0.0000E+00    0.0000E+00    2.512000E+07  0.00010  4.103E-03    0   0.8174   age090_m22            0.0000     6.5471E+02     8.9172   2.9763    89.1107
  9      0.0000     0.0000E+00    0.0000E+00    4.000000E+07  0.00010  3.654E-03    0   0.7830   age104_m22            0.0000     3.2949E+02     5.9584   2.6119    94.9508
 10      0.0000     0.0000E+00    0.0000E+00    5.500000E+07  0.00010  3.093E-03    0   0.7597   age110_m22            0.0000     2.9385E+02     5.0505   2.4803    97.0073
 11      0.0000     0.0000E+00    0.0000E+00    1.015200E+08  0.00010  2.431E-03    0   0.7138   age116_m22            0.0000     3.9455E+02     4.6934   2.0961   100.6205
 12      0.0000     0.0000E+00    0.0000E+00    1.609000E+08  0.00010  1.319E-03    0   0.6775   age120_m22            0.0000     3.7980E+02     4.2892   1.6037   103.0231
 13      0.0000     0.0000E+00    0.0000E+00    2.861200E+08  0.00010  1.075E-03    0   0.6412   age125_m22            0.0000     1.3887E+03     8.5390   1.5645   108.7533
 14      0.0000     0.0000E+00    0.0000E+00    5.088000E+08  0.00010  7.183E-04    0   0.6083   age130_m22            0.0000     1.8311E+03    10.2408   1.2994   111.0938
 15      0.0000     0.0000E+00    0.0000E+00    9.047900E+08  0.00010  4.524E-04    0   0.5785   age135_m22            0.0000     1.8814E+03    10.4506   1.0939   112.3836
 16      0.0084     2.8228E-03    2.9957E-03    1.278050E+09  0.00010  3.018E-04    0   0.5588   age138_m22            0.0000     7.2862E+02     6.4785   0.6205   109.0434
 17      0.0000     0.0000E+00    0.0000E+00    1.434000E+09  0.00010  2.691E-04    0   0.5532   age139_m22            0.0000     5.5202E+02     5.6466   0.4756   108.1405
 18      0.0000     0.0000E+00    0.0000E+00    2.500000E+09  0.00010  1.582E-04    0   0.5296   age150_m22            0.0000     4.4710E+02     4.8408   0.3887   108.3719
 19      0.0849     8.5051E-02    8.2540E-02    4.250000E+09  0.00010  1.007E-04    0   0.5110   age158_m22            0.0000     1.6462E+02     2.9247   0.2698   105.8961
 20      0.0000     0.0000E+00    0.0000E+00    6.250000E+09  0.00010  6.869E-05    0   0.4985   age166_m22            0.0000     3.3909E+01     1.5525   0.2434   102.4173
 21      0.0000     0.0000E+00    0.0000E+00    7.500000E+09  0.00010  5.873E-05    0   0.4931   age171_m22            0.0000     3.5129E+01     1.7210   0.2430   101.6742
 22      0.0000     0.0000E+00    0.0000E+00    1.000000E+10  0.00010  4.481E-05    0   0.4854   age181_m22            0.0000     3.1502E+01     1.6553   0.2045   101.2895
 23      0.1019     2.9474E-01    2.6819E-01    1.300000E+10  0.00010  3.489E-05    0   0.4791   age193_m22            0.0000     2.4397E+01     1.5102   0.1471   100.6977
 24      0.0000     0.0000E+00    0.0000E+00    1.500000E+10  0.00010  3.035E-05    0   0.4766   age201_m22            0.0000     2.2260E+01     1.4723   0.1087   100.4571
 25      0.0000     0.0000E+00    0.0000E+00    1.800000E+10  0.00010  2.510E-05    0   0.4735   age213_m22            0.0000     2.2667E+01     1.5268   0.0435    99.7155
 26      0.0000     0.0000E+00    0.0000E+00    1.000000E+06  0.00040  8.458E-03    0   1.0000   age020_m32            0.0000     2.4062E+03    15.6837   3.7154    75.9038
 27      0.0000     0.0000E+00    0.0000E+00    3.160000E+06  0.00040  3.973E-02    0   1.0000   age045_m32            0.0000     7.5896E+02     9.3852   2.8840    88.9028
 28      0.0000     0.0000E+00    0.0000E+00    5.010000E+06  0.00040  1.935E-02    0   0.9532   age055_m32            0.0000     1.7885E+03    13.9858   3.1811    82.0399
 29      0.0000     0.0000E+00    0.0000E+00    6.610000E+06  0.00040  1.204E-02    0   0.9243   age061_m32            0.0000     1.9876E+03    14.4851   3.5048    80.1000
 30      0.0000     0.0000E+00    0.0000E+00    8.710000E+06  0.00040  9.433E-03    0   0.9001   age067_m32            0.0000     1.7706E+03    13.7480   3.4678    81.1156
 31      0.0000     0.0000E+00    0.0000E+00    1.000000E+07  0.00040  8.053E-03    0   0.8877   age070_m32            0.0000     1.6884E+03    13.4583   3.4272    81.6191
 32      0.0000     0.0000E+00    0.0000E+00    1.445000E+07  0.00040  7.027E-03    0   0.8578   age078_m32            0.0000     9.8097E+02    10.7381   2.8603    87.2657
 33      0.0000     0.0000E+00    0.0000E+00    2.512000E+07  0.00040  4.707E-03    0   0.8166   age090_m32            0.0000     5.4616E+02     8.2952   2.5182    91.8105
 34      0.0000     0.0000E+00    0.0000E+00    4.000000E+07  0.00040  3.714E-03    0   0.7827   age104_m32            0.0000     3.1719E+02     5.9872   2.2674    96.0173
 35      0.0000     0.0000E+00    0.0000E+00    5.500000E+07  0.00040  2.982E-03    0   0.7593   age110_m32            0.0000     2.9133E+02     5.2813   2.1833    97.6370
 36      0.4326     1.9955E-02    2.7070E-02    1.015200E+08  0.00040  2.188E-03    0   0.7143   age116_m32            0.0000     5.9979E+02     5.2683   1.8276   103.7210
 37      0.6092     3.6377E-02    4.7366E-02    1.609000E+08  0.00040  1.690E-03    0   0.6856   age120_m32            0.0000     1.0474E+03     7.0588   1.5744   107.3609
 38      0.0000     0.0000E+00    0.0000E+00    2.861200E+08  0.00040  1.152E-03    0   0.6509   age125_m32            0.0000     1.5062E+03     9.0499   1.3059   110.0940
 39      0.0000     0.0000E+00    0.0000E+00    5.088000E+08  0.00040  7.331E-04    0   0.6182   age130_m32            0.0000     1.6945E+03     9.8820   1.1210   111.1530
 40      0.0000     0.0000E+00    0.0000E+00    9.047900E+08  0.00040  3.960E-04    0   0.5890   age135_m32            0.0000     7.7479E+02     6.8819   0.6961   108.5816
 41      0.0000     0.0000E+00    0.0000E+00    1.278050E+09  0.00040  2.854E-04    0   0.5687   age138_m32            0.0000     5.4967E+02     5.4464   0.4403   109.6579
 42      0.0000     0.0000E+00    0.0000E+00    1.434000E+09  0.00040  2.531E-04    0   0.5632   age139_m32            0.0000     5.2967E+02     5.3402   0.3821   109.5663
 43     13.5266     9.1740E+00    9.3840E+00    2.500000E+09  0.00040  1.488E-04    0   0.5386   age150_m32            0.0000     2.9086E+02     3.9952   0.1391   107.4421
 44     46.6569     5.1845E+01    5.1191E+01    4.250000E+09  0.00040  9.082E-05    0   0.5199   age158_m32            0.0000     1.9731E+01     1.1543   0.0881   102.8626
 45      0.0000     0.0000E+00    0.0000E+00    6.250000E+09  0.00040  6.362E-05    0   0.5076   age166_m32            0.0000     6.8782E+01     2.4186   0.0943    98.3659
 46      4.0691     7.7642E+00    7.4126E+00    7.500000E+09  0.00040  5.289E-05    0   0.5027   age171_m32            0.0000     1.0068E+02     2.7674   0.0618    96.9822
 47      1.8880     4.7970E+00    4.5078E+00    1.000000E+10  0.00040  3.972E-05    0   0.4948   age181_m32            0.0000     1.2432E+02     2.8637  -0.0033    95.6306
 48      0.0000     0.0000E+00    0.0000E+00    1.300000E+10  0.00040  3.283E-05    0   0.4870   age193_m32            0.0000     2.9662E+01     1.4889  -0.0723    98.8131
 49      0.3810     1.3144E+00    1.2117E+00    1.500000E+10  0.00040  2.925E-05    0   0.4854   age201_m32            0.0000     9.3203E+00     0.9776  -0.1048   100.6834
 50      0.1096     4.4805E-01    4.1006E-01    1.800000E+10  0.00040  2.469E-05    0   0.4819   age213_m32            0.0000     9.2288E+00     0.9754  -0.1530   101.3201
 51      0.0000     0.0000E+00    0.0000E+00    1.000000E+06  0.00400  1.114E-02    0   1.0000   age020_m42            0.0000     2.3133E+03    15.3131   3.6401    76.3607
 52      0.0000     0.0000E+00    0.0000E+00    3.160000E+06  0.00400  4.073E-02    0   0.9999   age045_m42            0.0000     4.8287E+02     7.4505   2.5520    92.0027
 53      0.0000     0.0000E+00    0.0000E+00    5.010000E+06  0.00400  2.534E-02    0   0.9488   age055_m42            0.0000     1.1943E+03    11.4092   3.0207    84.7500
 54      0.0000     0.0000E+00    0.0000E+00    6.610000E+06  0.00400  2.583E-02    0   0.9220   age061_m42            0.0000     3.7096E+02     6.6200   2.3428    93.1614
 55      0.0000     0.0000E+00    0.0000E+00    8.710000E+06  0.00400  1.706E-02    0   0.8983   age067_m42            0.0000     6.7729E+02     9.0225   2.2085    90.3249
 56      0.0000     0.0000E+00    0.0000E+00    1.000000E+07  0.00400  1.271E-02    0   0.8862   age070_m42            0.0000     9.9412E+02    10.8943   2.2203    88.2836
 57      0.0000     0.0000E+00    0.0000E+00    1.445000E+07  0.00400  7.666E-03    0   0.8571   age078_m42            0.0000     1.3520E+03    12.3003   2.6438    84.8509
 58      0.0000     0.0000E+00    0.0000E+00    2.512000E+07  0.00400  5.070E-03    0   0.8174   age090_m42            0.0000     8.4121E+02     9.9884   2.0724    90.0493
 59      0.0000     0.0000E+00    0.0000E+00    4.000000E+07  0.00400  3.505E-03    0   0.7851   age104_m42            0.0000     4.9422E+02     7.4692   1.7142    93.5089
 60      0.0000     0.0000E+00    0.0000E+00    5.500000E+07  0.00400  3.059E-03    0   0.7629   age110_m42            0.0000     2.0762E+02     4.0015   1.6828    99.9626
 61      0.0000     0.0000E+00    0.0000E+00    1.015200E+08  0.00400  2.268E-03    0   0.7207   age116_m42            0.0000     8.6800E+02     6.4729   1.4798   107.7363
 62      0.0000     0.0000E+00    0.0000E+00    1.609000E+08  0.00400  1.720E-03    0   0.6930   age120_m42            0.0000     9.9569E+02     7.2511   1.3178   109.8277
 63      0.0000     0.0000E+00    0.0000E+00    2.861200E+08  0.00400  1.079E-03    0   0.6613   age125_m42            0.0000     1.0423E+03     7.8867   0.9623   110.1074
 64      0.0000     0.0000E+00    0.0000E+00    5.088000E+08  0.00400  6.261E-04    0   0.6313   age130_m42            0.0000     1.2980E+03     8.6623   0.7610   113.1483
 65      0.0000     0.0000E+00    0.0000E+00    9.047900E+08  0.00400  3.535E-04    0   0.6024   age135_m42            0.0000     6.4287E+02     6.4633   0.3880   112.3140
 66      0.0000     0.0000E+00    0.0000E+00    1.278050E+09  0.00400  2.677E-04    0   0.5837   age138_m42            0.0000     2.7050E+02     5.4772  -0.2964   108.2202
 67      0.0000     0.0000E+00    0.0000E+00    1.434000E+09  0.00400  1.910E-04    0   0.5716   age139_m42            0.0000     2.7668E+02     5.3379  -0.1368   109.6949
 68     11.6040     1.1928E+01    1.2375E+01    2.500000E+09  0.00400  9.818E-05    0   0.5463   age150_m42            0.0000     2.1673E+02     4.6908  -0.3641   103.3834
 69      0.0000     0.0000E+00    0.0000E+00    4.250000E+09  0.00400  5.491E-05    0   0.5269   age158_m42            0.0000     3.4448E+02     5.1037  -0.4594    99.7970
 70      0.0415     1.0852E-01    1.0616E-01    6.250000E+09  0.00400  3.857E-05    0   0.5151   age166_m42            0.0000     5.0328E+02     5.9895  -0.5876    98.1769
 71      0.0366     1.1400E-01    1.1064E-01    7.500000E+09  0.00400  3.243E-05    0   0.5110   age171_m42            0.0000     6.0746E+02     6.5528  -0.6699    97.5119
 72      0.0000     0.0000E+00    0.0000E+00    1.000000E+10  0.00400  2.424E-05    0   0.5028   age181_m42            0.0000     7.6478E+02     7.3058  -0.7520    96.7276
 73      0.0000     0.0000E+00    0.0000E+00    1.300000E+10  0.00400  1.883E-05    0   0.4927   age193_m42            0.0000     9.0095E+02     7.8643  -0.7891    96.2400
 74      0.0000     0.0000E+00    0.0000E+00    1.500000E+10  0.00400  1.685E-05    0   0.4919   age201_m42            0.0000     8.6552E+02     7.6831  -0.7833    96.2709
 75      0.0000     0.0000E+00    0.0000E+00    1.800000E+10  0.00400  1.452E-05    0   0.4874   age213_m42            0.0000     8.0066E+02     7.3637  -0.7659    96.5516
 76      0.0000     0.0000E+00    0.0000E+00    1.000000E+06  0.00800  1.286E-02    0   1.0000   age020_m52            0.0000     2.0395E+03    14.3686   3.6090    78.2709
 77      0.0000     0.0000E+00    0.0000E+00    3.160000E+06  0.00800  3.147E-02    0   0.9966   age045_m52            0.0000     1.9475E+03    14.1083   3.5144    79.7996
 78      0.0000     0.0000E+00    0.0000E+00    5.010000E+06  0.00800  2.664E-02    0   0.9443   age055_m52            0.0000     1.4051E+03    12.0876   3.1515    83.5538
 79      0.0000     0.0000E+00    0.0000E+00    6.610000E+06  0.00800  2.151E-02    0   0.9177   age061_m52            0.0000     8.8123E+02     9.3786   1.7997    89.8766
 80      0.0000     0.0000E+00    0.0000E+00    8.710000E+06  0.00800  1.628E-02    0   0.8948   age067_m52            0.0000     7.9728E+02     9.5021   2.1655    90.5372
 81      0.0000     0.0000E+00    0.0000E+00    1.000000E+07  0.00800  1.215E-02    0   0.8827   age070_m52            0.0000     1.0009E+03    10.6539   2.5204    88.5532
 82      0.0000     0.0000E+00    0.0000E+00    1.445000E+07  0.00800  8.739E-03    0   0.8552   age078_m52            0.0000     7.8665E+02     9.5307   2.5424    90.2660
 83      0.0000     0.0000E+00    0.0000E+00    2.512000E+07  0.00800  5.676E-03    0   0.8162   age090_m52            0.0000     4.6174E+02     7.3458   2.0902    95.8588
 84      0.0000     0.0000E+00    0.0000E+00    4.000000E+07  0.00800  3.939E-03    0   0.7841   age104_m52            0.0000     3.3531E+02     5.6187   1.8906    99.1746
 85      0.0000     0.0000E+00    0.0000E+00    5.500000E+07  0.00800  3.155E-03    0   0.7627   age110_m52            0.0000     3.4102E+02     4.6540   1.8248   101.6457
 86      0.0000     0.0000E+00    0.0000E+00    1.015200E+08  0.00800  2.206E-03    0   0.7226   age116_m52            0.0000     5.8619E+02     5.0956   1.5676   106.8771
 87      0.0000     0.0000E+00    0.0000E+00    1.609000E+08  0.00800  1.596E-03    0   0.6963   age120_m52            0.0000     7.6979E+02     6.1975   1.3251   109.0222
 88      0.0000     0.0000E+00    0.0000E+00    2.861200E+08  0.00800  1.002E-03    0   0.6665   age125_m52            0.0000     1.3988E+03     9.4083   0.9609   112.9797
 89      0.0000     0.0000E+00    0.0000E+00    5.088000E+08  0.00800  5.759E-04    0   0.6377   age130_m52            0.0000     1.5469E+03    10.4877   0.5731   117.4018
 90      0.0000     0.0000E+00    0.0000E+00    9.047900E+08  0.00800  2.972E-04    0   0.6086   age135_m52            0.0000     7.3521E+02     8.1735   0.0510   115.1525
 91      0.0000     0.0000E+00    0.0000E+00    1.278050E+09  0.00800  2.242E-04    0   0.5907   age138_m52            0.0000     4.1410E+02     6.6575  -0.5138   111.6520
 92      0.0000     0.0000E+00    0.0000E+00    1.434000E+09  0.00800  1.645E-04    0   0.5787   age139_m52            0.0000     3.2191E+02     5.8726  -0.3482   110.8869
 93      0.0000     0.0000E+00    0.0000E+00    2.500000E+09  0.00800  7.723E-05    0   0.5519   age150_m52            0.0000     4.7124E+02     6.5368  -0.6560   105.8643
 94      0.8140     1.9790E+00    1.9995E+00    4.250000E+09  0.00800  4.151E-05    0   0.5320   age158_m52            0.0000     5.6366E+02     6.7281  -0.7044   102.7164
 95      0.0000     0.0000E+00    0.0000E+00    6.250000E+09  0.00800  3.010E-05    0   0.5197   age166_m52            0.0000     8.2728E+02     7.9487  -0.9041   101.0557
 96      0.0000     0.0000E+00    0.0000E+00    7.500000E+09  0.00800  2.467E-05    0   0.5139   age171_m52            0.0000     8.9953E+02     8.2771  -0.9498   100.6496
 97      0.0000     0.0000E+00    0.0000E+00    1.000000E+10  0.00800  1.862E-05    0   0.5054   age181_m52            0.0000     1.1451E+03     9.2947  -1.0000    98.9207
