###################################################################
## OUTPUT of StarlightChains_v04.for    [Cid@UFSC - 01/Apr/2007] ##
###################################################################

## Some input info
NGC7078_a_1.cxt                          [arq_obs]
Base.BC03.S                              [arq_base]
NGC7078_a_1.msk                          [arq_masks]
StCv04.C11.config                        [arq_config]
  150                                    [N_base]
    0                                    [N_YAV_components = # of components with extra extinction!]
    0                                    [i_FitPowerLaw (1/0 = Yes/No)]
-9.99                                    [alpha_PowerLaw]
CCM                                      [red_law_option]
 1.458241                                [q_norm = A(l_norm)/A(V)]

## (Re)Sampling Parameters
 3359.00                                 [l_ini (A)]
 6428.00                                 [l_fin (A)]
    1.00                                 [dl    (A)]     (OBS: dl_cushion =    50.00 A)

## Normalization info
 4020.00                                 [l_norm (A) - for base]
 4010.00                                 [llow_norm (A) - window for f_obs]
 4060.00                                 [lupp_norm (A) - window for f_obs]
6.411706E-14                             [fobs_norm (in input units)]

## S/N
 4730.00                                 [llow_SN (A) - window for S/N]
 4780.00                                 [lupp_SN (A) - window for S/N]
 192.615                                 [S/N in S/N window]
 195.031                                 [S/N in norm. window]
 239.554                                 [S/N_err in S/N window]
 242.560                                 [S/N_err in norm. window]
  1.0000                                 [fscale_chi2]

## etc...
  2147483588                             [idum_orig]
  3068                                   [NOl_eff]
  1234                                   [Nl_eff]
  1834    NSIGMA                         [Ntot_cliped & clip_method]
  1667610                                [Nglobal_steps]
   7                                     [N_chains]
  15                                     [NEX0s_base = N_base in EX0s-fits]
 0   0   1      255   2.0   5.108E+02    [Clip-Bug, RC-Crash & Burn-In warning-flags, n_censored_weights, wei_nsig_threshold & wei_limit]
   123    122.922    122.906      0.016  [idt_all, wdt_TotTime, wdt_UsrTime & wdt_SysTime (sec)]

## Synthesis Results - Best model ##

 2.44296E+00                             [chi2/Nl_eff]
     0.60323                             [adev (%)]

   103.82279                             [sum-of-x (%)]
 1.49874E-13                             [Flux_tot (units of input spectrum!)]
 1.01798E-09                             [Mini_tot (???)]
 5.15682E-10                             [Mcor_tot (???)]

 -52.44                                  [v0_min  (km/s)]
  88.49                                  [vd_min  (km/s)]
 0.6043                                  [AV_min  (mag)]
 0.0000                                  [YAV_min (mag)]

# j     x_j(%)      Mini_j(%)     Mcor_j(%)     age_j(yr)     Z_j      (L/M)_j    YAV?  Mstars   component_j        a/Fe...       SSP_chi2r SSP_adev(%)   SSP_AV   SSP_x(%)
  1      0.0000     0.0000E+00    0.0000E+00    1.000000E+06  0.00010  8.160E-03    0   1.0000   age020_m22            0.0000     1.2813E+03    11.2993   3.3939    76.9622
  2     31.4444     9.3696E-02    1.8496E-01    3.160000E+06  0.00010  4.759E-02    0   1.0000   age045_m22            0.0000     1.2396E+02     3.2921   1.3246    98.3566
  3      0.0000     0.0000E+00    0.0000E+00    5.010000E+06  0.00010  1.932E-02    0   0.9582   age055_m22            0.0000     1.1598E+03    11.4960   1.6772    83.0390
  4      0.0000     0.0000E+00    0.0000E+00    6.610000E+06  0.00010  9.973E-03    0   0.9297   age061_m22            0.0000     1.2577E+03    11.6340   3.3518    79.6361
  5      0.0000     0.0000E+00    0.0000E+00    8.710000E+06  0.00010  7.690E-03    0   0.9030   age067_m22            0.0000     1.1896E+03    11.2663   3.3422    80.1402
  6      0.0000     0.0000E+00    0.0000E+00    1.000000E+07  0.00010  6.375E-03    0   0.8902   age070_m22            0.0000     1.1343E+03    10.9680   3.3577    80.3257
  7      0.0000     0.0000E+00    0.0000E+00    1.445000E+07  0.00010  4.874E-03    0   0.8589   age078_m22            0.0000     8.2342E+02     9.2242   3.1705    83.4962
  8      0.0000     0.0000E+00    0.0000E+00    2.512000E+07  0.00010  4.103E-03    0   0.8174   age090_m22            0.0000     2.8224E+02     5.3558   2.7384    90.9280
  9      0.0000     0.0000E+00    0.0000E+00    4.000000E+07  0.00010  3.654E-03    0   0.7830   age104_m22            0.0000     6.1380E+01     2.3878   2.4154    96.7484
 10      0.0000     0.0000E+00    0.0000E+00    5.500000E+07  0.00010  3.093E-03    0   0.7597   age110_m22            0.0000     3.7152E+01     1.6825   2.3053    98.6629
 11      5.3882     3.1431E-01    4.4288E-01    1.015200E+08  0.00010  2.431E-03    0   0.7138   age116_m22            0.0000     6.8724E+01     1.9511   1.9454   102.1296
 12      0.0000     0.0000E+00    0.0000E+00    1.609000E+08  0.00010  1.319E-03    0   0.6775   age120_m22            0.0000     7.7456E+01     2.0683   1.4722   104.2010
 13      0.0000     0.0000E+00    0.0000E+00    2.861200E+08  0.00010  1.075E-03    0   0.6412   age125_m22            0.0000     5.4052E+02     6.5275   1.5100   109.1696
 14      0.0000     0.0000E+00    0.0000E+00    5.088000E+08  0.00010  7.183E-04    0   0.6083   age130_m22            0.0000     7.5630E+02     7.8932   1.2720   111.2478
 15      0.0000     0.0000E+00    0.0000E+00    9.047900E+08  0.00010  4.524E-04    0   0.5785   age135_m22            0.0000     7.8492E+02     8.1523   1.0756   112.4934
 16      0.0000     0.0000E+00    0.0000E+00    1.278050E+09  0.00010  3.018E-04    0   0.5588   age138_m22            0.0000     2.8139E+02     5.1933   0.5586   109.5826
 17      0.0000     0.0000E+00    0.0000E+00    1.434000E+09  0.00010  2.691E-04    0   0.5532   age139_m22            0.0000     2.1118E+02     4.6270   0.4066   108.7516
 18      0.0000     0.0000E+00    0.0000E+00    2.500000E+09  0.00010  1.582E-04    0   0.5296   age150_m22            0.0000     1.4801E+02     3.7374   0.2976   109.3154
 19      0.0000     0.0000E+00    0.0000E+00    4.250000E+09  0.00010  1.007E-04    0   0.5110   age158_m22            0.0000     4.9772E+01     2.3121   0.1574   106.9574
 20      0.3439     7.1002E-01    6.9870E-01    6.250000E+09  0.00010  6.869E-05    0   0.4985   age166_m22            0.0000     2.6004E+01     1.4391   0.1127   103.4914
 21      3.2839     7.9292E+00    7.7183E+00    7.500000E+09  0.00010  5.873E-05    0   0.4931   age171_m22            0.0000     2.6285E+01     1.2899   0.1031   102.8108
 22      5.1603     1.6330E+01    1.5648E+01    1.000000E+10  0.00010  4.481E-05    0   0.4854   age181_m22            0.0000     2.8031E+01     1.3279   0.0652   102.4067
 23      8.4339     3.4279E+01    3.2419E+01    1.300000E+10  0.00010  3.489E-05    0   0.4791   age193_m22            0.0000     3.3958E+01     1.4299   0.0094   101.7684
 24      0.0000     0.0000E+00    0.0000E+00    1.500000E+10  0.00010  3.035E-05    0   0.4766   age201_m22            0.0000     3.7488E+01     1.4743  -0.0297   101.5279
 25      0.0000     0.0000E+00    0.0000E+00    1.800000E+10  0.00010  2.510E-05    0   0.4735   age213_m22            0.0000     4.8483E+01     1.5882  -0.0969   100.7801
 26      0.0000     0.0000E+00    0.0000E+00    1.000000E+06  0.00040  8.458E-03    0   1.0000   age020_m32            0.0000     1.2642E+03    11.3272   3.4094    77.5762
 27      0.0000     0.0000E+00    0.0000E+00    3.160000E+06  0.00040  3.973E-02    0   1.0000   age045_m32            0.0000     3.3246E+02     5.8391   2.6297    90.9440
 28      0.0000     0.0000E+00    0.0000E+00    5.010000E+06  0.00040  1.935E-02    0   0.9532   age055_m32            0.0000     9.1184E+02    10.1126   2.8818    83.9434
 29      0.0000     0.0000E+00    0.0000E+00    6.610000E+06  0.00040  1.204E-02    0   0.9243   age061_m32            0.0000     1.0316E+03    10.5006   3.2059    81.8527
 30      0.0000     0.0000E+00    0.0000E+00    8.710000E+06  0.00040  9.433E-03    0   0.9001   age067_m32            0.0000     9.1370E+02     9.8259   3.1752    82.8973
 31      0.0000     0.0000E+00    0.0000E+00    1.000000E+07  0.00040  8.053E-03    0   0.8877   age070_m32            0.0000     8.6884E+02     9.5655   3.1391    83.3912
 32      0.0000     0.0000E+00    0.0000E+00    1.445000E+07  0.00040  7.027E-03    0   0.8578   age078_m32            0.0000     4.5695E+02     7.1020   2.5963    89.2605
 33      0.0000     0.0000E+00    0.0000E+00    2.512000E+07  0.00040  4.707E-03    0   0.8166   age090_m32            0.0000     2.1231E+02     4.8628   2.2884    93.7002
 34      0.0000     0.0000E+00    0.0000E+00    4.000000E+07  0.00040  3.714E-03    0   0.7827   age104_m32            0.0000     6.1117E+01     2.5540   2.0687    97.8447
 35      0.0000     0.0000E+00    0.0000E+00    5.500000E+07  0.00040  2.982E-03    0   0.7593   age110_m32            0.0000     3.6012E+01     1.7685   2.0007    99.3746
 36      3.8038     2.4653E-01    3.4762E-01    1.015200E+08  0.00040  2.188E-03    0   0.7143   age116_m32            0.0000     1.6859E+02     3.4090   1.7082   104.9569
 37      7.5086     6.3003E-01    8.5269E-01    1.609000E+08  0.00040  1.690E-03    0   0.6856   age120_m32            0.0000     3.7278E+02     5.1303   1.4877   108.2402
 38      0.6741     8.2975E-02    1.0662E-01    2.861200E+08  0.00040  1.152E-03    0   0.6509   age125_m32            0.0000     5.9598E+02     6.9140   1.2579   110.4813
 39      0.0000     0.0000E+00    0.0000E+00    5.088000E+08  0.00040  7.331E-04    0   0.6182   age130_m32            0.0000     7.0072E+02     7.7070   1.0925   111.3350
 40      0.0502     1.7975E-02    2.0900E-02    9.047900E+08  0.00040  3.960E-04    0   0.5890   age135_m32            0.0000     3.2142E+02     5.8589   0.6518   108.9477
 41      0.0000     0.0000E+00    0.0000E+00    1.278050E+09  0.00040  2.854E-04    0   0.5687   age138_m32            0.0000     1.9996E+02     4.4227   0.3613   110.5054
 42      0.0000     0.0000E+00    0.0000E+00    1.434000E+09  0.00040  2.531E-04    0   0.5632   age139_m32            0.0000     1.8939E+02     4.2579   0.2998   110.4407
 43     34.4217     3.2804E+01    3.4878E+01    2.500000E+09  0.00040  1.488E-04    0   0.5386   age150_m32            0.0000     1.0890E+02     3.4562   0.0468   108.2852
 44      3.2541     5.0809E+00    5.2146E+00    4.250000E+09  0.00040  9.082E-05    0   0.5199   age158_m32            0.0000     3.7392E+01     1.8996  -0.0341   103.8292
 45      0.0000     0.0000E+00    0.0000E+00    6.250000E+09  0.00040  6.362E-05    0   0.5076   age166_m32            0.0000     1.0475E+02     2.0391  -0.0587    99.4859
 46      0.0000     0.0000E+00    0.0000E+00    7.500000E+09  0.00040  5.289E-05    0   0.5027   age171_m32            0.0000     1.3538E+02     2.2772  -0.0916    98.0614
 47      0.0000     0.0000E+00    0.0000E+00    1.000000E+10  0.00040  3.972E-05    0   0.4948   age181_m32            0.0000     1.6294E+02     2.4866  -0.1511    96.6150
 48      0.0000     0.0000E+00    0.0000E+00    1.300000E+10  0.00040  3.283E-05    0   0.4870   age193_m32            0.0000     9.1083E+01     2.1529  -0.2055    99.8008
 49      0.0000     0.0000E+00    0.0000E+00    1.500000E+10  0.00040  2.925E-05    0   0.4854   age201_m32            0.0000     6.5203E+01     2.1119  -0.2300   101.6741
 50      0.0000     0.0000E+00    0.0000E+00    1.800000E+10  0.00040  2.469E-05    0   0.4819   age213_m32            0.0000     6.1278E+01     2.2044  -0.2737   102.2892
 51      0.0000     0.0000E+00    0.0000E+00    1.000000E+06  0.00400  1.114E-02    0   1.0000   age020_m42            0.0000     1.2205E+03    11.0116   3.3400    78.0262
 52      0.0000     0.0000E+00    0.0000E+00    3.160000E+06  0.00400  4.073E-02    0   0.9999   age045_m42            0.0000     1.9889E+02     4.2799   2.3140    94.0341
 53      0.0000     0.0000E+00    0.0000E+00    5.010000E+06  0.00400  2.534E-02    0   0.9488   age055_m42            0.0000     5.9726E+02     7.7143   2.7502    86.6639
 54      0.0000     0.0000E+00    0.0000E+00    6.610000E+06  0.00400  2.583E-02    0   0.9220   age061_m42            0.0000     1.1859E+02     3.2513   2.1235    95.1866
 55      0.0000     0.0000E+00    0.0000E+00    8.710000E+06  0.00400  1.706E-02    0   0.8983   age067_m42            0.0000     3.0345E+02     5.7562   1.9600    92.4453
 56      0.0000     0.0000E+00    0.0000E+00    1.000000E+07  0.00400  1.271E-02    0   0.8862   age070_m42            0.0000     4.8808E+02     7.5508   1.9513    90.4407
 57      0.0000     0.0000E+00    0.0000E+00    1.445000E+07  0.00400  7.666E-03    0   0.8571   age078_m42            0.0000     7.0948E+02     8.7239   2.3739    86.7260
 58      0.0000     0.0000E+00    0.0000E+00    2.512000E+07  0.00400  5.070E-03    0   0.8174   age090_m42            0.0000     4.2007E+02     6.9090   1.8166    92.0975
 59      0.0000     0.0000E+00    0.0000E+00    4.000000E+07  0.00400  3.505E-03    0   0.7851   age104_m42            0.0000     2.3016E+02     4.7665   1.4858    95.5103
 60      0.0000     0.0000E+00    0.0000E+00    5.500000E+07  0.00400  3.059E-03    0   0.7629   age110_m42            0.0000     2.5477E+01     1.4710   1.5168   101.6223
 61      0.0000     0.0000E+00    0.0000E+00    1.015200E+08  0.00400  2.268E-03    0   0.7207   age116_m42            0.0000     3.1135E+02     5.0970   1.3991   108.6071
 62      0.0000     0.0000E+00    0.0000E+00    1.609000E+08  0.00400  1.720E-03    0   0.6930   age120_m42            0.0000     3.8608E+02     5.9065   1.2551   110.5098
 63      0.0000     0.0000E+00    0.0000E+00    2.861200E+08  0.00400  1.079E-03    0   0.6613   age125_m42            0.0000     4.0964E+02     6.1028   0.9070   110.6377
 64      0.0000     1.0237E-05    1.2758E-05    5.088000E+08  0.00400  6.261E-04    0   0.6313   age130_m42            0.0000     5.1969E+02     6.6866   0.7088   113.8919
 65      0.0000     0.0000E+00    0.0000E+00    9.047900E+08  0.00400  3.535E-04    0   0.6024   age135_m42            0.0000     2.7297E+02     5.2995   0.3173   113.3497
 66      0.0000     0.0000E+00    0.0000E+00    1.278050E+09  0.00400  2.677E-04    0   0.5837   age138_m42            0.0000     2.8497E+02     5.7235  -0.3487   108.8686
 67      0.0000     0.0000E+00    0.0000E+00    1.434000E+09  0.00400  1.910E-04    0   0.5716   age139_m42            0.0000     2.3692E+02     5.4983  -0.1889   110.4042
 68      0.0000     0.0000E+00    0.0000E+00    2.500000E+09  0.00400  9.818E-05    0   0.5463   age150_m42            0.0000     3.2131E+02     5.3601  -0.4310   104.0203
 69      0.0000     0.0000E+00    0.0000E+00    4.250000E+09  0.00400  5.491E-05    0   0.5269   age158_m42            0.0000     4.2613E+02     5.4240  -0.5398   100.4312
 70      0.0000     0.0000E+00    0.0000E+00    6.250000E+09  0.00400  3.857E-05    0   0.5151   age166_m42            0.0000     5.4790E+02     6.0837  -0.6587    98.6956
 71      0.0000     0.0000E+00    0.0000E+00    7.500000E+09  0.00400  3.243E-05    0   0.5110   age171_m42            0.0000     6.2710E+02     6.5020  -0.7326    97.9154
 72      0.0000     0.0000E+00    0.0000E+00    1.000000E+10  0.00400  2.424E-05    0   0.5028   age181_m42            0.0000     7.4094E+02     7.0146  -0.8053    96.9727
 73      0.0000     0.0000E+00    0.0000E+00    1.300000E+10  0.00400  1.883E-05    0   0.4927   age193_m42            0.0000     8.3167E+02     7.3249  -0.8395    96.3824
 74      0.0000     0.0000E+00    0.0000E+00    1.500000E+10  0.00400  1.685E-05    0   0.4919   age201_m42            0.0000     8.0345E+02     7.1861  -0.8362    96.4399
 75      0.0000     0.0000E+00    0.0000E+00    1.800000E+10  0.00400  1.452E-05    0   0.4874   age213_m42            0.0000     7.5373E+02     6.9502  -0.8244    96.7925
 76      0.0000     0.0000E+00    0.0000E+00    1.000000E+06  0.00800  1.286E-02    0   1.0000   age020_m52            0.0000     1.0664E+03    10.2637   3.3134    79.9180
 77      0.0000     0.0000E+00    0.0000E+00    3.160000E+06  0.00800  3.147E-02    0   0.9966   age045_m52            0.0000     1.0126E+03    10.1136   3.2213    81.5192
 78      0.0000     0.0000E+00    0.0000E+00    5.010000E+06  0.00800  2.664E-02    0   0.9443   age055_m52            0.0000     7.0794E+02     8.2573   2.8795    85.4020
 79      0.0000     0.0000E+00    0.0000E+00    6.610000E+06  0.00800  2.151E-02    0   0.9177   age061_m52            0.0000     4.7306E+02     6.6263   1.5448    91.9617
 80      0.0000     0.0000E+00    0.0000E+00    8.710000E+06  0.00800  1.628E-02    0   0.8948   age067_m52            0.0000     3.6843E+02     6.3332   1.9157    92.6139
 81      0.0000     0.0000E+00    0.0000E+00    1.000000E+07  0.00800  1.215E-02    0   0.8827   age070_m52            0.0000     4.6384E+02     7.1667   2.2660    90.5387
 82      0.0000     0.0000E+00    0.0000E+00    1.445000E+07  0.00800  8.739E-03    0   0.8552   age078_m52            0.0000     3.3025E+02     5.9770   2.2980    92.3172
 83      0.0000     0.0000E+00    0.0000E+00    2.512000E+07  0.00800  5.676E-03    0   0.8162   age090_m52            0.0000     1.2519E+02     3.8879   1.8700    97.9941
 84      0.0000     0.0000E+00    0.0000E+00    4.000000E+07  0.00800  3.939E-03    0   0.7841   age104_m52            0.0000     5.4770E+01     2.2888   1.7000   101.0602
 85      0.0000     0.0000E+00    0.0000E+00    5.500000E+07  0.00800  3.155E-03    0   0.7627   age110_m52            0.0000     5.4165E+01     1.6352   1.6639   103.2934
 86      0.0000     0.0000E+00    0.0000E+00    1.015200E+08  0.00800  2.206E-03    0   0.7226   age116_m52            0.0000     1.8466E+02     3.8773   1.4648   108.0289
 87      0.0000     0.0000E+00    0.0000E+00    1.609000E+08  0.00800  1.596E-03    0   0.6963   age120_m52            0.0000     2.7769E+02     4.9796   1.2478   109.8975
 88      0.0000     0.0000E+00    0.0000E+00    2.861200E+08  0.00800  1.002E-03    0   0.6665   age125_m52            0.0000     5.9023E+02     7.5534   0.9406   113.2584
 89      0.0000     0.0000E+00    0.0000E+00    5.088000E+08  0.00800  5.759E-04    0   0.6377   age130_m52            0.0000     7.0763E+02     8.6877   0.5809   117.6032
 90      0.0000     0.0000E+00    0.0000E+00    9.047900E+08  0.00800  2.972E-04    0   0.6086   age135_m52            0.0000     4.7754E+02     7.8907   0.0629   115.1779
 91      0.0000     0.0000E+00    0.0000E+00    1.278050E+09  0.00800  2.242E-04    0   0.5907   age138_m52            0.0000     4.5055E+02     6.9329  -0.5200   111.5500
 92      0.0000     0.0000E+00    0.0000E+00    1.434000E+09  0.00800  1.645E-04    0   0.5787   age139_m52            0.0000     3.7145E+02     6.3107  -0.3703   110.9451
 93      0.0000     0.0000E+00    0.0000E+00    2.500000E+09  0.00800  7.723E-05    0   0.5519   age150_m52            0.0000     5.5179E+02     6.7604  -0.6826   105.7785
 94      0.0000     0.0000E+00    0.0000E+00    4.250000E+09  0.00800  4.151E-05    0   0.5320   age158_m52            0.0000     6.0910E+02     6.7730  -0.7434   102.8396
 95      0.0000     0.0000E+00    0.0000E+00    6.250000E+09  0.00800  3.010E-05    0   0.5197   age166_m52            0.0000     8.1828E+02     7.6465  -0.9242   100.8506
 96      0.0000     0.0000E+00    0.0000E+00    7.500000E+09  0.00800  2.467E-05    0   0.5139   age171_m52            0.0000     8.7762E+02     7.9100  -0.9632   100.3372
 97      0.0000     0.0000E+00    0.0000E+00    1.000000E+10  0.00800  1.862E-05    0   0.5054   age181_m52            0.0000     1.0746E+03     8.0867  -1.0000    97.7039
