###################################################################
## OUTPUT of StarlightChains_v04.for    [Cid@UFSC - 01/Apr/2007] ##
###################################################################

## Some input info
NGC1904_b_1.cxt                          [arq_obs]
Base.BC03.N                              [arq_base]
NGC1904_b_1.msk                          [arq_masks]
StCv04.C11.config                        [arq_config]
   45                                    [N_base]
    0                                    [N_YAV_components = # of components with extra extinction!]
    0                                    [i_FitPowerLaw (1/0 = Yes/No)]
-9.99                                    [alpha_PowerLaw]
CCM                                      [red_law_option]
 1.458241                                [q_norm = A(l_norm)/A(V)]

## (Re)Sampling Parameters
 3359.00                                 [l_ini (A)]
 6428.00                                 [l_fin (A)]
    1.00                                 [dl    (A)]     (OBS: dl_cushion =    50.00 A)

## Normalization info
 4020.00                                 [l_norm (A) - for base]
 4010.00                                 [llow_norm (A) - window for f_obs]
 4060.00                                 [lupp_norm (A) - window for f_obs]
3.423556E-14                             [fobs_norm (in input units)]

## S/N
 4730.00                                 [llow_SN (A) - window for S/N]
 4780.00                                 [lupp_SN (A) - window for S/N]
 126.287                                 [S/N in S/N window]
 125.997                                 [S/N in norm. window]
 129.607                                 [S/N_err in S/N window]
 129.310                                 [S/N_err in norm. window]
  1.0000                                 [fscale_chi2]

## etc...
  2147483645                             [idum_orig]
  3066                                   [NOl_eff]
  1975                                   [Nl_eff]
  1091    NSIGMA                         [Ntot_cliped & clip_method]
   698040                                [Nglobal_steps]
   7                                     [N_chains]
   8                                     [NEX0s_base = N_base in EX0s-fits]
 0   0   1      245   2.0   2.750E+02    [Clip-Bug, RC-Crash & Burn-In warning-flags, n_censored_weights, wei_nsig_threshold & wei_limit]
     9      9.242      9.238      0.004  [idt_all, wdt_TotTime, wdt_UsrTime & wdt_SysTime (sec)]

## Synthesis Results - Best model ##

 2.33092E+00                             [chi2/Nl_eff]
     1.15980                             [adev (%)]

   102.75027                             [sum-of-x (%)]
 5.55676E-14                             [Flux_tot (units of input spectrum!)]
 3.17016E-10                             [Mini_tot (???)]
 1.74499E-10                             [Mcor_tot (???)]

  -9.26                                  [v0_min  (km/s)]
 115.12                                  [vd_min  (km/s)]
 0.3404                                  [AV_min  (mag)]
 0.0000                                  [YAV_min (mag)]

# j     x_j(%)      Mini_j(%)     Mcor_j(%)     age_j(yr)     Z_j      (L/M)_j    YAV?  Mstars   component_j        a/Fe...       SSP_chi2r SSP_adev(%)   SSP_AV   SSP_x(%)
  1      0.0000     0.0000E+00    0.0000E+00    1.000000E+06  0.00400  1.114E-02    0   1.0000   age020_m42            0.0000     3.2577E+02    10.3287   3.3363    76.3882
  2      9.5418     3.9964E-02    7.2597E-02    3.160000E+06  0.00400  4.073E-02    0   0.9999   age045_m42            0.0000     6.0341E+01     4.6890   2.3332    91.8225
  3      0.0000     0.0000E+00    0.0000E+00    5.010000E+06  0.00400  2.534E-02    0   0.9488   age055_m42            0.0000     1.6078E+02     7.5106   2.7621    84.6686
  4      5.6162     7.5380E-02    1.2136E-01    1.000000E+07  0.00400  1.271E-02    0   0.8862   age070_m42            0.0000     1.3564E+02     7.4007   1.9727    88.4389
  5      0.0000     0.0000E+00    0.0000E+00    2.512000E+07  0.00400  5.070E-03    0   0.8174   age090_m42            0.0000     1.1630E+02     6.8484   1.8426    90.0029
  6      0.0000     0.0000E+00    0.0000E+00    4.000000E+07  0.00400  3.505E-03    0   0.7851   age104_m42            0.0000     6.5180E+01     5.0962   1.5188    93.2634
  7     12.7773     9.6107E-01    1.2583E+00    1.015200E+08  0.00400  2.268E-03    0   0.7207   age116_m42            0.0000     1.0152E+02     4.0091   1.4634   105.1868
  8      0.0000     0.0000E+00    0.0000E+00    2.861200E+08  0.00400  1.079E-03    0   0.6613   age125_m42            0.0000     1.1808E+02     4.7477   0.9665   107.4253
  9      0.0000     0.0000E+00    0.0000E+00    6.405400E+08  0.00400  5.077E-04    0   0.6197   age132_m42            0.0000     1.3820E+02     5.1345   0.6038   111.6305
 10     19.7209     9.5169E+00    1.0415E+01    9.047900E+08  0.00400  3.535E-04    0   0.6024   age135_m42            0.0000     7.6375E+01     4.1034   0.3728   110.4007
 11     19.2943     1.7233E+01    1.7895E+01    1.434000E+09  0.00400  1.910E-04    0   0.5716   age139_m42            0.0000     3.5955E+01     3.6575  -0.1468   108.4992
 12     22.5355     3.9156E+01    3.8862E+01    2.500000E+09  0.00400  9.818E-05    0   0.5463   age150_m42            0.0000     3.3094E+01     3.1866  -0.4092   103.1014
 13      9.1255     3.2996E+01    3.1339E+01    5.000000E+09  0.00400  4.718E-05    0   0.5228   age161_m42            0.0000     5.8688E+01     3.6172  -0.5681    99.3232
 14      0.0000     0.0000E+00    0.0000E+00    1.100000E+10  0.00400  2.205E-05    0   0.4980   age185_m42            0.0000     1.1840E+02     5.0206  -0.8293    97.0468
 15      0.0000     0.0000E+00    0.0000E+00    1.300000E+10  0.00400  1.883E-05    0   0.4927   age193_m42            0.0000     1.2813E+02     5.1872  -0.8460    96.8425
 16      0.0000     0.0000E+00    0.0000E+00    1.000000E+06  0.02000  1.989E-02    0   1.0000   age020_m62            0.0000     3.2583E+02    10.3101   3.3016    77.0343
 17      0.0000     0.0000E+00    0.0000E+00    3.160000E+06  0.02000  3.772E-02    0   0.9858   age045_m62            0.0000     2.8766E+02     9.7870   3.1599    79.2947
 18      4.1387     2.1879E-02    3.7132E-02    5.010000E+06  0.02000  3.227E-02    0   0.9342   age055_m62            0.0000     1.0099E+02     5.9689   2.6113    87.9812
 19      0.0000     0.0000E+00    0.0000E+00    1.000000E+07  0.02000  1.011E-02    0   0.8751   age070_m62            0.0000     3.2735E+02    11.3961   2.0230    83.6115
 20      0.0000     0.0000E+00    0.0000E+00    2.512000E+07  0.02000  4.206E-03    0   0.8099   age090_m62            0.0000     2.3778E+02     9.4072   1.9513    84.8689
 21      0.0000     0.0000E+00    0.0000E+00    4.000000E+07  0.02000  3.373E-03    0   0.7799   age104_m62            0.0000     5.0361E+01     4.5530   1.7297    94.9931
 22      0.0000     0.0000E+00    0.0000E+00    1.015200E+08  0.02000  1.878E-03    0   0.7221   age116_m62            0.0000     7.4622E+01     3.4367   1.5027   105.0062
 23      0.0000     0.0000E+00    0.0000E+00    2.861200E+08  0.02000  8.869E-04    0   0.6700   age125_m62            0.0000     2.4196E+02     6.7708   0.9641   113.0207
 24      0.0000     0.0000E+00    0.0000E+00    6.405400E+08  0.02000  3.657E-04    0   0.6322   age132_m62            0.0000     1.6467E+02     6.8117   0.2896   116.0679
 25      0.0000     0.0000E+00    0.0000E+00    9.047900E+08  0.02000  2.312E-04    0   0.6152   age135_m62            0.0000     9.2335E+01     5.6919  -0.0743   114.5137
 26      0.0000     0.0000E+00    0.0000E+00    1.434000E+09  0.02000  1.168E-04    0   0.5865   age139_m62            0.0000     4.8566E+01     4.2373  -0.4741   107.6096
 27      0.0000     0.0000E+00    0.0000E+00    2.500000E+09  0.02000  5.505E-05    0   0.5610   age150_m62            0.0000     9.5700E+01     5.2940  -0.8414   104.3061
 28      0.0000     0.0000E+00    0.0000E+00    5.000000E+09  0.02000  2.596E-05    0   0.5353   age161_m62            0.0000     2.1250E+02     6.9992  -1.0000    99.7598
 29      0.0000     0.0000E+00    0.0000E+00    1.100000E+10  0.02000  1.169E-05    0   0.5103   age185_m62            0.0000     5.0540E+02    11.8147  -1.0000    91.0099
 30      0.0000     0.0000E+00    0.0000E+00    1.300000E+10  0.02000  9.691E-06    0   0.5047   age193_m62            0.0000     5.6163E+02    12.5238  -1.0000    89.8705
 31      0.0000     0.0000E+00    0.0000E+00    1.000000E+06  0.05000  2.651E-02    0   0.9998   age020_m72            0.0000     3.0257E+02     9.8009   3.3052    77.9115
 32      0.0000     0.0000E+00    0.0000E+00    3.160000E+06  0.05000  4.817E-02    0   0.9577   age045_m72            0.0000     1.9904E+02     8.0094   3.0088    82.9066
 33      0.0000     0.0000E+00    0.0000E+00    5.010000E+06  0.05000  3.101E-02    0   0.9147   age055_m72            0.0000     1.8087E+02     7.8711   2.6452    85.5216
 34      0.0000     0.0000E+00    0.0000E+00    1.000000E+07  0.05000  8.954E-03    0   0.8524   age070_m72            0.0000     1.9481E+02     7.8488   2.8905    84.0133
 35      0.0000     0.0000E+00    0.0000E+00    2.512000E+07  0.05000  4.207E-03    0   0.7902   age090_m72            0.0000     8.2845E+01     5.2162   2.4360    90.3108
 36      0.0000     0.0000E+00    0.0000E+00    4.000000E+07  0.05000  3.198E-03    0   0.7618   age104_m72            0.0000     3.3118E+01     2.6042   1.8869   100.0661
 37      0.0000     0.0000E+00    0.0000E+00    1.015200E+08  0.05000  1.716E-03    0   0.7092   age116_m72            0.0000     1.0123E+02     4.0609   1.5809   105.4884
 38      0.0000     0.0000E+00    0.0000E+00    2.861200E+08  0.05000  7.047E-04    0   0.6618   age125_m72            0.0000     2.4102E+02     7.2584   0.7528   113.6121
 39      0.0000     0.0000E+00    0.0000E+00    6.405400E+08  0.05000  2.633E-04    0   0.6253   age132_m72            0.0000     1.3292E+02     6.6209  -0.0921   115.3913
 40      0.0000     0.0000E+00    0.0000E+00    9.047900E+08  0.05000  1.484E-04    0   0.6088   age135_m72            0.0000     7.9822E+01     5.5754  -0.5602   109.3460
 41      0.0000     0.0000E+00    0.0000E+00    1.434000E+09  0.05000  7.827E-05    0   0.5847   age139_m72            0.0000     1.2819E+02     6.4950  -0.9424   105.2655
 42      0.0000     0.0000E+00    0.0000E+00    2.500000E+09  0.05000  3.759E-05    0   0.5583   age150_m72            0.0000     2.5399E+02     7.8887  -1.0000    97.4244
 43      0.0000     0.0000E+00    0.0000E+00    5.000000E+09  0.05000  1.548E-05    0   0.5320   age161_m72            0.0000     6.1888E+02    13.5259  -1.0000    85.6384
 44      0.0000     0.0000E+00    0.0000E+00    1.100000E+10  0.05000  6.532E-06    0   0.5070   age185_m72            0.0000     1.1271E+03    18.3661  -1.0000    75.0571
 45      0.0000     0.0000E+00    0.0000E+00    1.300000E+10  0.05000  5.316E-06    0   0.5018   age193_m72            0.0000     1.3144E+03    19.6686  -1.0000    71.9580


## Synthesis Results - Average & Chains ##

# j      x_j: min, <> & last-chain-values for 1 ...  7 chains
  1      0.0000      0.0033      0.0000      0.0540      0.0130      0.0000      0.0000      0.0000      0.0000
  2      9.5418      7.3569      7.6155      7.4772      7.5356      7.6651      7.4422      7.5395      7.5669
  3      0.0000      0.0091      0.0000      0.0000      0.0000      0.0000      0.0000      0.0000      0.0000
  4      5.6162      6.5948      6.5511      6.4882      6.4500      6.8476      6.6200      6.7031      6.6398
  5      0.0000      0.0337      0.0000      0.0000      0.0000      0.0000      0.0000      0.0000      0.0000
  6      0.0000      0.0232      0.0015      0.0048      0.0000      0.0076      0.0000      0.0000      0.0000
  7     12.7773     12.1498     12.1289     12.3049     12.2075     12.1795     12.1479     12.2361     12.1789
  8      0.0000      0.0557      0.0000      0.0733      0.0000      0.0432      0.0475      0.0000      0.2316
  9      0.0000      0.1269      0.2256      0.1555      0.1221      0.0000      0.0789      0.0447      0.0000
 10     19.7209     19.1640     19.6365     18.9538     19.5075     19.2966     19.1295     19.4984     19.3333
 11     19.2943     22.0761     21.5816     22.1603     22.0624     22.0300     21.9500     21.8976     21.8854
 12     22.5355     19.9522     20.0288     20.0845     20.1395     19.8309     20.1483     20.0494     20.0972
 13      9.1255      9.4082      9.3495      9.5048      9.2180      9.4425      9.4598      9.4283      9.4944
 14      0.0000      0.0209      0.0000      0.0000      0.0000      0.0651      0.0741      0.0000      0.0556
 15      0.0000      0.0168      0.0000      0.0000      0.0000      0.0000      0.0000      0.0000      0.0000
 16      0.0000      0.0026      0.0031      0.0000      0.0000      0.0000      0.0000      0.0000      0.0000
 17      0.0000      0.0041      0.0000      0.0000      0.0000      0.0000      0.0000      0.0000      0.0000
 18      4.1387      4.9802      5.0157      5.0151      4.9172      4.7101      4.9990      4.8861      4.8380
 19      0.0000      0.0055      0.0000      0.0000      0.0000      0.0000      0.0000      0.0000      0.0000
 20      0.0000      0.0047      0.0000      0.0000      0.0000      0.0000      0.0000      0.0000      0.0000
 21      0.0000      0.0144      0.0000      0.0000      0.0000      0.0000      0.0100      0.0000      0.0079
 22      0.0000      0.0236      0.0000      0.0000      0.0000      0.0000      0.0000      0.0000      0.0000
 23      0.0000      0.0148      0.0072      0.0000      0.0000      0.0027      0.0624      0.0000      0.0000
 24      0.0000      0.0187      0.0000      0.0000      0.0000      0.0000      0.0000      0.0000      0.0000
 25      0.0000      0.0402      0.0000      0.0000      0.0000      0.0000      0.0000      0.0000      0.0000
 26      0.0000      0.0821      0.1428      0.0000      0.0664      0.0428      0.1102      0.0000      0.0447
 27      0.0000      0.0232      0.0000      0.0167      0.0000      0.0000      0.0000      0.0000      0.0000
 28      0.0000      0.0158      0.0085      0.0000      0.0000      0.0623      0.0000      0.0000      0.0000
 29      0.0000      0.0073      0.0000      0.0000      0.0000      0.0000      0.0000      0.0326      0.0000
 30      0.0000      0.0046      0.0000      0.0000      0.0000      0.0000      0.0000      0.0000      0.0000
 31      0.0000      0.0029      0.0000      0.0000      0.0000      0.0000      0.0000      0.0000      0.0076
 32      0.0000      0.0075      0.0000      0.0000      0.0000      0.0000      0.0239      0.0000      0.0000
 33      0.0000      0.0184      0.0009      0.0000      0.1323      0.0433      0.0000      0.0000      0.0000
 34      0.0000      0.0052      0.0000      0.0000      0.0000      0.0000      0.0000      0.0000      0.0000
 35      0.0000      0.0085      0.0000      0.0000      0.0000      0.0000      0.0000      0.0000      0.0424
 36      0.0000      0.0189      0.0000      0.0000      0.0000      0.0000      0.0000      0.0000      0.0000
 37      0.0000      0.0221      0.0000      0.0000      0.0000      0.0000      0.1698      0.0582      0.0000
 38      0.0000      0.0289      0.0000      0.0000      0.0000      0.0000      0.0000      0.0000      0.0000
 39      0.0000      0.0636      0.0000      0.0631      0.0000      0.2343      0.0640      0.0480      0.0033
 40      0.0000      0.0638      0.1846      0.0600      0.0000      0.0000      0.0000      0.0000      0.0000
 41      0.0000      0.3273      0.3344      0.3781      0.4331      0.3024      0.2600      0.3359      0.3402
 42      0.0000      0.0091      0.0000      0.0000      0.0048      0.0000      0.0000      0.0551      0.0000
 43      0.0000      0.0011      0.0000      0.0000      0.0000      0.0000      0.0000      0.0000      0.0000
 44      0.0000      0.0020      0.0000      0.0000      0.0000      0.0000      0.0000      0.0000      0.0000
 45      0.0000      0.0009      0.0000      0.0000      0.0000      0.0000      0.0000      0.0000      0.0000

# j      m_j: min, <> & last-chain-values for 1 ...  7 chains
  1  0.0000E+00  9.1553E-05  0.0000E+00  1.4955E-03  3.6264E-04  0.0000E+00  0.0000E+00  0.0000E+00  0.0000E+00
  2  7.2597E-02  5.5612E-02  5.8030E-02  5.6652E-02  5.7465E-02  5.8028E-02  5.6313E-02  5.7053E-02  5.7279E-02
  3  0.0000E+00  1.0528E-04  0.0000E+00  0.0000E+00  0.0000E+00  0.0000E+00  0.0000E+00  0.0000E+00  0.0000E+00
  4  1.2136E-01  1.4159E-01  1.4178E-01  1.3962E-01  1.3970E-01  1.4723E-01  1.4227E-01  1.4406E-01  1.4275E-01
  5  0.0000E+00  1.6718E-03  0.0000E+00  0.0000E+00  0.0000E+00  0.0000E+00  0.0000E+00  0.0000E+00  0.0000E+00
  6  0.0000E+00  1.6014E-03  1.0477E-04  3.3155E-04  0.0000E+00  5.2584E-04  0.0000E+00  0.0000E+00  0.0000E+00
  7  1.2583E+00  1.1888E+00  1.1963E+00  1.2068E+00  1.2050E+00  1.1935E+00  1.1898E+00  1.1985E+00  1.1933E+00
  8  0.0000E+00  1.0520E-02  0.0000E+00  1.3870E-02  0.0000E+00  8.1613E-03  8.9794E-03  0.0000E+00  4.3761E-02
  9  0.0000E+00  4.7705E-02  8.5491E-02  5.8580E-02  4.6299E-02  0.0000E+00  2.9675E-02  1.6799E-02  0.0000E+00
 10  1.0415E+01  1.0056E+01  1.0387E+01  9.9683E+00  1.0326E+01  1.0140E+01  1.0048E+01  1.0242E+01  1.0159E+01
 11  1.7895E+01  2.0343E+01  2.0047E+01  2.0468E+01  2.0510E+01  2.0331E+01  2.0247E+01  2.0200E+01  2.0195E+01
 12  3.8862E+01  3.4185E+01  3.4592E+01  3.4491E+01  3.4810E+01  3.4028E+01  3.4555E+01  3.4388E+01  3.4481E+01
 13  3.1339E+01  3.2101E+01  3.2157E+01  3.2505E+01  3.1729E+01  3.2266E+01  3.2309E+01  3.2204E+01  3.2440E+01
 14  0.0000E+00  1.4527E-01  0.0000E+00  0.0000E+00  0.0000E+00  4.5326E-01  5.1587E-01  0.0000E+00  3.8718E-01
 15  0.0000E+00  1.3525E-01  0.0000E+00  0.0000E+00  0.0000E+00  0.0000E+00  0.0000E+00  0.0000E+00  0.0000E+00
 16  0.0000E+00  4.0280E-05  4.8452E-05  0.0000E+00  0.0000E+00  0.0000E+00  0.0000E+00  0.0000E+00  0.0000E+00
 17  0.0000E+00  3.2726E-05  0.0000E+00  0.0000E+00  0.0000E+00  0.0000E+00  0.0000E+00  0.0000E+00  0.0000E+00
 18  3.7132E-02  4.4394E-02  4.5069E-02  4.4808E-02  4.4218E-02  4.2049E-02  4.4606E-02  4.3601E-02  4.3186E-02
 19  0.0000E+00  1.4688E-04  0.0000E+00  0.0000E+00  0.0000E+00  0.0000E+00  0.0000E+00  0.0000E+00  0.0000E+00
 20  0.0000E+00  2.7832E-04  0.0000E+00  0.0000E+00  0.0000E+00  0.0000E+00  0.0000E+00  0.0000E+00  0.0000E+00
 21  0.0000E+00  1.0254E-03  0.0000E+00  0.0000E+00  0.0000E+00  0.0000E+00  7.1329E-04  0.0000E+00  5.6586E-04
 22  0.0000E+00  2.7985E-03  0.0000E+00  0.0000E+00  0.0000E+00  0.0000E+00  0.0000E+00  0.0000E+00  0.0000E+00
 23  0.0000E+00  3.4404E-03  1.6906E-03  0.0000E+00  0.0000E+00  6.1934E-04  1.4530E-02  0.0000E+00  0.0000E+00
 24  0.0000E+00  9.9502E-03  0.0000E+00  0.0000E+00  0.0000E+00  0.0000E+00  0.0000E+00  0.0000E+00  0.0000E+00
 25  0.0000E+00  3.2956E-02  0.0000E+00  0.0000E+00  0.0000E+00  0.0000E+00  0.0000E+00  0.0000E+00  0.0000E+00
 26  0.0000E+00  1.2693E-01  2.2253E-01  0.0000E+00  1.0357E-01  6.6326E-02  1.7049E-01  0.0000E+00  6.9250E-02
 27  0.0000E+00  7.2767E-02  0.0000E+00  5.2624E-02  0.0000E+00  0.0000E+00  0.0000E+00  0.0000E+00  0.0000E+00
 28  0.0000E+00  1.0058E-01  5.4707E-02  0.0000E+00  0.0000E+00  3.9641E-01  0.0000E+00  0.0000E+00  0.0000E+00
 29  0.0000E+00  9.8276E-02  0.0000E+00  0.0000E+00  0.0000E+00  0.0000E+00  0.0000E+00  4.3878E-01  0.0000E+00
 30  0.0000E+00  7.4390E-02  0.0000E+00  0.0000E+00  0.0000E+00  0.0000E+00  0.0000E+00  0.0000E+00  0.0000E+00
 31  0.0000E+00  3.3264E-05  0.0000E+00  0.0000E+00  0.0000E+00  0.0000E+00  0.0000E+00  0.0000E+00  8.8345E-05
 32  0.0000E+00  4.6084E-05  0.0000E+00  0.0000E+00  0.0000E+00  0.0000E+00  1.4662E-04  0.0000E+00  0.0000E+00
 33  0.0000E+00  1.6667E-04  7.8443E-06  0.0000E+00  1.2124E-03  3.9430E-04  0.0000E+00  0.0000E+00  0.0000E+00
