###################################################################
## OUTPUT of StarlightChains_v04.for    [Cid@UFSC - 01/Apr/2007] ##
###################################################################

## Some input info
NGC1904_a_1.cxt                          [arq_obs]
Base.BC03.N                              [arq_base]
NGC1904_a_1.msk                          [arq_masks]
StCv04.C11.config                        [arq_config]
   45                                    [N_base]
    0                                    [N_YAV_components = # of components with extra extinction!]
    0                                    [i_FitPowerLaw (1/0 = Yes/No)]
-9.99                                    [alpha_PowerLaw]
CCM                                      [red_law_option]
 1.458241                                [q_norm = A(l_norm)/A(V)]

## (Re)Sampling Parameters
 3359.00                                 [l_ini (A)]
 6428.00                                 [l_fin (A)]
    1.00                                 [dl    (A)]     (OBS: dl_cushion =    50.00 A)

## Normalization info
 4020.00                                 [l_norm (A) - for base]
 4010.00                                 [llow_norm (A) - window for f_obs]
 4060.00                                 [lupp_norm (A) - window for f_obs]
1.460937E-14                             [fobs_norm (in input units)]

## S/N
 4730.00                                 [llow_SN (A) - window for S/N]
 4780.00                                 [lupp_SN (A) - window for S/N]
 130.069                                 [S/N in S/N window]
 127.140                                 [S/N in norm. window]
 564.433                                 [S/N_err in S/N window]
 551.723                                 [S/N_err in norm. window]
  1.0000                                 [fscale_chi2]

## etc...
  2147483646                             [idum_orig]
  3067                                   [NOl_eff]
   322                                   [Nl_eff]
  2745    NSIGMA                         [Ntot_cliped & clip_method]
  4120620                                [Nglobal_steps]
   7                                     [N_chains]
   6                                     [NEX0s_base = N_base in EX0s-fits]
 0   0   1      254   2.0   1.168E+03    [Clip-Bug, RC-Crash & Burn-In warning-flags, n_censored_weights, wei_nsig_threshold & wei_limit]
    30     29.835     29.831      0.004  [idt_all, wdt_TotTime, wdt_UsrTime & wdt_SysTime (sec)]

## Synthesis Results - Best model ##

 2.88640E+00                             [chi2/Nl_eff]
     0.36646                             [adev (%)]

   104.21348                             [sum-of-x (%)]
 1.99480E-14                             [Flux_tot (units of input spectrum!)]
 1.15892E-10                             [Mini_tot (???)]
 6.42244E-11                             [Mcor_tot (???)]

 -12.15                                  [v0_min  (km/s)]
 107.72                                  [vd_min  (km/s)]
 0.2012                                  [AV_min  (mag)]
 0.0000                                  [YAV_min (mag)]

# j     x_j(%)      Mini_j(%)     Mcor_j(%)     age_j(yr)     Z_j      (L/M)_j    YAV?  Mstars   component_j        a/Fe...       SSP_chi2r SSP_adev(%)   SSP_AV   SSP_x(%)
  1      0.0000     0.0000E+00    0.0000E+00    1.000000E+06  0.00400  1.114E-02    0   1.0000   age020_m42            0.0000     6.8905E+03    14.1541   3.4546    77.9316
  2     15.1934     6.1612E-02    1.1117E-01    3.160000E+06  0.00400  4.073E-02    0   0.9999   age045_m42            0.0000     1.3223E+03     6.3954   2.4095    92.6459
  3      0.0000     0.0000E+00    0.0000E+00    5.010000E+06  0.00400  2.534E-02    0   0.9488   age055_m42            0.0000     3.4008E+03    10.1602   2.8589    85.7375
  4      3.5307     4.5882E-02    7.3371E-02    1.000000E+07  0.00400  1.271E-02    0   0.8862   age070_m42            0.0000     3.0588E+03     9.9562   2.0577    89.2658
  5      0.0000     0.0000E+00    0.0000E+00    2.512000E+07  0.00400  5.070E-03    0   0.8174   age090_m42            0.0000     2.6266E+03     9.2553   1.9171    90.8931
  6      0.0000     0.0000E+00    0.0000E+00    4.000000E+07  0.00400  3.505E-03    0   0.7851   age104_m42            0.0000     1.4979E+03     6.9559   1.5744    94.0621
  7     12.4518     9.0680E-01    1.1793E+00    1.015200E+08  0.00400  2.268E-03    0   0.7207   age116_m42            0.0000     3.5549E+03     6.2475   1.4702   104.9233
  8      0.0000     0.0000E+00    0.0000E+00    2.861200E+08  0.00400  1.079E-03    0   0.6613   age125_m42            0.0000     3.8267E+03     7.1974   0.9519   107.6818
  9      0.0000     0.0000E+00    0.0000E+00    6.405400E+08  0.00400  5.077E-04    0   0.6197   age132_m42            0.0000     4.2293E+03     7.7499   0.5719   112.4027
 10      8.4418     3.9443E+00    4.2875E+00    9.047900E+08  0.00400  3.535E-04    0   0.6024   age135_m42            0.0000     2.2770E+03     5.9971   0.3280   111.7863
 11     16.6690     1.4415E+01    1.4868E+01    1.434000E+09  0.00400  1.910E-04    0   0.5716   age139_m42            0.0000     7.7567E+02     4.6278  -0.2355   110.9539
 12     47.9268     8.0627E+01    7.9481E+01    2.500000E+09  0.00400  9.818E-05    0   0.5463   age150_m42            0.0000     7.9691E+02     4.1106  -0.5063   106.0472
 13      0.0000     0.0000E+00    0.0000E+00    5.000000E+09  0.00400  4.718E-05    0   0.5228   age161_m42            0.0000     1.6174E+03     4.7685  -0.6599   102.2726
 14      0.0000     0.0000E+00    0.0000E+00    1.100000E+10  0.00400  2.205E-05    0   0.4980   age185_m42            0.0000     3.6033E+03     6.9105  -0.9462   100.2509
 15      0.0000     0.0000E+00    0.0000E+00    1.300000E+10  0.00400  1.883E-05    0   0.4927   age193_m42            0.0000     3.9305E+03     7.1799  -0.9625   100.0449
 16      0.0000     0.0000E+00    0.0000E+00    1.000000E+06  0.02000  1.989E-02    0   1.0000   age020_m62            0.0000     6.8765E+03    14.0717   3.4117    78.7194
 17      0.0000     0.0000E+00    0.0000E+00    3.160000E+06  0.02000  3.772E-02    0   0.9858   age045_m62            0.0000     6.1447E+03    13.3617   3.2615    80.7342
 18      0.0000     0.0000E+00    0.0000E+00    5.010000E+06  0.02000  3.227E-02    0   0.9342   age055_m62            0.0000     2.2920E+03     8.3107   2.6963    88.7028
 19      0.0000     0.0000E+00    0.0000E+00    1.000000E+07  0.02000  1.011E-02    0   0.8751   age070_m62            0.0000     7.4894E+03    15.4914   2.0938    85.0846
 20      0.0000     0.0000E+00    0.0000E+00    2.512000E+07  0.02000  4.206E-03    0   0.8099   age090_m62            0.0000     5.4498E+03    13.0031   2.0148    86.0964
 21      0.0000     0.0000E+00    0.0000E+00    4.000000E+07  0.02000  3.373E-03    0   0.7799   age104_m62            0.0000     1.5570E+03     6.7195   1.7731    95.4681
 22      0.0000     0.0000E+00    0.0000E+00    1.015200E+08  0.02000  1.878E-03    0   0.7221   age116_m62            0.0000     3.0348E+03     5.7082   1.5165   104.6423
 23      0.0000     0.0000E+00    0.0000E+00    2.861200E+08  0.02000  8.869E-04    0   0.6700   age125_m62            0.0000     7.3593E+03     9.7864   0.9268   113.0542
 24      0.0000     0.0000E+00    0.0000E+00    6.405400E+08  0.02000  3.657E-04    0   0.6322   age132_m62            0.0000     4.0502E+03     8.9535   0.1582   118.8151
 25      0.0000     0.0000E+00    0.0000E+00    9.047900E+08  0.02000  2.312E-04    0   0.6152   age135_m62            0.0000     1.9736E+03     7.1068  -0.2263   118.1095
 26      0.0000     0.0000E+00    0.0000E+00    1.434000E+09  0.02000  1.168E-04    0   0.5865   age139_m62            0.0000     1.0013E+03     4.9991  -0.6145   111.2300
 27      0.0000     0.0000E+00    0.0000E+00    2.500000E+09  0.02000  5.505E-05    0   0.5610   age150_m62            0.0000     2.6552E+03     6.7118  -1.0000   108.2363
 28      0.0000     0.0000E+00    0.0000E+00    5.000000E+09  0.02000  2.596E-05    0   0.5353   age161_m62            0.0000     7.3120E+03    10.8545  -1.0000   102.0600
 29      0.0000     0.0000E+00    0.0000E+00    1.100000E+10  0.02000  1.169E-05    0   0.5103   age185_m62            0.0000     1.5915E+04    17.7018  -1.0000    95.3113
 30      0.0000     0.0000E+00    0.0000E+00    1.300000E+10  0.02000  9.691E-06    0   0.5047   age193_m62            0.0000     1.7465E+04    18.5858  -1.0000    94.4024
 31      0.0000     0.0000E+00    0.0000E+00    1.000000E+06  0.05000  2.651E-02    0   0.9998   age020_m72            0.0000     6.3381E+03    13.3421   3.4117    79.5593
 32      0.0000     0.0000E+00    0.0000E+00    3.160000E+06  0.05000  4.817E-02    0   0.9577   age045_m72            0.0000     4.2375E+03    10.9595   3.1054    84.0241
 33      0.0000     0.0000E+00    0.0000E+00    5.010000E+06  0.05000  3.101E-02    0   0.9147   age055_m72            0.0000     3.9916E+03    10.8751   2.7310    86.5797
 34      0.0000     0.0000E+00    0.0000E+00    1.000000E+07  0.05000  8.954E-03    0   0.8524   age070_m72            0.0000     4.0906E+03    10.7013   2.9681    85.2758
 35      0.0000     0.0000E+00    0.0000E+00    2.512000E+07  0.05000  4.207E-03    0   0.7902   age090_m72            0.0000     1.9467E+03     7.4205   2.4908    91.1315
 36      0.0000     0.0000E+00    0.0000E+00    4.000000E+07  0.05000  3.198E-03    0   0.7618   age104_m72            0.0000     1.6788E+03     4.2730   1.9010   100.0706
 37      0.0000     0.0000E+00    0.0000E+00    1.015200E+08  0.05000  1.716E-03    0   0.7092   age116_m72            0.0000     3.8118E+03     6.4555   1.5845   105.0751
 38      0.0000     0.0000E+00    0.0000E+00    2.861200E+08  0.05000  7.047E-04    0   0.6618   age125_m72            0.0000     6.8426E+03    10.0158   0.6738   114.4271
 39      0.0000     0.0000E+00    0.0000E+00    6.405400E+08  0.05000  2.633E-04    0   0.6253   age132_m72            0.0000     2.9026E+03     8.3761  -0.2597   118.9725
 40      0.0000     0.0000E+00    0.0000E+00    9.047900E+08  0.05000  1.484E-04    0   0.6088   age135_m72            0.0000     1.7654E+03     7.0127  -0.7403   113.4683
 41      0.0000     0.0000E+00    0.0000E+00    1.434000E+09  0.05000  7.827E-05    0   0.5847   age139_m72            0.0000     3.7516E+03     8.3155  -1.0000   107.3042
 42      0.0000     0.0000E+00    0.0000E+00    2.500000E+09  0.05000  3.759E-05    0   0.5583   age150_m72            0.0000     8.6556E+03    12.3174  -1.0000   100.1612
 43      0.0000     0.0000E+00    0.0000E+00    5.000000E+09  0.05000  1.548E-05    0   0.5320   age161_m72            0.0000     1.8519E+04    19.4187  -1.0000    90.4740
 44      0.0000     0.0000E+00    0.0000E+00    1.100000E+10  0.05000  6.532E-06    0   0.5070   age185_m72            0.0000     3.1305E+04    25.4968  -1.0000    80.9007
 45      0.0000     0.0000E+00    0.0000E+00    1.300000E+10  0.05000  5.316E-06    0   0.5018   age193_m72            0.0000     3.6058E+04    27.2630  -1.0000    77.9606


## Synthesis Results - Average & Chains ##

# j      x_j: min, <> & last-chain-values for 1 ...  7 chains
  1      0.0000      0.0076      0.0000      0.0000      0.0177      0.0135      0.0000      0.0000      0.0000
  2     15.1934     14.9376     14.8363     15.0857     14.7414     15.0289     15.0807     14.8298     15.0242
  3      0.0000      0.0247      0.0000      0.0000      0.0000      0.0000      0.0000      0.0993      0.0000
  4      3.5307      3.8377      3.8842      3.8265      3.8527      3.6784      3.8714      3.8721      3.8588
  5      0.0000      0.0200      0.0000      0.0000      0.0000      0.0000      0.0135      0.0000      0.0000
  6      0.0000      0.1428      0.2547      0.2563      0.0000      0.3758      0.0000      0.2541      0.0000
  7     12.4518     11.0506     11.2039     10.9402     11.7883     11.0196     11.2881     11.2356     11.2561
  8      0.0000      0.3213      0.4009      0.3637      0.3937      0.2800      0.3959      0.3322      0.4533
  9      0.0000      0.0470      0.0000      0.0000      0.0704      0.0000      0.0000      0.0451      0.0000
 10      8.4418      8.6674      8.6738      8.7100      8.9150      8.5749      7.6781      8.2600      8.5681
 11     16.6690     17.4094     17.4356     17.0855     15.7045     17.0657     17.6940     17.7132     17.4823
 12     47.9268     46.2194     46.2565     46.3801     47.6442     46.4564     46.5681     46.5179     46.8022
 13      0.0000      0.0993      0.2197      0.0011      0.1122      0.0155      0.1015      0.0000      0.0000
 14      0.0000      0.0318      0.0000      0.1360      0.0000      0.0955      0.0000      0.0000      0.0000
 15      0.0000      0.0247      0.0000      0.1631      0.0000      0.0000      0.0561      0.0000      0.0000
 16      0.0000      0.0053      0.0000      0.0000      0.0000      0.0000      0.0000      0.0000      0.0475
 17      0.0000      0.0056      0.0416      0.0000      0.0000      0.0000      0.0114      0.0000      0.0000
 18      0.0000      0.0175      0.1280      0.0074      0.0938      0.0082      0.0000      0.0000      0.0000
 19      0.0000      0.0047      0.0000      0.0000      0.0000      0.0000      0.0000      0.0000      0.0000
 20      0.0000      0.0169      0.0000      0.0000      0.0284      0.0000      0.0000      0.0000      0.0000
 21      0.0000      0.0321      0.0000      0.0000      0.0000      0.1739      0.0000      0.0000      0.0000
 22      0.0000      0.0687      0.0070      0.0000      0.0000      0.0281      0.0000      0.0509      0.0972
 23      0.0000      0.0399      0.0000      0.0224      0.0000      0.0000      0.0986      0.0622      0.0000
 24      0.0000      0.0797      0.1350      0.0000      0.1235      0.0000      0.3024      0.0914      0.0567
 25      0.0000      0.1647      0.3019      0.2098      0.1160      0.5989      0.0885      0.1788      0.2337
 26      0.0000      0.0555      0.0000      0.0000      0.0639      0.0821      0.0585      0.0336      0.0000
 27      0.0000      0.0172      0.0000      0.0000      0.0058      0.0000      0.0000      0.0000      0.0000
 28      0.0000      0.0114      0.0000      0.0000      0.0000      0.0031      0.0000      0.0000      0.0000
 29      0.0000      0.0050      0.0000      0.0019      0.0000      0.0000      0.0070      0.0000      0.0000
 30      0.0000      0.0038      0.0000      0.0000      0.0000      0.0000      0.0000      0.0000      0.0000
 31      0.0000      0.0055      0.0000      0.0000      0.0000      0.0000      0.0000      0.0000      0.0000
 32      0.0000      0.0173      0.0033      0.0000      0.0000      0.0000      0.0000      0.0208      0.0000
 33      0.0000      0.0229      0.0000      0.0000      0.0000      0.0000      0.0327      0.0000      0.0369
 34      0.0000      0.0124      0.0000      0.0000      0.0431      0.0000      0.0000      0.0000      0.0000
 35      0.0000      0.0205      0.0000      0.0000      0.0000      0.0000      0.0000      0.0000      0.0000
 36      0.0000      0.0338      0.0000      0.0552      0.0614      0.0000      0.1701      0.0000      0.0000
 37      0.0000      0.0741      0.0000      0.2789      0.0000      0.1935      0.1132      0.0814      0.0000
 38      0.0000      0.0711      0.0000      0.1184      0.0000      0.1623      0.0000      0.1885      0.0746
 39      0.0000      0.4800      0.2741      0.6152      0.3178      0.3983      0.5919      0.1917      0.2520
 40      0.0000      0.1242      0.1900      0.0000      0.1429      0.0000      0.0439      0.2072      0.0000
 41      0.0000      0.0218      0.0000      0.0000      0.0000      0.0000      0.0000      0.0000      0.0137
 42      0.0000      0.0045      0.0103      0.0000      0.0000      0.0292      0.0000      0.0000      0.0000
 43      0.0000      0.0058      0.0000      0.0000      0.0000      0.0000      0.0000      0.0000      0.0000
 44      0.0000      0.0010      0.0000      0.0000      0.0000      0.0000      0.0000      0.0000      0.0000
 45      0.0000      0.0007      0.0000      0.0000      0.0000      0.0000      0.0000      0.0000      0.0000

# j      m_j: min, <> & last-chain-values for 1 ...  7 chains
  1  0.0000E+00  2.0321E-04  0.0000E+00  0.0000E+00  4.7474E-04  3.6191E-04  0.0000E+00  0.0000E+00  0.0000E+00
  2  1.1117E-01  1.0945E-01  1.0908E-01  1.0952E-01  1.0786E-01  1.1026E-01  1.1041E-01  1.0938E-01  1.1064E-01
  3  0.0000E+00  2.7658E-04  0.0000E+00  0.0000E+00  0.0000E+00  0.0000E+00  0.0000E+00  1.1168E-03  0.0000E+00
  4  7.3371E-02  7.9866E-02  8.1108E-02  7.8901E-02  8.0065E-02  7.6644E-02  8.0499E-02  8.1116E-02  8.0708E-02
  5  0.0000E+00  9.6187E-04  0.0000E+00  0.0000E+00  0.0000E+00  0.0000E+00  6.4962E-04  0.0000E+00  0.0000E+00
  6  0.0000E+00  9.5484E-03  1.7089E-02  1.6978E-02  0.0000E+00  2.5155E-02  0.0000E+00  1.7103E-02  0.0000E+00
  7  1.1793E+00  1.0481E+00  1.0663E+00  1.0281E+00  1.1165E+00  1.0464E+00  1.0697E+00  1.0727E+00  1.0730E+00
  8  0.0000E+00  5.8782E-02  7.3584E-02  6.5913E-02  7.1912E-02  5.1276E-02  7.2366E-02  6.1173E-02  8.3334E-02
  9  0.0000E+00  1.7135E-02  0.0000E+00  0.0000E+00  2.5616E-02  0.0000E+00  0.0000E+00  1.6550E-02  0.0000E+00
 10  4.2875E+00  4.4085E+00  4.4267E+00  4.3894E+00  4.5280E+00  4.3668E+00  3.9020E+00  4.2291E+00  4.3799E+00
 11  1.4868E+01  1.5551E+01  1.5627E+01  1.5121E+01  1.4008E+01  1.5262E+01  1.5791E+01  1.5927E+01  1.5694E+01
 12  7.9481E+01  7.6761E+01  7.7083E+01  7.6318E+01  7.9015E+01  7.7249E+01  7.7274E+01  7.7768E+01  7.8119E+01
 13  0.0000E+00  3.2846E-01  7.2907E-01  3.7210E-03  3.7044E-01  5.1304E-02  3.3548E-01  0.0000E+00  0.0000E+00
 14  0.0000E+00  2.1417E-01  0.0000E+00  9.0820E-01  0.0000E+00  6.4446E-01  0.0000E+00  0.0000E+00  0.0000E+00
 15  0.0000E+00  1.9273E-01  0.0000E+00  1.2624E+00  0.0000E+00  0.0000E+00  4.3768E-01  0.0000E+00  0.0000E+00
 16  0.0000E+00  7.9335E-05  0.0000E+00  0.0000E+00  0.0000E+00  0.0000E+00  0.0000E+00  0.0000E+00  7.1575E-04
 17  0.0000E+00  4.3540E-05  3.2532E-04  0.0000E+00  0.0000E+00  0.0000E+00  8.9094E-05  0.0000E+00  0.0000E+00
 18  0.0000E+00  1.5120E-04  1.1101E-03  6.3068E-05  8.0920E-04  7.0825E-05  0.0000E+00  0.0000E+00  0.0000E+00
 19  0.0000E+00  1.2062E-04  0.0000E+00  0.0000E+00  0.0000E+00  0.0000E+00  0.0000E+00  0.0000E+00  0.0000E+00
 20  0.0000E+00  9.6880E-04  0.0000E+00  0.0000E+00  1.6278E-03  0.0000E+00  0.0000E+00  0.0000E+00  0.0000E+00
 21  0.0000E+00  2.2154E-03  0.0000E+00  0.0000E+00  0.0000E+00  1.2014E-02  0.0000E+00  0.0000E+00  0.0000E+00
 22  0.0000E+00  7.8870E-03  8.0364E-04  0.0000E+00  0.0000E+00  3.2277E-03  0.0000E+00  5.8812E-03  1.1215E-02
 23  0.0000E+00  8.9861E-03  0.0000E+00  4.9997E-03  0.0000E+00  0.0000E+00  2.2207E-02  1.4127E-02  0.0000E+00
 24  0.0000E+00  4.1125E-02  6.9914E-02  0.0000E+00  6.3642E-02  0.0000E+00  1.5589E-01  4.7475E-02  2.9379E-02
 25  0.0000E+00  1.3078E-01  2.4055E-01  1.6512E-01  9.1969E-02  4.7625E-01  7.0205E-02  1.4297E-01  1.8653E-01
 26  0.0000E+00  8.3251E-02  0.0000E+00  0.0000E+00  9.5620E-02  1.2316E-01  8.7619E-02  5.0631E-02  0.0000E+00
 27  0.0000E+00  5.2294E-02  0.0000E+00  0.0000E+00  1.7686E-02  0.0000E+00  0.0000E+00  0.0000E+00  0.0000E+00
 28  0.0000E+00  7.0247E-02  0.0000E+00  0.0000E+00  0.0000E+00  1.9383E-02  0.0000E+00  0.0000E+00  0.0000E+00
 29  0.0000E+00  6.5398E-02  0.0000E+00  2.4416E-02  0.0000E+00  0.0000E+00  9.1161E-02  0.0000E+00  0.0000E+00
 30  0.0000E+00  5.9079E-02  0.0000E+00  0.0000E+00  0.0000E+00  0.0000E+00  0.0000E+00  0.0000E+00  0.0000E+00
 31  0.0000E+00  6.2264E-05  0.0000E+00  0.0000E+00  0.0000E+00  0.0000E+00  0.0000E+00  0.0000E+00  0.0000E+00
 32  0.0000E+00  1.0255E-04  1.9434E-05  0.0000E+00  0.0000E+00  0.0000E+00  0.0000E+00  1.2451E-04  0.0000E+00
 33  0.0000E+00  2.0202E-04  0.0000E+00  0.0000E+00  0.0000E+00  0.0000E+00  2.8778E-04  0.0000E+00  3.2642E-04
