###################################################################
## OUTPUT of StarlightChains_v04.for    [Cid@UFSC - 01/Apr/2007] ##
###################################################################

## Some input info
NGC1851_a_1.cxt                          [arq_obs]
Base.BC03.N                              [arq_base]
NGC1851_a_1.msk                          [arq_masks]
StCv04.C11.config                        [arq_config]
   45                                    [N_base]
    0                                    [N_YAV_components = # of components with extra extinction!]
    0                                    [i_FitPowerLaw (1/0 = Yes/No)]
-9.99                                    [alpha_PowerLaw]
CCM                                      [red_law_option]
 1.458241                                [q_norm = A(l_norm)/A(V)]

## (Re)Sampling Parameters
 3359.00                                 [l_ini (A)]
 6428.00                                 [l_fin (A)]
    1.00                                 [dl    (A)]     (OBS: dl_cushion =    50.00 A)

## Normalization info
 4020.00                                 [l_norm (A) - for base]
 4010.00                                 [llow_norm (A) - window for f_obs]
 4060.00                                 [lupp_norm (A) - window for f_obs]
8.317932E-14                             [fobs_norm (in input units)]

## S/N
 4730.00                                 [llow_SN (A) - window for S/N]
 4780.00                                 [lupp_SN (A) - window for S/N]
  72.129                                 [S/N in S/N window]
  63.854                                 [S/N in norm. window]
 355.079                                 [S/N_err in S/N window]
 314.342                                 [S/N_err in norm. window]
  1.0000                                 [fscale_chi2]

## etc...
  2147483647                             [idum_orig]
  3064                                   [NOl_eff]
   618                                   [Nl_eff]
  2446    NSIGMA                         [Ntot_cliped & clip_method]
  4030740                                [Nglobal_steps]
   7                                     [N_chains]
   6                                     [NEX0s_base = N_base in EX0s-fits]
 0   0   1      243   2.0   6.677E+02    [Clip-Bug, RC-Crash & Burn-In warning-flags, n_censored_weights, wei_nsig_threshold & wei_limit]
    28     28.485     28.485      0.000  [idt_all, wdt_TotTime, wdt_UsrTime & wdt_SysTime (sec)]

## Synthesis Results - Best model ##

 2.54337E+00                             [chi2/Nl_eff]
     0.58548                             [adev (%)]

   102.91559                             [sum-of-x (%)]
 1.09469E-13                             [Flux_tot (units of input spectrum!)]
 9.30849E-10                             [Mini_tot (???)]
 5.10681E-10                             [Mcor_tot (???)]

   0.66                                  [v0_min  (km/s)]
  84.26                                  [vd_min  (km/s)]
 0.1831                                  [AV_min  (mag)]
 0.0000                                  [YAV_min (mag)]

# j     x_j(%)      Mini_j(%)     Mcor_j(%)     age_j(yr)     Z_j      (L/M)_j    YAV?  Mstars   component_j        a/Fe...       SSP_chi2r SSP_adev(%)   SSP_AV   SSP_x(%)
  1      0.0000     0.0000E+00    0.0000E+00    1.000000E+06  0.00400  1.114E-02    0   1.0000   age020_m42            0.0000     2.8940E+03    15.3677   3.7451    77.2783
  2      9.8845     2.7731E-02    5.0543E-02    3.160000E+06  0.00400  4.073E-02    0   0.9999   age045_m42            0.0000     8.8625E+02     8.7279   2.7516    91.7948
  3      0.0000     0.0000E+00    0.0000E+00    5.010000E+06  0.00400  2.534E-02    0   0.9488   age055_m42            0.0000     1.6801E+03    12.1250   3.1687    85.1845
  4      1.1836     1.0641E-02    1.7188E-02    1.000000E+07  0.00400  1.271E-02    0   0.8862   age070_m42            0.0000     1.5711E+03    12.0640   2.3725    88.7151
  5      0.0000     0.0000E+00    0.0000E+00    2.512000E+07  0.00400  5.070E-03    0   0.8174   age090_m42            0.0000     1.4075E+03    11.3725   2.2395    90.2526
  6      0.0000     0.0000E+00    0.0000E+00    4.000000E+07  0.00400  3.505E-03    0   0.7851   age104_m42            0.0000     9.5592E+02     9.2430   1.9106    93.3728
  7      2.1857     1.1012E-01    1.4467E-01    1.015200E+08  0.00400  2.268E-03    0   0.7207   age116_m42            0.0000     1.6485E+03     8.5208   1.8668   103.6625
  8      0.0000     0.0000E+00    0.0000E+00    2.861200E+08  0.00400  1.079E-03    0   0.6613   age125_m42            0.0000     1.6411E+03     8.4422   1.3657   106.1014
  9      0.0000     0.0000E+00    0.0000E+00    6.405400E+08  0.00400  5.077E-04    0   0.6197   age132_m42            0.0000     1.7568E+03     8.7382   0.9911   110.4418
 10      0.0000     0.0000E+00    0.0000E+00    9.047900E+08  0.00400  3.535E-04    0   0.6024   age135_m42            0.0000     1.0443E+03     6.8083   0.7444   109.8452
 11      8.5839     5.1355E+00    5.3506E+00    1.434000E+09  0.00400  1.910E-04    0   0.5716   age139_m42            0.0000     3.3159E+02     4.0643   0.1968   108.7650
 12     79.8915     9.2984E+01    9.2591E+01    2.500000E+09  0.00400  9.818E-05    0   0.5463   age150_m42            0.0000     5.6637E+01     2.2021  -0.0834   104.1686
 13      0.0000     0.0000E+00    0.0000E+00    5.000000E+09  0.00400  4.718E-05    0   0.5228   age161_m42            0.0000     1.6272E+02     2.9734  -0.2464   100.6633
 14      0.0000     0.0000E+00    0.0000E+00    1.100000E+10  0.00400  2.205E-05    0   0.4980   age185_m42            0.0000     5.6046E+02     5.2379  -0.5214    98.6104
 15      0.0000     0.0000E+00    0.0000E+00    1.300000E+10  0.00400  1.883E-05    0   0.4927   age193_m42            0.0000     6.2642E+02     5.5148  -0.5386    98.4268
 16      0.0000     0.0000E+00    0.0000E+00    1.000000E+06  0.02000  1.989E-02    0   1.0000   age020_m62            0.0000     2.8960E+03    15.3233   3.7044    77.9933
 17      0.0000     0.0000E+00    0.0000E+00    3.160000E+06  0.02000  3.772E-02    0   0.9858   age045_m62            0.0000     2.6586E+03    14.8072   3.5565    80.2205
 18      0.0000     0.0000E+00    0.0000E+00    5.010000E+06  0.02000  3.227E-02    0   0.9342   age055_m62            0.0000     1.3168E+03    10.6867   3.0133    88.1833
 19      0.0000     0.0000E+00    0.0000E+00    1.000000E+07  0.02000  1.011E-02    0   0.8751   age070_m62            0.0000     3.0089E+03    16.2870   2.4309    84.4475
 20      0.0000     0.0000E+00    0.0000E+00    2.512000E+07  0.02000  4.206E-03    0   0.8099   age090_m62            0.0000     2.3017E+03    14.1212   2.3510    85.5912
 21      0.0000     0.0000E+00    0.0000E+00    4.000000E+07  0.02000  3.373E-03    0   0.7799   age104_m62            0.0000     1.0458E+03     9.0997   2.1331    94.7601
 22      0.0000     0.0000E+00    0.0000E+00    1.015200E+08  0.02000  1.878E-03    0   0.7221   age116_m62            0.0000     1.5533E+03     8.6392   1.9106   103.4586
 23      0.0000     0.0000E+00    0.0000E+00    2.861200E+08  0.02000  8.869E-04    0   0.6700   age125_m62            0.0000     2.8180E+03    10.6676   1.3666   111.0484
 24      0.0000     0.0000E+00    0.0000E+00    6.405400E+08  0.02000  3.657E-04    0   0.6322   age132_m62            0.0000     1.5740E+03     8.6324   0.6335   115.8397
 25      0.0000     0.0000E+00    0.0000E+00    9.047900E+08  0.02000  2.312E-04    0   0.6152   age135_m62            0.0000     7.5252E+02     6.2544   0.2490   114.9667
 26      0.0000     0.0000E+00    0.0000E+00    1.434000E+09  0.02000  1.168E-04    0   0.5865   age139_m62            0.0000     1.7531E+02     3.6209  -0.1498   108.4954
 27      0.0000     0.0000E+00    0.0000E+00    2.500000E+09  0.02000  5.505E-05    0   0.5610   age150_m62            0.0000     4.2124E+02     5.0997  -0.5319   105.5299
 28      0.0000     0.0000E+00    0.0000E+00    5.000000E+09  0.02000  2.596E-05    0   0.5353   age161_m62            0.0000     1.1149E+03     8.0301  -0.8859   105.6702
 29      0.0000     0.0000E+00    0.0000E+00    1.100000E+10  0.02000  1.169E-05    0   0.5103   age185_m62            0.0000     2.3280E+03    11.0696  -1.0000   101.4112
 30      0.0000     0.0000E+00    0.0000E+00    1.300000E+10  0.02000  9.691E-06    0   0.5047   age193_m62            0.0000     2.6271E+03    11.7639  -1.0000   100.5384
 31      0.0000     0.0000E+00    0.0000E+00    1.000000E+06  0.05000  2.651E-02    0   0.9998   age020_m72            0.0000     2.7034E+03    14.7044   3.7055    78.8855
 32      0.0000     0.0000E+00    0.0000E+00    3.160000E+06  0.05000  4.817E-02    0   0.9577   age045_m72            0.0000     2.0037E+03    12.8580   3.4057    83.5720
 33      0.0000     0.0000E+00    0.0000E+00    5.010000E+06  0.05000  3.101E-02    0   0.9147   age055_m72            0.0000     1.8462E+03    12.5606   3.0554    86.1174
 34      0.0000     0.0000E+00    0.0000E+00    1.000000E+07  0.05000  8.954E-03    0   0.8524   age070_m72            0.0000     1.8859E+03    12.4442   3.2979    84.6737
 35      0.0000     0.0000E+00    0.0000E+00    2.512000E+07  0.05000  4.207E-03    0   0.7902   age090_m72            0.0000     1.1499E+03     9.6680   2.8485    90.3952
 36      0.0000     0.0000E+00    0.0000E+00    4.000000E+07  0.05000  3.198E-03    0   0.7618   age104_m72            0.0000     1.0791E+03     7.2140   2.3076    98.9038
 37      0.0000     0.0000E+00    0.0000E+00    1.015200E+08  0.05000  1.716E-03    0   0.7092   age116_m72            0.0000     1.8085E+03     9.0368   2.0089   103.6985
 38      0.0000     0.0000E+00    0.0000E+00    2.861200E+08  0.05000  7.047E-04    0   0.6618   age125_m72            0.0000     2.6217E+03    10.3588   1.1442   112.0308
 39      0.0000     0.0000E+00    0.0000E+00    6.405400E+08  0.05000  2.633E-04    0   0.6253   age132_m72            0.0000     1.1065E+03     7.5776   0.2415   115.5467
 40      0.0000     0.0000E+00    0.0000E+00    9.047900E+08  0.05000  1.484E-04    0   0.6088   age135_m72            0.0000     4.2412E+02     5.5866  -0.2451   110.2328
 41      1.1864     1.7321E+00    1.8460E+00    1.434000E+09  0.05000  7.827E-05    0   0.5847   age139_m72            0.0000     6.8049E+02     6.8326  -0.6393   106.4071
 42      0.0000     0.0000E+00    0.0000E+00    2.500000E+09  0.05000  3.759E-05    0   0.5583   age150_m72            0.0000     1.2628E+03     8.6906  -0.9699   105.5527
 43      0.0000     0.0000E+00    0.0000E+00    5.000000E+09  0.05000  1.548E-05    0   0.5320   age161_m72            0.0000     2.7439E+03    12.5001  -1.0000    96.9086
 44      0.0000     0.0000E+00    0.0000E+00    1.100000E+10  0.05000  6.532E-06    0   0.5070   age185_m72            0.0000     5.6033E+03    18.4796  -1.0000    87.3805
 45      0.0000     0.0000E+00    0.0000E+00    1.300000E+10  0.05000  5.316E-06    0   0.5018   age193_m72            0.0000     6.8054E+03    20.4444  -1.0000    84.4409


## Synthesis Results - Average & Chains ##

# j      x_j: min, <> & last-chain-values for 1 ...  7 chains
  1      0.0000      0.0027      0.0000      0.0000      0.0000      0.0000      0.0000      0.0000      0.0000
  2      9.8845      9.5112      9.5923      9.6312      9.7086      9.5354      9.6293      9.4229      9.6873
  3      0.0000      0.0142      0.0000      0.0103      0.0000      0.0000      0.0935      0.0000      0.0000
  4      1.1836      1.3837      1.3695      1.4285      1.4262      1.4776      1.3723      1.5390      1.4365
  5      0.0000      0.0149      0.0220      0.0292      0.0000      0.0000      0.0000      0.0000      0.0000
  6      0.0000      0.0193      0.0072      0.0000      0.0000      0.0757      0.0000      0.0275      0.0000
  7      2.1857      1.7599      1.8698      1.8337      1.7809      1.7890      1.8202      1.8731      1.7700
  8      0.0000      0.0296      0.0000      0.0087      0.0000      0.0000      0.0574      0.0000      0.0000
  9      0.0000      0.0342      0.0550      0.0000      0.0000      0.1956      0.0000      0.0234      0.0000
 10      0.0000      0.1212      0.2952      0.3314      0.3791      0.2272      0.1752      0.0678      0.3388
 11      8.5839      9.2395      9.1078      8.7738      9.2558      8.6489      9.0881      9.1606      8.8551
 12     79.8915     78.6851     78.9807     78.6929     78.6744     79.0460     78.9485     78.8055     78.8769
 13      0.0000      0.1697      0.1786      0.0000      0.0000      0.1282      0.2015      0.0958      0.1342
 14      0.0000      0.0722      0.0709      0.1179      0.0000      0.0388      0.0000      0.0044      0.0129
 15      0.0000      0.0751      0.0000      0.0064      0.0626      0.0000      0.0330      0.0000      0.0000
 16      0.0000      0.0047      0.0000      0.0000      0.0000      0.0000      0.0000      0.0000      0.0000
 17      0.0000      0.0044      0.0000      0.0052      0.0000      0.0000      0.0000      0.0000      0.0000
 18      0.0000      0.0383      0.0593      0.0000      0.0000      0.0901      0.0000      0.0344      0.0000
 19      0.0000      0.0139      0.0321      0.0080      0.0086      0.0000      0.0047      0.0000      0.0000
 20      0.0000      0.0124      0.0000      0.0000      0.0000      0.0000      0.0000      0.0000      0.0010
 21      0.0000      0.0219      0.0000      0.0000      0.0000      0.0000      0.0000      0.0000      0.0000
 22      0.0000      0.0287      0.0000      0.0000      0.0194      0.0000      0.0000      0.0748      0.0000
 23      0.0000      0.0327      0.0000      0.0000      0.0000      0.0000      0.0000      0.0000      0.0000
 24      0.0000      0.0249      0.0000      0.0000      0.0000      0.0000      0.0000      0.0139      0.0000
 25      0.0000      0.0588      0.1015      0.0023      0.0000      0.0000      0.0000      0.0848      0.2261
 26      0.0000      0.1191      0.0000      0.3176      0.0000      0.3225      0.0548      0.1181      0.1168
 27      0.0000      0.1768      0.1349      0.3202      0.2322      0.0000      0.2790      0.3362      0.0711
 28      0.0000      0.0272      0.0000      0.1977      0.0000      0.0000      0.0000      0.0000      0.0223
 29      0.0000      0.0351      0.0000      0.0000      0.0367      0.0398      0.0040      0.0238      0.0000
 30      0.0000      0.0180      0.0000      0.0000      0.0052      0.0000      0.0000      0.0000      0.0000
 31      0.0000      0.0066      0.0000      0.0000      0.0000      0.0000      0.0000      0.0000      0.0000
 32      0.0000      0.0130      0.0000      0.0000      0.0347      0.0000      0.0000      0.0261      0.0000
 33      0.0000      0.0140      0.0000      0.0457      0.0000      0.0001      0.0000      0.0291      0.0490
 34      0.0000      0.0083      0.0012      0.0000      0.0000      0.0000      0.0000      0.0000      0.0000
 35      0.0000      0.0115      0.0090      0.0000      0.0000      0.0000      0.0000      0.0000      0.0000
 36      0.0000      0.0295      0.0000      0.0346      0.0000      0.0000      0.0000      0.0000      0.0913
 37      0.0000      0.0223      0.0181      0.0000      0.0000      0.0000      0.0810      0.0346      0.0000
 38      0.0000      0.0404      0.0610      0.0624      0.0000      0.1139      0.0000      0.0327      0.0373
 39      0.0000      0.0966      0.0000      0.1764      0.1284      0.0000      0.2776      0.0000      0.0126
 40      0.0000      0.2378      0.0000      0.3060      0.4323      0.2635      0.0000      0.3907      0.2843
 41      1.1864      0.3437      0.5878      0.3111      0.3803      0.5612      0.3397      0.3177      0.4170
 42      0.0000      0.0760      0.0000      0.0000      0.0930      0.1362      0.1292      0.1018      0.0000
 43      0.0000      0.2017      0.2588      0.1870      0.2285      0.1844      0.1150      0.2432      0.4096
 44      0.0000      0.0747      0.1396      0.1056      0.0000      0.0704      0.0904      0.0000      0.1012
 45      0.0000      0.0242      0.0000      0.0168      0.0853      0.0000      0.1410      0.0633      0.0000

# j      m_j: min, <> & last-chain-values for 1 ...  7 chains
  1  0.0000E+00  4.9221E-05  0.0000E+00  0.0000E+00  0.0000E+00  0.0000E+00  0.0000E+00  0.0000E+00  0.0000E+00
  2  5.0543E-02  4.6909E-02  4.7320E-02  4.7510E-02  4.8139E-02  4.7567E-02  4.6946E-02  4.6889E-02  4.7820E-02
  3  0.0000E+00  1.0713E-04  0.0000E+00  7.7178E-05  0.0000E+00  0.0000E+00  6.9520E-04  0.0000E+00  0.0000E+00
  4  1.7188E-02  1.9382E-02  1.9188E-02  2.0014E-02  2.0085E-02  2.0935E-02  1.9002E-02  2.1750E-02  2.0139E-02
  5  0.0000E+00  4.8244E-04  7.1352E-04  9.4533E-04  0.0000E+00  0.0000E+00  0.0000E+00  0.0000E+00  0.0000E+00
  6  0.0000E+00  8.6840E-04  3.2334E-04  0.0000E+00  0.0000E+00  3.4453E-03  0.0000E+00  1.2474E-03  0.0000E+00
  7  1.4467E-01  1.1235E-01  1.1939E-01  1.1709E-01  1.1430E-01  1.1552E-01  1.1486E-01  1.2065E-01  1.1310E-01
  8  0.0000E+00  3.6462E-03  0.0000E+00  1.0737E-03  0.0000E+00  0.0000E+00  6.9865E-03  0.0000E+00  0.0000E+00
  9  0.0000E+00  8.3803E-03  1.3498E-02  0.0000E+00  0.0000E+00  4.8511E-02  0.0000E+00  5.8000E-03  0.0000E+00
 10  0.0000E+00  4.1502E-02  1.0107E-01  1.1346E-01  1.3049E-01  7.8674E-02  5.9282E-02  2.3413E-02  1.1611E-01
 11  5.3506E+00  5.5550E+00  5.4771E+00  5.2761E+00  5.5946E+00  5.2595E+00  5.4012E+00  5.5568E+00  5.3286E+00
 12  9.2591E+01  8.7958E+01  8.8310E+01  8.7985E+01  8.8418E+01  8.9374E+01  8.7239E+01  8.8880E+01  8.8251E+01
 13  0.0000E+00  3.7784E-01  3.9765E-01  0.0000E+00  0.0000E+00  2.8858E-01  4.4339E-01  2.1515E-01  2.9902E-01
 14  0.0000E+00  3.2754E-01  3.2162E-01  5.3506E-01  0.0000E+00  1.7811E-01  0.0000E+00  2.0124E-02  5.8733E-02
 15  0.0000E+00  3.9501E-01  0.0000E+00  3.3746E-02  3.3084E-01  0.0000E+00  1.7160E-01  0.0000E+00  0.0000E+00
 16  0.0000E+00  4.7269E-05  0.0000E+00  0.0000E+00  0.0000E+00  0.0000E+00  0.0000E+00  0.0000E+00  0.0000E+00
 17  0.0000E+00  2.3064E-05  0.0000E+00  2.7092E-05  0.0000E+00  0.0000E+00  0.0000E+00  0.0000E+00  0.0000E+00
 18  0.0000E+00  2.2289E-04  3.4514E-04  0.0000E+00  0.0000E+00  5.2975E-04  0.0000E+00  2.0168E-04  0.0000E+00
 19  0.0000E+00  2.4244E-04  5.5773E-04  1.3958E-04  1.4988E-04  0.0000E+00  8.1512E-05  0.0000E+00  0.0000E+00
 20  0.0000E+00  4.7880E-04  0.0000E+00  0.0000E+00  0.0000E+00  0.0000E+00  0.0000E+00  0.0000E+00  3.7125E-05
 21  0.0000E+00  1.0180E-03  0.0000E+00  0.0000E+00  0.0000E+00  0.0000E+00  0.0000E+00  0.0000E+00  0.0000E+00
 22  0.0000E+00  2.2147E-03  0.0000E+00  0.0000E+00  1.5037E-03  0.0000E+00  0.0000E+00  5.8309E-03  0.0000E+00
 23  0.0000E+00  4.9693E-03  0.0000E+00  0.0000E+00  0.0000E+00  0.0000E+00  0.0000E+00  0.0000E+00  0.0000E+00
 24  0.0000E+00  8.6345E-03  0.0000E+00  0.0000E+00  0.0000E+00  0.0000E+00  0.0000E+00  4.8601E-03  0.0000E+00
 25  0.0000E+00  3.1435E-02  5.4275E-02  1.2106E-03  0.0000E+00  0.0000E+00  0.0000E+00  4.5730E-02  1.2098E-01
 26  0.0000E+00  1.2016E-01  0.0000E+00  3.2045E-01  0.0000E+00  3.2906E-01  5.4681E-02  1.2020E-01  1.1797E-01
 27  0.0000E+00  3.6201E-01  2.7624E-01  6.5561E-01  4.7800E-01  0.0000E+00  5.6473E-01  6.9446E-01  1.4568E-01
 28  0.0000E+00  1.1286E-01  0.0000E+00  8.1912E-01  0.0000E+00  0.0000E+00  0.0000E+00  0.0000E+00  9.2338E-02
 29  0.0000E+00  3.0795E-01  0.0000E+00  0.0000E+00  3.2369E-01  3.5274E-01  3.4480E-02  2.1015E-01  0.0000E+00
 30  0.0000E+00  1.8863E-01  0.0000E+00  0.0000E+00  5.4816E-02  0.0000E+00  0.0000E+00  0.0000E+00  0.0000E+00
 31  0.0000E+00  5.0294E-05  0.0000E+00  0.0000E+00  0.0000E+00  0.0000E+00  0.0000E+00  0.0000E+00  0.0000E+00
 32  0.0000E+00  5.1943E-05  0.0000E+00  0.0000E+00  1.3915E-04  0.0000E+00  0.0000E+00  1.0538E-04  0.0000E+00
 33  0.0000E+00  8.2906E-05  0.0000E+00  2.7099E-04  0.0000E+00  6.6619E-07  0.0000E+00  1.7410E-04  2.9063E-04
