###################################################################
## OUTPUT of StarlightChains_v04.for    [Cid@UFSC - 01/Apr/2007] ##
###################################################################

## Some input info
NGC104_a_1.cxt                           [arq_obs]
Base.BC03.N                              [arq_base]
NGC104_a_1.msk                           [arq_masks]
StCv04.C11.config                        [arq_config]
   45                                    [N_base]
    0                                    [N_YAV_components = # of components with extra extinction!]
    0                                    [i_FitPowerLaw (1/0 = Yes/No)]
-9.99                                    [alpha_PowerLaw]
CCM                                      [red_law_option]
 1.458241                                [q_norm = A(l_norm)/A(V)]

## (Re)Sampling Parameters
 3359.00                                 [l_ini (A)]
 6428.00                                 [l_fin (A)]
    1.00                                 [dl    (A)]     (OBS: dl_cushion =    50.00 A)

## Normalization info
 4020.00                                 [l_norm (A) - for base]
 4010.00                                 [llow_norm (A) - window for f_obs]
 4060.00                                 [lupp_norm (A) - window for f_obs]
2.050577E-13                             [fobs_norm (in input units)]

## S/N
 4730.00                                 [llow_SN (A) - window for S/N]
 4780.00                                 [lupp_SN (A) - window for S/N]
  43.784                                 [S/N in S/N window]
  33.933                                 [S/N in norm. window]
1000.000                                 [S/N_err in S/N window]
 775.022                                 [S/N_err in norm. window]
  1.0000                                 [fscale_chi2]

## etc...
 -2147483648                             [idum_orig]
  3067                                   [NOl_eff]
   252                                   [Nl_eff]
  2815    NSIGMA                         [Ntot_cliped & clip_method]
  4450040                                [Nglobal_steps]
   7                                     [N_chains]
   7                                     [NEX0s_base = N_base in EX0s-fits]
 0   0   1      254   2.0   1.654E+03    [Clip-Bug, RC-Crash & Burn-In warning-flags, n_censored_weights, wei_nsig_threshold & wei_limit]
    28     28.244     28.230      0.014  [idt_all, wdt_TotTime, wdt_UsrTime & wdt_SysTime (sec)]

## Synthesis Results - Best model ##

 3.19629E+00                             [chi2/Nl_eff]
     0.34247                             [adev (%)]

   101.50908                             [sum-of-x (%)]
 1.91147E-13                             [Flux_tot (units of input spectrum!)]
 6.14066E-09                             [Mini_tot (???)]
 3.24924E-09                             [Mcor_tot (???)]

 -25.41                                  [v0_min  (km/s)]
  60.23                                  [vd_min  (km/s)]
-0.0635                                  [AV_min  (mag)]
 0.0000                                  [YAV_min (mag)]

# j     x_j(%)      Mini_j(%)     Mcor_j(%)     age_j(yr)     Z_j      (L/M)_j    YAV?  Mstars   component_j        a/Fe...       SSP_chi2r SSP_adev(%)   SSP_AV   SSP_x(%)
  1      0.0000     0.0000E+00    0.0000E+00    1.000000E+06  0.00400  1.114E-02    0   1.0000   age020_m42            0.0000     1.5566E+04    18.5979   4.0000    78.1370
  2      4.6332     3.4883E-03    6.5918E-03    3.160000E+06  0.00400  4.073E-02    0   0.9999   age045_m42            0.0000     9.2459E+03    12.6775   3.1361    89.8421
  3      0.0000     0.0000E+00    0.0000E+00    5.010000E+06  0.00400  2.534E-02    0   0.9488   age055_m42            0.0000     1.1904E+04    15.6795   3.5108    84.1296
  4      1.4063     3.3931E-03    5.6827E-03    1.000000E+07  0.00400  1.271E-02    0   0.8862   age070_m42            0.0000     1.2521E+04    15.9674   2.7146    87.7596
  5      0.0000     0.0000E+00    0.0000E+00    2.512000E+07  0.00400  5.070E-03    0   0.8174   age090_m42            0.0000     1.1611E+04    15.2303   2.5853    89.2890
  6      0.0000     0.0000E+00    0.0000E+00    4.000000E+07  0.00400  3.505E-03    0   0.7851   age104_m42            0.0000     9.3338E+03    13.1760   2.2816    92.1550
  7      0.0000     0.0000E+00    0.0000E+00    1.015200E+08  0.00400  2.268E-03    0   0.7207   age116_m42            0.0000     1.4280E+04    10.8047   2.3962    98.4656
  8      0.0000     0.0000E+00    0.0000E+00    2.861200E+08  0.00400  1.079E-03    0   0.6613   age125_m42            0.0000     1.4193E+04    10.0986   1.9061   100.6590
  9      0.0000     0.0000E+00    0.0000E+00    6.405400E+08  0.00400  5.077E-04    0   0.6197   age132_m42            0.0000     1.4032E+04    10.1144   1.5374   104.8296
 10      0.0000     0.0000E+00    0.0000E+00    9.047900E+08  0.00400  3.535E-04    0   0.6024   age135_m42            0.0000     1.0202E+04     8.6228   1.2762   104.9527
 11      0.0000     0.0000E+00    0.0000E+00    1.434000E+09  0.00400  1.910E-04    0   0.5716   age139_m42            0.0000     4.8773E+03     5.7908   0.7230   104.9247
 12      5.3574     1.6733E+00    1.7276E+00    2.500000E+09  0.00400  9.818E-05    0   0.5463   age150_m42            0.0000     1.4281E+03     3.1610   0.4133   101.6161
 13     17.3801     1.1296E+01    1.1161E+01    5.000000E+09  0.00400  4.718E-05    0   0.5228   age161_m42            0.0000     5.2871E+02     2.2813   0.2197    99.1675
 14      9.5773     1.3319E+01    1.2536E+01    1.100000E+10  0.00400  2.205E-05    0   0.4980   age185_m42            0.0000     2.4660E+02     1.5119  -0.0589    97.8348
 15      0.0000     0.0000E+00    0.0000E+00    1.300000E+10  0.00400  1.883E-05    0   0.4927   age193_m42            0.0000     3.0606E+02     1.7193  -0.0802    97.8394
 16      0.0000     0.0000E+00    0.0000E+00    1.000000E+06  0.02000  1.989E-02    0   1.0000   age020_m62            0.0000     1.5522E+04    17.9302   4.0000    77.8355
 17      0.0000     0.0000E+00    0.0000E+00    3.160000E+06  0.02000  3.772E-02    0   0.9858   age045_m62            0.0000     1.4852E+04    17.8212   3.8622    79.9029
 18      0.7604     7.2262E-04    1.2758E-03    5.010000E+06  0.02000  3.227E-02    0   0.9342   age055_m62            0.0000     1.1118E+04    14.7662   3.3888    86.4441
 19      0.0000     0.0000E+00    0.0000E+00    1.000000E+07  0.02000  1.011E-02    0   0.8751   age070_m62            0.0000     1.9381E+04    20.0590   2.6675    84.9286
 20      0.0000     0.0000E+00    0.0000E+00    2.512000E+07  0.02000  4.206E-03    0   0.8099   age090_m62            0.0000     1.5291E+04    17.9669   2.6215    85.6950
 21      0.0000     0.0000E+00    0.0000E+00    4.000000E+07  0.02000  3.373E-03    0   0.7799   age104_m62            0.0000     1.1149E+04    13.2307   2.5063    92.9006
 22      0.0000     0.0000E+00    0.0000E+00    1.015200E+08  0.02000  1.878E-03    0   0.7221   age116_m62            0.0000     1.4372E+04    10.7983   2.4095    98.7358
 23      0.0000     0.0000E+00    0.0000E+00    2.861200E+08  0.02000  8.869E-04    0   0.6700   age125_m62            0.0000     1.8992E+04    11.3342   1.9417   104.3289
 24      0.0000     0.0000E+00    0.0000E+00    6.405400E+08  0.02000  3.657E-04    0   0.6322   age132_m62            0.0000     1.2107E+04     8.7169   1.2461   108.6415
 25      0.0000     0.0000E+00    0.0000E+00    9.047900E+08  0.02000  2.312E-04    0   0.6152   age135_m62            0.0000     6.9896E+03     6.6474   0.8401   109.0046
 26      0.0000     0.0000E+00    0.0000E+00    1.434000E+09  0.02000  1.168E-04    0   0.5865   age139_m62            0.0000     1.9018E+03     3.2602   0.3745   105.0168
 27      0.0000     0.0000E+00    0.0000E+00    2.500000E+09  0.02000  5.505E-05    0   0.5610   age150_m62            0.0000     2.9390E+02     1.4436  -0.0259   103.3016
 28     62.3943     7.3703E+01    7.4562E+01    5.000000E+09  0.02000  2.596E-05    0   0.5353   age161_m62            0.0000     6.9009E+02     3.5157  -0.3672   104.0041
 29      0.0000     0.0000E+00    0.0000E+00    1.100000E+10  0.02000  1.169E-05    0   0.5103   age185_m62            0.0000     2.3710E+03     6.0905  -0.7395   106.0331
 30      0.0000     0.0000E+00    0.0000E+00    1.300000E+10  0.02000  9.691E-06    0   0.5047   age193_m62            0.0000     2.7640E+03     6.4792  -0.7886   106.4329
 31      0.0000     0.0000E+00    0.0000E+00    1.000000E+06  0.05000  2.651E-02    0   0.9998   age020_m72            0.0000     1.4476E+04    17.2877   4.0000    78.8581
 32      0.0000     0.0000E+00    0.0000E+00    3.160000E+06  0.05000  4.817E-02    0   0.9577   age045_m72            0.0000     1.2524E+04    16.2361   3.7428    82.7316
 33      0.0000     0.0000E+00    0.0000E+00    5.010000E+06  0.05000  3.101E-02    0   0.9147   age055_m72            0.0000     1.2646E+04    16.2902   3.3600    85.4742
 34      0.0000     0.0000E+00    0.0000E+00    1.000000E+07  0.05000  8.954E-03    0   0.8524   age070_m72            0.0000     1.2360E+04    15.7106   3.6017    83.9283
 35      0.0000     0.0000E+00    0.0000E+00    2.512000E+07  0.05000  4.207E-03    0   0.7902   age090_m72            0.0000     1.0402E+04    13.4031   3.1964    88.7677
 36      0.0000     0.0000E+00    0.0000E+00    4.000000E+07  0.05000  3.198E-03    0   0.7618   age104_m72            0.0000     1.1650E+04    10.4640   2.7516    95.1747
 37      0.0000     0.0000E+00    0.0000E+00    1.015200E+08  0.05000  1.716E-03    0   0.7092   age116_m72            0.0000     1.5517E+04    10.9495   2.4922    98.8040
 38      0.0000     0.0000E+00    0.0000E+00    2.861200E+08  0.05000  7.047E-04    0   0.6618   age125_m72            0.0000     1.7167E+04    10.2862   1.7274   105.1011
 39      0.0000     0.0000E+00    0.0000E+00    6.405400E+08  0.05000  2.633E-04    0   0.6253   age132_m72            0.0000     8.3570E+03     6.9099   0.8418   109.2828
 40      0.0000     0.0000E+00    0.0000E+00    9.047900E+08  0.05000  1.484E-04    0   0.6088   age135_m72            0.0000     2.6275E+03     3.8529   0.3208   105.9095
 41      0.0000     0.0000E+00    0.0000E+00    1.434000E+09  0.05000  7.827E-05    0   0.5847   age139_m72            0.0000     6.6968E+02     2.8268  -0.1042   103.7783
 42      0.0000     0.0000E+00    0.0000E+00    2.500000E+09  0.05000  3.759E-05    0   0.5583   age150_m72            0.0000     9.7482E+02     4.1593  -0.4489   103.7972
 43      0.0000     0.0000E+00    0.0000E+00    5.000000E+09  0.05000  1.548E-05    0   0.5320   age161_m72            0.0000     2.4506E+03     5.8654  -0.8940   104.5472
 44      0.0000     0.0000E+00    0.0000E+00    1.100000E+10  0.05000  6.532E-06    0   0.5070   age185_m72            0.0000     7.4512E+03    10.2473  -1.0000    95.9139
 45      0.0000     0.0000E+00    0.0000E+00    1.300000E+10  0.05000  5.316E-06    0   0.5018   age193_m72            0.0000     1.0979E+04    12.3346  -1.0000    92.3109


## Synthesis Results - Average & Chains ##

# j      x_j: min, <> & last-chain-values for 1 ...  7 chains
  1      0.0000      0.0354      0.0726      0.0592      0.0422      0.0277      0.0734      0.0393      0.0286
  2      4.6332      4.4826      4.5253      4.5053      4.4782      4.4068      4.4940      4.5107      4.4702
  3      0.0000      0.0310      0.0104      0.0000      0.0818      0.0517      0.0000      0.0000      0.0372
  4      1.4063      1.3554      1.3006      1.3364      1.3218      1.4435      1.3450      1.3024      1.3568
  5      0.0000      0.0163      0.0278      0.0000      0.0396      0.0000      0.0000      0.0305      0.0000
  6      0.0000      0.0210      0.0000      0.0458      0.0058      0.0000      0.0211      0.0000      0.0246
  7      0.0000      0.0085      0.0000      0.0015      0.0151      0.0387      0.0000      0.0000      0.0030
  8      0.0000      0.0126      0.0000      0.0174      0.0000      0.0000      0.0000      0.0000      0.0040
  9      0.0000      0.0169      0.0511      0.0117      0.0000      0.0040      0.0000      0.1034      0.0233
 10      0.0000      0.0361      0.0328      0.0000      0.0000      0.0398      0.0629      0.0751      0.1182
 11      0.0000      0.0326      0.1150      0.0259      0.1287      0.0000      0.0000      0.0403      0.0000
 12      5.3574      4.9728      5.0541      4.9873      4.9756      5.4809      5.0481      4.8718      4.9997
 13     17.3801     16.7016     16.8571     16.9275     16.4552     16.7212     16.6585     16.7371     16.7657
 14      9.5773      9.4447      9.1170      9.4815      9.5666      9.3699      9.3088      9.4417      9.4816
 15      0.0000      0.5839      0.5763      0.4593      0.5977      0.5687      0.8718      0.5297      0.7025
 16      0.0000      0.0348      0.0383      0.0387      0.0637      0.0132      0.0894      0.0694      0.0481
 17      0.0000      0.0115      0.0171      0.0000      0.0000      0.0000      0.0000      0.1047      0.0000
 18      0.7604      0.7551      0.7719      0.7376      0.7402      0.7661      0.7494      0.6833      0.7623
 19      0.0000      0.0308      0.0277      0.0752      0.0354      0.0000      0.0000      0.0345      0.0215
 20      0.0000      0.0296      0.0570      0.0000      0.0292      0.0000      0.0000      0.0000      0.0279
 21      0.0000      0.0141      0.0000      0.0004      0.0412      0.0000      0.0103      0.0000      0.0074
 22      0.0000      0.0101      0.0418      0.0000      0.0000      0.0000      0.0000      0.0000      0.0150
 23      0.0000      0.0073      0.0000      0.0000      0.0497      0.0021      0.0554      0.0000      0.0000
 24      0.0000      0.0147      0.0428      0.0208      0.0868      0.0636      0.0000      0.0000      0.0408
 25      0.0000      0.0279      0.0825      0.0446      0.0000      0.0000      0.0358      0.0379      0.0166
 26      0.0000      0.0509      0.0073      0.0000      0.0254      0.1282      0.0400      0.0819      0.0493
 27      0.0000      0.1541      0.0000      0.0417      0.2529      0.0389      0.0584      0.2069      0.1161
 28     62.3943     59.4196     59.8690     59.2813     59.4035     61.5314     59.6257     59.6592     59.8468
 29      0.0000      0.2553      0.2868      0.1685      0.3220      0.0605      0.3207      0.2404      0.1184
 30      0.0000      0.5563      0.5227      0.8396      0.5902      0.0522      0.4825      0.4866      0.5320
 31      0.0000      0.0080      0.0000      0.0294      0.0000      0.0159      0.0000      0.0324      0.0425
 32      0.0000      0.0145      0.0127      0.0000      0.0000      0.0033      0.0000      0.0000      0.0000
 33      0.0000      0.0082      0.0000      0.0122      0.0000      0.0000      0.0000      0.0000      0.0000
 34      0.0000      0.0109      0.0000      0.0172      0.0126      0.0273      0.0358      0.0000      0.0040
 35      0.0000      0.0168      0.0022      0.0000      0.0000      0.0376      0.0000      0.0000      0.0000
 36      0.0000      0.0088      0.0047      0.0319      0.0000      0.0000      0.0000      0.0000      0.0000
 37      0.0000      0.0095      0.0000      0.0000      0.0000      0.0132      0.0140      0.0000      0.0000
 38      0.0000      0.0101      0.0000      0.0403      0.0000      0.0246      0.0606      0.0000      0.0000
 39      0.0000      0.0403      0.0000      0.0128      0.0000      0.0138      0.0000      0.0977      0.0782
 40      0.0000      0.0580      0.0000      0.0186      0.0000      0.0000      0.0534      0.0862      0.0000
 41      0.0000      1.7695      1.5253      1.9404      1.7465      0.2858      1.6485      1.5823      1.5310
 42      0.0000      0.3522      0.3697      0.2610      0.3271      0.1394      0.3344      0.3683      0.0836
 43      0.0000      0.0657      0.0581      0.0012      0.0785      0.0862      0.0058      0.0724      0.1523
 44      0.0000      0.0078      0.0332      0.0329      0.0000      0.0335      0.0000      0.0001      0.0000
 45      0.0000      0.0082      0.0181      0.0000      0.0000      0.0255      0.0000      0.0000      0.0000

# j      m_j: min, <> & last-chain-values for 1 ...  7 chains
  1  0.0000E+00  1.8342E-04  3.7565E-04  3.0608E-04  2.1828E-04  1.4374E-04  3.7989E-04  2.0390E-04  1.4794E-04
  2  6.5918E-03  6.3555E-03  6.4054E-03  6.3675E-03  6.3343E-03  6.2528E-03  6.3647E-03  6.4034E-03  6.3318E-03
  3  0.0000E+00  6.6959E-05  2.2446E-05  0.0000E+00  1.7647E-04  1.1189E-04  0.0000E+00  0.0000E+00  8.0452E-05
  4  5.6827E-03  5.4578E-03  5.2286E-03  5.3644E-03  5.3104E-03  5.8171E-03  5.4103E-03  5.2512E-03  5.4585E-03
  5  0.0000E+00  1.5141E-04  2.5807E-04  0.0000E+00  3.6814E-04  0.0000E+00  0.0000E+00  2.8434E-04  0.0000E+00
  6  0.0000E+00  2.7221E-04  0.0000E+00  5.9093E-04  7.4533E-05  0.0000E+00  2.7223E-04  0.0000E+00  3.1835E-04
  7  0.0000E+00  1.5608E-04  0.0000E+00  2.7294E-05  2.7623E-04  7.1027E-04  0.0000E+00  0.0000E+00  5.4830E-05
  8  0.0000E+00  4.4591E-04  0.0000E+00  6.1562E-04  0.0000E+00  0.0000E+00  0.0000E+00  0.0000E+00  1.4157E-04
  9  0.0000E+00  1.1915E-03  3.5940E-03  8.2420E-04  0.0000E+00  2.7988E-04  0.0000E+00  7.2985E-03  1.6426E-03
 10  0.0000E+00  3.5569E-03  3.2217E-03  0.0000E+00  0.0000E+00  3.9169E-03  6.1868E-03  7.4023E-03  1.1624E-02
 11  0.0000E+00  5.6425E-03  1.9837E-02  4.4644E-03  2.2196E-02  0.0000E+00  0.0000E+00  6.9807E-03  0.0000E+00
 12  1.7276E+00  1.5980E+00  1.6214E+00  1.5976E+00  1.5952E+00  1.7627E+00  1.6205E+00  1.5676E+00  1.6051E+00
 13  1.1161E+01  1.0688E+01  1.0770E+01  1.0799E+01  1.0506E+01  1.0709E+01  1.0649E+01  1.0725E+01  1.0719E+01
 14  1.2536E+01  1.2319E+01  1.1872E+01  1.2328E+01  1.2449E+01  1.2231E+01  1.2129E+01  1.2331E+01  1.2355E+01
 15  0.0000E+00  8.8239E-01  8.6945E-01  6.9183E-01  9.0103E-01  8.6003E-01  1.3159E+00  8.0152E-01  1.0605E+00
 16  0.0000E+00  1.0093E-04  1.1091E-04  1.1213E-04  1.8460E-04  3.8250E-05  2.5924E-04  2.0185E-04  1.3939E-04
 17  0.0000E+00  1.7422E-05  2.5835E-05  0.0000E+00  0.0000E+00  0.0000E+00  0.0000E+00  1.5824E-04  0.0000E+00
 18  1.2758E-03  1.2625E-03  1.2883E-03  1.2294E-03  1.2347E-03  1.2819E-03  1.2516E-03  1.1438E-03  1.2733E-03
 19  0.0000E+00  1.5398E-04  1.3841E-04  3.7465E-04  1.7636E-04  0.0000E+00  0.0000E+00  1.7271E-04  1.0713E-04
 20  0.0000E+00  3.2955E-04  6.3252E-04  0.0000E+00  3.2398E-04  0.0000E+00  0.0000E+00  0.0000E+00  3.1029E-04
 21  0.0000E+00  1.8858E-04  0.0000E+00  5.2287E-06  5.4843E-04  0.0000E+00  1.3700E-04  0.0000E+00  9.8989E-05
 22  0.0000E+00  2.2463E-04  9.2643E-04  0.0000E+00  0.0000E+00  0.0000E+00  0.0000E+00  0.0000E+00  3.3321E-04
 23  0.0000E+00  3.1889E-04  0.0000E+00  0.0000E+00  2.1654E-03  9.2488E-05  2.4128E-03  0.0000E+00  0.0000E+00
 24  0.0000E+00  1.4716E-03  4.2665E-03  2.0702E-03  8.6507E-03  6.3588E-03  0.0000E+00  0.0000E+00  4.0707E-03
 25  0.0000E+00  4.2903E-03  1.2659E-02  6.8366E-03  0.0000E+00  0.0000E+00  5.4912E-03  5.8354E-03  2.5491E-03
 26  0.0000E+00  1.4770E-02  2.1145E-03  0.0000E+00  7.3356E-03  3.7206E-02  1.1575E-02  2.3780E-02  1.4275E-02
 27  0.0000E+00  9.0722E-02  0.0000E+00  2.4456E-02  1.4852E-01  2.2895E-02  3.4337E-02  1.2193E-01  6.8235E-02
 28  7.4562E+01  7.0762E+01  7.1178E+01  7.0373E+01  7.0577E+01  7.3334E+01  7.0929E+01  7.1138E+01  7.1202E+01
 29  0.0000E+00  6.4371E-01  7.2189E-01  4.2348E-01  8.0981E-01  1.5276E-01  8.0753E-01  6.0690E-01  2.9826E-01
 30  0.0000E+00  1.6733E+00  1.5696E+00  2.5172E+00  1.7710E+00  1.5723E-01  1.4497E+00  1.4655E+00  1.5984E+00
 31  0.0000E+00  1.7474E-05  0.0000E+00  6.3826E-05  0.0000E+00  3.4675E-05  0.0000E+00  7.0732E-05  9.2518E-05
 32  0.0000E+00  1.6663E-05  1.4546E-05  0.0000E+00  0.0000E+00  3.8080E-06  0.0000E+00  0.0000E+00  0.0000E+00
 33  0.0000E+00  1.3934E-05  0.0000E+00  2.0774E-05  0.0000E+00  0.0000E+00  0.0000E+00  0.0000E+00  0.0000E+00
