###################################################################
## OUTPUT of StarlightChains_v04.for    [Cid@UFSC - 01/Apr/2007] ##
###################################################################

## Some input info
NGC2298_b_1.cxt                          [arq_obs]
Base.BC03.N                              [arq_base]
NGC2298_b_1.msk                          [arq_masks]
StCv04.C11.config                        [arq_config]
   45                                    [N_base]
    0                                    [N_YAV_components = # of components with extra extinction!]
    0                                    [i_FitPowerLaw (1/0 = Yes/No)]
-9.99                                    [alpha_PowerLaw]
CCM                                      [red_law_option]
 1.458241                                [q_norm = A(l_norm)/A(V)]

## (Re)Sampling Parameters
 3359.00                                 [l_ini (A)]
 6428.00                                 [l_fin (A)]
    1.00                                 [dl    (A)]     (OBS: dl_cushion =    50.00 A)

## Normalization info
 4020.00                                 [l_norm (A) - for base]
 4010.00                                 [llow_norm (A) - window for f_obs]
 4060.00                                 [lupp_norm (A) - window for f_obs]
6.358602E-15                             [fobs_norm (in input units)]

## S/N
 4730.00                                 [llow_SN (A) - window for S/N]
 4780.00                                 [lupp_SN (A) - window for S/N]
 100.550                                 [S/N in S/N window]
  93.926                                 [S/N in norm. window]
 257.092                                 [S/N_err in S/N window]
 240.154                                 [S/N_err in norm. window]
  1.0000                                 [fscale_chi2]

## etc...
  2147483643                             [idum_orig]
  3065                                   [NOl_eff]
   928                                   [Nl_eff]
  2137    NSIGMA                         [Ntot_cliped & clip_method]
   967820                                [Nglobal_steps]
   7                                     [N_chains]
   8                                     [NEX0s_base = N_base in EX0s-fits]
 0   0   1      257   2.0   5.053E+02    [Clip-Bug, RC-Crash & Burn-In warning-flags, n_censored_weights, wei_nsig_threshold & wei_limit]
    11     11.552     11.552      0.000  [idt_all, wdt_TotTime, wdt_UsrTime & wdt_SysTime (sec)]

## Synthesis Results - Best model ##

 2.56766E+00                             [chi2/Nl_eff]
     0.64411                             [adev (%)]

   101.84333                             [sum-of-x (%)]
 3.05934E-14                             [Flux_tot (units of input spectrum!)]
 1.06734E-10                             [Mini_tot (???)]
 5.98599E-11                             [Mcor_tot (???)]

  -8.27                                  [v0_min  (km/s)]
 117.22                                  [vd_min  (km/s)]
 1.1561                                  [AV_min  (mag)]
 0.0000                                  [YAV_min (mag)]

# j     x_j(%)      Mini_j(%)     Mcor_j(%)     age_j(yr)     Z_j      (L/M)_j    YAV?  Mstars   component_j        a/Fe...       SSP_chi2r SSP_adev(%)   SSP_AV   SSP_x(%)
  1      0.0000     0.0000E+00    0.0000E+00    1.000000E+06  0.00400  1.114E-02    0   1.0000   age020_m42            0.0000     9.8667E+02     9.4448   3.6316    79.4028
  2     20.5241     1.4182E-01    2.5285E-01    3.160000E+06  0.00400  4.073E-02    0   0.9999   age045_m42            0.0000     1.5197E+02     3.8744   2.6926    93.0312
  3      0.0000     0.0000E+00    0.0000E+00    5.010000E+06  0.00400  2.534E-02    0   0.9488   age055_m42            0.0000     4.6156E+02     6.6024   3.0835    86.9978
  4     10.0538     2.2263E-01    3.5178E-01    1.000000E+07  0.00400  1.271E-02    0   0.8862   age070_m42            0.0000     3.9748E+02     6.6642   2.2912    90.7816
  5      0.0000     0.0000E+00    0.0000E+00    2.512000E+07  0.00400  5.070E-03    0   0.8174   age090_m42            0.0000     3.3243E+02     6.0546   2.1655    92.1889
  6      0.0000     0.0000E+00    0.0000E+00    4.000000E+07  0.00400  3.505E-03    0   0.7851   age104_m42            0.0000     1.6381E+02     4.1356   1.8572    94.9072
  7     14.9917     1.8604E+00    2.3907E+00    1.015200E+08  0.00400  2.268E-03    0   0.7207   age116_m42            0.0000     2.7110E+02     4.3721   1.8920   103.4830
  8      0.0000     0.0000E+00    0.0000E+00    2.861200E+08  0.00400  1.079E-03    0   0.6613   age125_m42            0.0000     3.5038E+02     5.2995   1.4078   105.1339
  9      0.9280     5.1442E-01    5.6841E-01    6.405400E+08  0.00400  5.077E-04    0   0.6197   age132_m42            0.0000     3.9247E+02     5.5407   1.0496   109.0324
 10     35.1086     2.7952E+01    3.0024E+01    9.047900E+08  0.00400  3.535E-04    0   0.6024   age135_m42            0.0000     2.2911E+02     4.5715   0.8107   108.1173
 11      4.1133     6.0611E+00    6.1774E+00    1.434000E+09  0.00400  1.910E-04    0   0.5716   age139_m42            0.0000     1.7650E+02     4.6715   0.2906   106.2287
 12     10.6293     3.0470E+01    2.9681E+01    2.500000E+09  0.00400  9.818E-05    0   0.5463   age150_m42            0.0000     2.3143E+02     4.5230   0.0151   101.3923
 13      5.4946     3.2777E+01    3.0554E+01    5.000000E+09  0.00400  4.718E-05    0   0.5228   age161_m42            0.0000     3.3888E+02     4.9358  -0.1527    97.9650
 14      0.0000     0.0000E+00    0.0000E+00    1.100000E+10  0.00400  2.205E-05    0   0.4980   age185_m42            0.0000     6.0489E+02     6.4510  -0.4059    95.3704
 15      0.0000     0.0000E+00    0.0000E+00    1.300000E+10  0.00400  1.883E-05    0   0.4927   age193_m42            0.0000     6.4446E+02     6.6311  -0.4219    95.1500
 16      0.0000     0.0000E+00    0.0000E+00    1.000000E+06  0.02000  1.989E-02    0   1.0000   age020_m62            0.0000     9.8826E+02     9.4603   3.5935    80.0973
 17      0.0000     0.0000E+00    0.0000E+00    3.160000E+06  0.02000  3.772E-02    0   0.9858   age045_m62            0.0000     8.7079E+02     8.9509   3.4560    82.2949
 18      0.0000     0.0000E+00    0.0000E+00    5.010000E+06  0.02000  3.227E-02    0   0.9342   age055_m62            0.0000     2.7944E+02     5.1290   2.9476    89.7694
 19      0.0000     0.0000E+00    0.0000E+00    1.000000E+07  0.02000  1.011E-02    0   0.8751   age070_m62            0.0000     1.0793E+03    11.1589   2.2934    87.2197
 20      0.0000     0.0000E+00    0.0000E+00    2.512000E+07  0.02000  4.206E-03    0   0.8099   age090_m62            0.0000     7.3711E+02     8.9328   2.2336    88.0577
 21      0.0000     0.0000E+00    0.0000E+00    4.000000E+07  0.02000  3.373E-03    0   0.7799   age104_m62            0.0000     1.1201E+02     3.6126   2.0701    96.4039
 22      0.0000     0.0000E+00    0.0000E+00    1.015200E+08  0.02000  1.878E-03    0   0.7221   age116_m62            0.0000     1.8013E+02     3.2323   1.9106   103.9950
 23      0.0000     0.0000E+00    0.0000E+00    2.861200E+08  0.02000  8.869E-04    0   0.6700   age125_m62            0.0000     6.9114E+02     7.1148   1.4205   110.0351
 24      0.0000     0.0000E+00    0.0000E+00    6.405400E+08  0.02000  3.657E-04    0   0.6322   age132_m62            0.0000     5.3454E+02     7.2594   0.7551   112.5101
 25      0.0000     0.0000E+00    0.0000E+00    9.047900E+08  0.02000  2.312E-04    0   0.6152   age135_m62            0.0000     3.5561E+02     6.4879   0.3785   111.4560
 26      0.0000     0.0000E+00    0.0000E+00    1.434000E+09  0.02000  1.168E-04    0   0.5865   age139_m62            0.0000     2.9885E+02     5.5319  -0.0430   105.5383
 27      0.0000     0.0000E+00    0.0000E+00    2.500000E+09  0.02000  5.505E-05    0   0.5610   age150_m62            0.0000     5.3358E+02     6.6631  -0.4097   102.2395
 28      0.0000     0.0000E+00    0.0000E+00    5.000000E+09  0.02000  2.596E-05    0   0.5353   age161_m62            0.0000     9.5080E+02     8.7360  -0.7259   101.4782
 29      0.0000     0.0000E+00    0.0000E+00    1.100000E+10  0.02000  1.169E-05    0   0.5103   age185_m62            0.0000     1.4356E+03    10.5036  -1.0000   100.0780
 30      0.0000     0.0000E+00    0.0000E+00    1.300000E+10  0.02000  9.691E-06    0   0.5047   age193_m62            0.0000     1.5471E+03    10.7817  -1.0000    98.9580
 31      0.0000     0.0000E+00    0.0000E+00    1.000000E+06  0.05000  2.651E-02    0   0.9998   age020_m72            0.0000     9.1739E+02     9.0049   3.5994    80.9148
 32      0.0000     0.0000E+00    0.0000E+00    3.160000E+06  0.05000  4.817E-02    0   0.9577   age045_m72            0.0000     5.9691E+02     7.2987   3.3194    85.4577
 33      0.0000     0.0000E+00    0.0000E+00    5.010000E+06  0.05000  3.101E-02    0   0.9147   age055_m72            0.0000     5.4005E+02     7.0993   2.9521    88.1508
 34      0.0000     0.0000E+00    0.0000E+00    1.000000E+07  0.05000  8.954E-03    0   0.8524   age070_m72            0.0000     5.8545E+02     7.1579   3.1924    86.6396
 35      0.0000     0.0000E+00    0.0000E+00    2.512000E+07  0.05000  4.207E-03    0   0.7902   age090_m72            0.0000     2.2079E+02     4.4990   2.7680    91.9998
 36      0.0000     0.0000E+00    0.0000E+00    4.000000E+07  0.05000  3.198E-03    0   0.7618   age104_m72            0.0000     7.2582E+01     2.2913   2.2779    99.7006
 37      0.0000     0.0000E+00    0.0000E+00    1.015200E+08  0.05000  1.716E-03    0   0.7092   age116_m72            0.0000     2.6269E+02     4.0294   2.0007   104.0649
 38      0.0000     0.0000E+00    0.0000E+00    2.861200E+08  0.05000  7.047E-04    0   0.6618   age125_m72            0.0000     7.0629E+02     7.5878   1.2204   110.1462
 39      0.0000     0.0000E+00    0.0000E+00    6.405400E+08  0.05000  2.633E-04    0   0.6253   age132_m72            0.0000     4.8294E+02     7.3588   0.3777   111.7336
 40      0.0000     0.0000E+00    0.0000E+00    9.047900E+08  0.05000  1.484E-04    0   0.6088   age135_m72            0.0000     4.3372E+02     6.7976  -0.1041   106.3511
 41      0.0000     0.0000E+00    0.0000E+00    1.434000E+09  0.05000  7.827E-05    0   0.5847   age139_m72            0.0000     7.0014E+02     7.9788  -0.4877   102.3488
 42      0.0000     0.0000E+00    0.0000E+00    2.500000E+09  0.05000  3.759E-05    0   0.5583   age150_m72            0.0000     1.0288E+03     9.1981  -0.8018   101.0478
 43      0.0000     0.0000E+00    0.0000E+00    5.000000E+09  0.05000  1.548E-05    0   0.5320   age161_m72            0.0000     1.5617E+03    10.8088  -1.0000    94.5371
 44      0.0000     0.0000E+00    0.0000E+00    1.100000E+10  0.05000  6.532E-06    0   0.5070   age185_m72            0.0000     2.7241E+03    14.3735  -1.0000    83.7768
 45      0.0000     0.0000E+00    0.0000E+00    1.300000E+10  0.05000  5.316E-06    0   0.5018   age193_m72            0.0000     3.2196E+03    15.6902  -1.0000    80.5907


## Synthesis Results - Average & Chains ##

# j      x_j: min, <> & last-chain-values for 1 ...  7 chains
  1      0.0000      0.0086      0.0314      0.0000      0.0727      0.0000      0.0000      0.0000      0.0000
  2     20.5241     19.4793     19.4121     19.3947     19.5884     19.8562     19.9664     19.7328     19.6575
  3      0.0000      0.0653      0.3348      0.1176      0.0000      0.0206      0.0000      0.0000      0.0170
  4     10.0538      9.3505      9.1384      9.1790      9.2829      9.3197      9.7164      9.4735      9.3989
  5      0.0000      0.1516      0.0606      0.3895      0.0608      0.0000      0.0672      0.4129      0.3405
  6      0.0000      0.0653      0.0000      0.0000      0.0406      0.0000      0.0204      0.0000      0.0000
  7     14.9917     14.9205     14.8436     14.9736     15.0373     15.0298     14.8299     15.0819     15.0192
  8      0.0000      0.0989      0.8653      0.0000      0.2406      0.0000      0.0000      0.0000      0.0900
  9      0.9280      0.7224      0.7943      0.8980      0.8969      0.7953      0.8058      0.6415      0.6581
 10     35.1086     34.2298     33.8711     34.2195     34.3005     34.3789     34.6658     34.5000     34.2647
 11      4.1133      5.1407      5.1260      5.2054      4.7568      4.8266      4.7925      4.9108      5.1365
 12     10.6293     10.6443     10.4560     10.5300     10.6152     10.6795     10.6214     10.5233     10.7036
 13      5.4946      5.4261      5.3939      5.2972      5.3464      5.4712      5.3003      5.4065      5.3710
 14      0.0000      0.0095      0.0000      0.0000      0.0082      0.0000      0.0000      0.0000      0.0000
 15      0.0000      0.0030      0.0000      0.0000      0.0107      0.0000      0.0000      0.0000      0.0000
 16      0.0000      0.0092      0.0179      0.0000      0.0000      0.0691      0.0000      0.0000      0.0000
 17      0.0000      0.0165      0.0503      0.0000      0.0000      0.0000      0.0000      0.0088      0.0000
 18      0.0000      0.1273      0.2662      0.1654      0.3093      0.0862      0.1037      0.1183      0.0701
 19      0.0000      0.1238      0.1158      0.1923      0.0000      0.0000      0.0000      0.0744      0.0000
 20      0.0000      0.0222      0.0000      0.0000      0.0000      0.0000      0.0000      0.0000      0.0382
 21      0.0000      0.1147      0.1091      0.2261      0.0000      0.0000      0.0000      0.0512      0.0000
 22      0.0000      0.1296      0.0000      0.1766      0.3142      0.1873      0.0000      0.0110      0.0000
 23      0.0000      0.0260      0.0074      0.0000      0.0114      0.0000      0.0000      0.0000      0.0351
 24      0.0000      0.0102      0.0000      0.0000      0.0323      0.0000      0.0000      0.0072      0.0000
 25      0.0000      0.0105      0.0000      0.0000      0.0000      0.0000      0.0000      0.0000      0.0000
 26      0.0000      0.0152      0.0119      0.0000      0.0000      0.0000      0.0000      0.0000      0.0047
 27      0.0000      0.0039      0.0000      0.0000      0.0000      0.0000      0.0000      0.0094      0.0015
 28      0.0000      0.0087      0.0000      0.0000      0.0000      0.0000      0.0266      0.0000      0.0000
 29      0.0000      0.0161      0.0000      0.0000      0.0000      0.0000      0.0000      0.0089      0.0000
 30      0.0000      0.0148      0.0000      0.0000      0.0000      0.0000      0.0000      0.0000      0.0000
 31      0.0000      0.0073      0.0000      0.0000      0.0518      0.0000      0.0000      0.0199      0.0147
 32      0.0000      0.0352      0.0000      0.0000      0.2346      0.0190      0.0011      0.0000      0.0000
 33      0.0000      0.0885      0.1302      0.1486      0.0000      0.2771      0.0534      0.0000      0.1655
 34      0.0000      0.0148      0.0000      0.0000      0.0439      0.0074      0.0797      0.0000      0.0000
 35      0.0000      0.0131      0.0000      0.0000      0.0000      0.0000      0.0000      0.0000      0.0000
 36      0.0000      0.1532      0.0995      0.2128      0.0000      0.2621      0.1513      0.0000      0.2777
 37      0.0000      0.2680      0.3883      0.2036      0.2861      0.2432      0.3662      0.5845      0.3118
 38      0.0000      0.0369      0.0000      0.0000      0.0000      0.0109      0.0000      0.0000      0.0000
 39      0.0000      0.0119      0.0000      0.0000      0.0000      0.0000      0.0000      0.0000      0.0000
 40      0.0000      0.0066      0.0000      0.0209      0.0000      0.0000      0.0000      0.0000      0.0000
 41      0.0000      0.0052      0.0000      0.0000      0.0000      0.0034      0.0000      0.0000      0.0000
 42      0.0000      0.0069      0.0453      0.0437      0.0000      0.0000      0.0000      0.0000      0.0236
 43      0.0000      0.0830      0.0485      0.0988      0.1229      0.0994      0.0706      0.0756      0.0768
 44      0.0000      0.1234      0.1648      0.1158      0.1376      0.1337      0.1072      0.1534      0.1265
 45      0.0000      0.1275      0.1407      0.1256      0.1446      0.1826      0.1893      0.1204      0.1320

# j      m_j: min, <> & last-chain-values for 1 ...  7 chains
  1  0.0000E+00  3.4025E-04  1.2425E-03  0.0000E+00  2.8692E-03  0.0000E+00  0.0000E+00  0.0000E+00  0.0000E+00
  2  2.5285E-01  2.1066E-01  2.0986E-01  2.1305E-01  2.1136E-01  2.1077E-01  2.1546E-01  2.1495E-01  2.1429E-01
  3  0.0000E+00  1.0774E-03  5.5205E-03  1.9709E-03  0.0000E+00  3.3332E-04  0.0000E+00  0.0000E+00  2.8240E-04
  4  3.5178E-01  2.8721E-01  2.8059E-01  2.8638E-01  2.8448E-01  2.8097E-01  2.9780E-01  2.9309E-01  2.9100E-01
  5  0.0000E+00  1.0765E-02  4.3052E-03  2.8096E-02  4.3118E-03  0.0000E+00  4.7612E-03  2.9535E-02  2.4373E-02
  6  0.0000E+00  6.4402E-03  0.0000E+00  0.0000E+00  3.9939E-03  0.0000E+00  2.0095E-03  0.0000E+00  0.0000E+00
  7  2.3907E+00  2.0887E+00  2.0772E+00  2.1291E+00  2.1002E+00  2.0651E+00  2.0715E+00  2.1265E+00  2.1193E+00
  8  0.0000E+00  2.6697E-02  2.3353E-01  0.0000E+00  6.4818E-02  0.0000E+00  0.0000E+00  0.0000E+00  2.4506E-02
  9  5.6841E-01  3.8843E-01  4.2697E-01  4.9048E-01  4.8117E-01  4.1972E-01  4.3234E-01  3.4745E-01  3.5669E-01
 10  3.0024E+01  2.5696E+01  2.5418E+01  2.6093E+01  2.5691E+01  2.5331E+01  2.5967E+01  2.6086E+01  2.5928E+01
 11  6.1774E+00  6.7773E+00  6.7555E+00  6.9707E+00  6.2570E+00  6.2455E+00  6.3044E+00  6.5210E+00  6.8257E+00
 12  2.9681E+01  2.6092E+01  2.5621E+01  2.6218E+01  2.5961E+01  2.5694E+01  2.5979E+01  2.5981E+01  2.6446E+01
 13  3.0554E+01  2.6487E+01  2.6321E+01  2.6265E+01  2.6039E+01  2.6214E+01  2.5817E+01  2.6582E+01  2.6428E+01
 14  0.0000E+00  9.4929E-02  0.0000E+00  0.0000E+00  8.1686E-02  0.0000E+00  0.0000E+00  0.0000E+00  0.0000E+00
 15  0.0000E+00  3.4270E-02  0.0000E+00  0.0000E+00  1.2334E-01  0.0000E+00  0.0000E+00  0.0000E+00  0.0000E+00
 16  0.0000E+00  2.0384E-04  3.9613E-04  0.0000E+00  0.0000E+00  1.5031E-03  0.0000E+00  0.0000E+00  0.0000E+00
 17  0.0000E+00  1.8991E-04  5.7896E-04  0.0000E+00  0.0000E+00  0.0000E+00  0.0000E+00  1.0240E-04  0.0000E+00
 18  0.0000E+00  1.6237E-03  3.3942E-03  2.1429E-03  3.9357E-03  1.0786E-03  1.3193E-03  1.5194E-03  9.0101E-04
 19  0.0000E+00  4.7213E-03  4.4123E-03  7.4489E-03  0.0000E+00  0.0000E+00  0.0000E+00  2.8579E-03  0.0000E+00
 20  0.0000E+00  1.8801E-03  0.0000E+00  0.0000E+00  0.0000E+00  0.0000E+00  0.0000E+00  0.0000E+00  3.2652E-03
 21  0.0000E+00  1.1679E-02  1.1104E-02  2.3390E-02  0.0000E+00  0.0000E+00  0.0000E+00  5.2517E-03  0.0000E+00
 22  0.0000E+00  2.1951E-02  0.0000E+00  3.0380E-02  5.3107E-02  3.1137E-02  0.0000E+00  1.8824E-03  0.0000E+00
 23  0.0000E+00  8.6515E-03  2.4481E-03  0.0000E+00  3.7808E-03  0.0000E+00  0.0000E+00  0.0000E+00  1.1787E-02
 24  0.0000E+00  7.7674E-03  0.0000E+00  0.0000E+00  2.4572E-02  0.0000E+00  0.0000E+00  5.5286E-03  0.0000E+00
 25  0.0000E+00  1.2262E-02  0.0000E+00  0.0000E+00  0.0000E+00  0.0000E+00  0.0000E+00  0.0000E+00  0.0000E+00
 26  0.0000E+00  3.3590E-02  2.6383E-02  0.0000E+00  0.0000E+00  0.0000E+00  0.0000E+00  0.0000E+00  1.0455E-02
 27  0.0000E+00  1.7499E-02  0.0000E+00  0.0000E+00  0.0000E+00  0.0000E+00  0.0000E+00  4.2278E-02  6.7053E-03
 28  0.0000E+00  7.9338E-02  0.0000E+00  0.0000E+00  0.0000E+00  0.0000E+00  2.4107E-01  0.0000E+00  0.0000E+00
 29  0.0000E+00  3.0943E-01  0.0000E+00  0.0000E+00  0.0000E+00  0.0000E+00  0.0000E+00  1.7328E-01  0.0000E+00
 30  0.0000E+00  3.3970E-01  0.0000E+00  0.0000E+00  0.0000E+00  0.0000E+00  0.0000E+00  0.0000E+00  0.0000E+00
 31  0.0000E+00  1.2199E-04  0.0000E+00  0.0000E+00  8.5922E-04  0.0000E+00  0.0000E+00  3.3264E-04  2.4657E-04
 32  0.0000E+00  3.0862E-04  0.0000E+00  0.0000E+00  2.0502E-03  1.6355E-04  9.4817E-06  0.0000E+00  0.0000E+00
 33  0.0000E+00  1.1499E-03  1.6909E-03  1.9617E-03  0.0000E+00  3.5347E-03  6.9225E-04  0.0000E+00  2.1674E-03
