###################################################################
## OUTPUT of StarlightChains_v04.for    [Cid@UFSC - 01/Apr/2007] ##
###################################################################

## Some input info
NGC2808_b_1.cxt                          [arq_obs]
Base.BC03.N                              [arq_base]
NGC2808_b_1.msk                          [arq_masks]
StCv04.C11.config                        [arq_config]
   45                                    [N_base]
    0                                    [N_YAV_components = # of components with extra extinction!]
    0                                    [i_FitPowerLaw (1/0 = Yes/No)]
-9.99                                    [alpha_PowerLaw]
CCM                                      [red_law_option]
 1.458241                                [q_norm = A(l_norm)/A(V)]

## (Re)Sampling Parameters
 3359.00                                 [l_ini (A)]
 6428.00                                 [l_fin (A)]
    1.00                                 [dl    (A)]     (OBS: dl_cushion =    50.00 A)

## Normalization info
 4020.00                                 [l_norm (A) - for base]
 4010.00                                 [llow_norm (A) - window for f_obs]
 4060.00                                 [lupp_norm (A) - window for f_obs]
3.144042E-14                             [fobs_norm (in input units)]

## S/N
 4730.00                                 [llow_SN (A) - window for S/N]
 4780.00                                 [lupp_SN (A) - window for S/N]
  65.329                                 [S/N in S/N window]
  51.114                                 [S/N in norm. window]
 151.759                                 [S/N_err in S/N window]
 118.738                                 [S/N_err in norm. window]
  1.0000                                 [fscale_chi2]

## etc...
  2147483641                             [idum_orig]
  3069                                   [NOl_eff]
  1110                                   [Nl_eff]
  1959    NSIGMA                         [Ntot_cliped & clip_method]
   697200                                [Nglobal_steps]
   7                                     [N_chains]
   7                                     [NEX0s_base = N_base in EX0s-fits]
 0   0   1      256   2.0   2.496E+02    [Clip-Bug, RC-Crash & Burn-In warning-flags, n_censored_weights, wei_nsig_threshold & wei_limit]
     9      9.308      9.296      0.012  [idt_all, wdt_TotTime, wdt_UsrTime & wdt_SysTime (sec)]

## Synthesis Results - Best model ##

 2.56649E+00                             [chi2/Nl_eff]
     1.41621                             [adev (%)]

   102.83672                             [sum-of-x (%)]
 8.57569E-14                             [Flux_tot (units of input spectrum!)]
 9.70760E-10                             [Mini_tot (???)]
 5.19754E-10                             [Mcor_tot (???)]

  -2.36                                  [v0_min  (km/s)]
  88.29                                  [vd_min  (km/s)]
 0.7263                                  [AV_min  (mag)]
 0.0000                                  [YAV_min (mag)]

# j     x_j(%)      Mini_j(%)     Mcor_j(%)     age_j(yr)     Z_j      (L/M)_j    YAV?  Mstars   component_j        a/Fe...       SSP_chi2r SSP_adev(%)   SSP_AV   SSP_x(%)
  1      0.0000     0.0000E+00    0.0000E+00    1.000000E+06  0.00400  1.114E-02    0   1.0000   age020_m42            0.0000     3.6221E+02    13.9913   4.0000    83.4737
  2      8.4645     1.7852E-02    3.3340E-02    3.160000E+06  0.00400  4.073E-02    0   0.9999   age045_m42            0.0000     9.1861E+01     6.9493   3.2030    95.1068
  3      0.6122     2.0752E-03    3.6775E-03    5.010000E+06  0.00400  2.534E-02    0   0.9488   age055_m42            0.0000     1.6892E+02    10.0195   3.6135    88.7614
  4      9.2073     6.2229E-02    1.0300E-01    1.000000E+07  0.00400  1.271E-02    0   0.8862   age070_m42            0.0000     1.5980E+02     9.7010   2.8366    92.2186
  5      0.0000     0.0000E+00    0.0000E+00    2.512000E+07  0.00400  5.070E-03    0   0.8174   age090_m42            0.0000     1.3760E+02     9.0444   2.7000    93.9236
  6      0.0000     0.0000E+00    0.0000E+00    4.000000E+07  0.00400  3.505E-03    0   0.7851   age104_m42            0.0000     9.0534E+01     7.1943   2.3688    97.1021
  7      0.0000     0.0000E+00    0.0000E+00    1.015200E+08  0.00400  2.268E-03    0   0.7207   age116_m42            0.0000     3.4412E+02     9.8601   2.3231   107.0768
  8      0.0000     0.0000E+00    0.0000E+00    2.861200E+08  0.00400  1.079E-03    0   0.6613   age125_m42            0.0000     3.7429E+02    10.5414   1.8189   109.6952
  9      0.0000     0.0000E+00    0.0000E+00    6.405400E+08  0.00400  5.077E-04    0   0.6197   age132_m42            0.0000     3.9997E+02    10.9867   1.4530   113.8905
 10      0.0000     0.0000E+00    0.0000E+00    9.047900E+08  0.00400  3.535E-04    0   0.6024   age135_m42            0.0000     2.6148E+02     8.9450   1.2136   113.0308
 11      0.0000     0.0000E+00    0.0000E+00    1.434000E+09  0.00400  1.910E-04    0   0.5716   age139_m42            0.0000     1.2054E+02     6.4823   0.6715   111.8554
 12     51.7615     4.5289E+01    4.6210E+01    2.500000E+09  0.00400  9.818E-05    0   0.5463   age150_m42            0.0000     3.2263E+01     3.8701   0.3894   107.1750
 13     28.5576     5.1996E+01    5.0772E+01    5.000000E+09  0.00400  4.718E-05    0   0.5228   age161_m42            0.0000     2.6315E+01     3.5787   0.2228   103.7360
 14      0.0000     0.0000E+00    0.0000E+00    1.100000E+10  0.00400  2.205E-05    0   0.4980   age185_m42            0.0000     7.6796E+01     5.5943  -0.0585   101.8594
 15      0.0000     0.0000E+00    0.0000E+00    1.300000E+10  0.00400  1.883E-05    0   0.4927   age193_m42            0.0000     8.5917E+01     5.8969  -0.0766   101.7316
 16      0.0000     0.0000E+00    0.0000E+00    1.000000E+06  0.02000  1.989E-02    0   1.0000   age020_m62            0.0000     3.4990E+02    13.6764   4.0000    83.7123
 17      0.0000     0.0000E+00    0.0000E+00    3.160000E+06  0.02000  3.772E-02    0   0.9858   age045_m62            0.0000     2.9605E+02    12.7721   3.9904    84.0146
 18      1.8396     4.8971E-03    8.5446E-03    5.010000E+06  0.02000  3.227E-02    0   0.9342   age055_m62            0.0000     1.3070E+02     8.6303   3.4605    91.6439
 19      0.0000     0.0000E+00    0.0000E+00    1.000000E+07  0.02000  1.011E-02    0   0.8751   age070_m62            0.0000     3.6671E+02    14.3769   2.8603    88.4157
 20      0.0000     0.0000E+00    0.0000E+00    2.512000E+07  0.02000  4.206E-03    0   0.8099   age090_m62            0.0000     2.6042E+02    12.2966   2.7739    89.6797
 21      0.0000     0.0000E+00    0.0000E+00    4.000000E+07  0.02000  3.373E-03    0   0.7799   age104_m62            0.0000     1.1715E+02     7.4618   2.5670    98.7419
 22      0.0000     0.0000E+00    0.0000E+00    1.015200E+08  0.02000  1.878E-03    0   0.7221   age116_m62            0.0000     3.0174E+02     9.3632   2.3555   107.3637
 23      0.0000     0.0000E+00    0.0000E+00    2.861200E+08  0.02000  8.869E-04    0   0.6700   age125_m62            0.0000     6.1033E+02    13.4150   1.8115   115.2006
 24      0.0000     0.0000E+00    0.0000E+00    6.405400E+08  0.02000  3.657E-04    0   0.6322   age132_m62            0.0000     4.0156E+02    11.4131   1.1007   119.2871
 25      0.0000     0.0000E+00    0.0000E+00    9.047900E+08  0.02000  2.312E-04    0   0.6152   age135_m62            0.0000     2.2629E+02     8.7041   0.7298   117.9335
 26      0.0000     0.0000E+00    0.0000E+00    1.434000E+09  0.02000  1.168E-04    0   0.5865   age139_m62            0.0000     6.6609E+01     5.1942   0.3166   111.7639
 27      0.0000     0.0000E+00    0.0000E+00    2.500000E+09  0.02000  5.505E-05    0   0.5610   age150_m62            0.0000     7.5065E+01     5.8011  -0.0705   108.9065
 28      0.0000     0.0000E+00    0.0000E+00    5.000000E+09  0.02000  2.596E-05    0   0.5353   age161_m62            0.0000     1.8033E+02     8.4361  -0.4300   109.3528
 29      0.0000     0.0000E+00    0.0000E+00    1.100000E+10  0.02000  1.169E-05    0   0.5103   age185_m62            0.0000     3.3112E+02    11.0544  -0.8266   111.4391
 30      0.0000     0.0000E+00    0.0000E+00    1.300000E+10  0.02000  9.691E-06    0   0.5047   age193_m62            0.0000     3.6253E+02    11.5058  -0.8778   111.7968
 31      0.0000     0.0000E+00    0.0000E+00    1.000000E+06  0.05000  2.651E-02    0   0.9998   age020_m72            0.0000     3.2496E+02    13.0991   4.0000    84.6314
 32      0.0000     0.0000E+00    0.0000E+00    3.160000E+06  0.05000  4.817E-02    0   0.9577   age045_m72            0.0000     2.1031E+02    10.9120   3.8433    87.2758
 33      0.0000     0.0000E+00    0.0000E+00    5.010000E+06  0.05000  3.101E-02    0   0.9147   age055_m72            0.0000     1.9573E+02    10.6351   3.4856    89.8234
 34      0.0000     0.0000E+00    0.0000E+00    1.000000E+07  0.05000  8.954E-03    0   0.8524   age070_m72            0.0000     1.9958E+02    10.5233   3.7191    88.6140
 35      0.0000     0.0000E+00    0.0000E+00    2.512000E+07  0.05000  4.207E-03    0   0.7902   age090_m72            0.0000     1.1226E+02     7.8124   3.2632    94.4986
 36      0.0000     0.0000E+00    0.0000E+00    4.000000E+07  0.05000  3.198E-03    0   0.7618   age104_m72            0.0000     1.8086E+02     7.3294   2.7237   103.0682
 37      0.0000     0.0000E+00    0.0000E+00    1.015200E+08  0.05000  1.716E-03    0   0.7092   age116_m72            0.0000     3.5738E+02    10.1471   2.4332   107.7571
 38      0.0000     0.0000E+00    0.0000E+00    2.861200E+08  0.05000  7.047E-04    0   0.6618   age125_m72            0.0000     5.7773E+02    13.2571   1.5868   115.9744
 39      0.0000     0.0000E+00    0.0000E+00    6.405400E+08  0.05000  2.633E-04    0   0.6253   age132_m72            0.0000     3.0266E+02    10.0961   0.7139   118.6488
 40      0.0000     0.0000E+00    0.0000E+00    9.047900E+08  0.05000  1.484E-04    0   0.6088   age135_m72            0.0000     1.2448E+02     7.1402   0.2252   113.3759
 41      2.3940     2.6275E+00    2.8694E+00    1.434000E+09  0.05000  7.827E-05    0   0.5847   age139_m72            0.0000     1.2238E+02     7.3156  -0.1836   109.9028
 42      0.0000     0.0000E+00    0.0000E+00    2.500000E+09  0.05000  3.759E-05    0   0.5583   age150_m72            0.0000     2.0081E+02     8.9722  -0.5217   109.3232
 43      0.0000     0.0000E+00    0.0000E+00    5.000000E+09  0.05000  1.548E-05    0   0.5320   age161_m72            0.0000     3.3264E+02    11.0190  -0.9636   109.5470
 44      0.0000     0.0000E+00    0.0000E+00    1.100000E+10  0.05000  6.532E-06    0   0.5070   age185_m72            0.0000     6.2379E+02    14.7156  -1.0000   102.1042
 45      0.0000     0.0000E+00    0.0000E+00    1.300000E+10  0.05000  5.316E-06    0   0.5018   age193_m72            0.0000     7.8887E+02    16.9012  -1.0000    99.4348


## Synthesis Results - Average & Chains ##

# j      x_j: min, <> & last-chain-values for 1 ...  7 chains
  1      0.0000      0.0045      0.0000      0.0000      0.0000      0.0000      0.0000      0.0000      0.0000
  2      8.4645      6.3950      6.5055      6.5570      6.5212      6.4935      6.3603      6.8088      6.3754
  3      0.6122      1.2036      1.1978      1.1336      1.0514      1.1539      1.4344      1.1423      1.2963
  4      9.2073      9.2488      9.2547      9.3974      9.5290      9.4999      9.1666      9.4183      9.2186
  5      0.0000      0.0480      0.0000      0.0000      0.0000      0.0000      0.0167      0.0000      0.0000
  6      0.0000      0.0259      0.1104      0.0000      0.0027      0.0000      0.1682      0.0000      0.0016
  7      0.0000      0.0848      0.0109      0.1844      0.0000      0.1227      0.1341      0.0000      0.1476
  8      0.0000      0.0266      0.0000      0.0000      0.0033      0.0000      0.0000      0.0000      0.0000
  9      0.0000      0.0316      0.0000      0.0000      0.0000      0.0753      0.0000      0.0000      0.0000
 10      0.0000      0.0623      0.1155      0.0638      0.0000      0.3176      0.0000      0.2902      0.0603
 11      0.0000      0.1061      0.0000      0.0531      0.0000      0.0892      0.4105      0.1784      0.0000
 12     51.7615     52.7972     52.5863     53.5568     53.5813     51.8623     52.8852     53.3898     52.9835
 13     28.5576     27.1838     28.0373     26.6532     27.4859     27.8356     27.3638     27.0692     27.8132
 14      0.0000      0.0671      0.0000      0.0000      0.0235      0.1527      0.0000      0.0000      0.0000
 15      0.0000      0.0467      0.0000      0.0229      0.0000      0.0247      0.0000      0.0000      0.0000
 16      0.0000      0.0047      0.0000      0.0000      0.0000      0.0000      0.0000      0.0000      0.0000
 17      0.0000      0.0043      0.0078      0.0000      0.0000      0.0000      0.0000      0.0253      0.0000
 18      1.8396      2.4647      2.4954      2.5024      2.3394      2.4754      2.4440      2.2492      2.4669
 19      0.0000      0.0105      0.0000      0.0000      0.0000      0.0000      0.0000      0.0000      0.0000
 20      0.0000      0.0083      0.0000      0.0000      0.0000      0.0000      0.0000      0.0062      0.0000
 21      0.0000      0.0247      0.0000      0.0000      0.0000      0.0000      0.0000      0.0000      0.0000
 22      0.0000      0.0243      0.0000      0.0000      0.0000      0.0030      0.0000      0.0000      0.0000
 23      0.0000      0.0084      0.0000      0.0000      0.0000      0.0000      0.0176      0.0000      0.0000
 24      0.0000      0.0121      0.0000      0.0064      0.0000      0.0000      0.0000      0.0000      0.0000
 25      0.0000      0.0390      0.0000      0.0000      0.0000      0.0000      0.0000      0.0000      0.0135
 26      0.0000      0.1207      0.0000      0.0000      0.0000      0.4253      0.0000      0.0000      0.1794
 27      0.0000      0.3109      0.0000      0.4030      0.2300      0.3840      0.5033      0.0000      0.3024
 28      0.0000      0.0488      0.0125      0.0202      0.0000      0.0000      0.0000      0.0000      0.0000
 29      0.0000      0.0251      0.0000      0.0000      0.0000      0.1638      0.0000      0.0000      0.0000
 30      0.0000      0.0184      0.0000      0.0000      0.0000      0.0000      0.0000      0.0000      0.0000
 31      0.0000      0.0035      0.0000      0.0000      0.0040      0.0000      0.0000      0.0000      0.0000
 32      0.0000      0.0068      0.0000      0.0000      0.0000      0.0000      0.0000      0.0000      0.0000
 33      0.0000      0.0175      0.0000      0.0000      0.0000      0.0000      0.0000      0.0000      0.0000
 34      0.0000      0.0078      0.0000      0.0000      0.0000      0.0000      0.0000      0.0000      0.0000
 35      0.0000      0.0072      0.0000      0.0273      0.0000      0.0000      0.0000      0.0000      0.0000
 36      0.0000      0.0144      0.0638      0.0000      0.0000      0.0000      0.0000      0.0000      0.0000
 37      0.0000      0.0247      0.0000      0.0000      0.0120      0.0000      0.0000      0.0000      0.0000
 38      0.0000      0.0145      0.0000      0.0000      0.0000      0.0000      0.0000      0.0000      0.0000
 39      0.0000      0.0412      0.2113      0.0000      0.0000      0.0000      0.0000      0.0000      0.1592
 40      0.0000      0.0878      0.0000      0.3032      0.1446      0.0000      0.0000      0.0000      0.0000
 41      2.3940      1.4539      1.4196      1.2910      1.2991      0.9739      1.2895      1.3546      1.0686
 42      0.0000      0.0661      0.1256      0.0000      0.0000      0.0000      0.1362      0.0000      0.1440
 43      0.0000      0.2162      0.1537      0.1955      0.2226      0.3983      0.1706      0.4778      0.3087
 44      0.0000      0.3231      0.3216      0.4473      0.3880      0.3224      0.3841      0.3566      0.2789
 45      0.0000      0.2027      0.2399      0.1248      0.0919      0.1337      0.0000      0.1540      0.1165

# j      m_j: min, <> & last-chain-values for 1 ...  7 chains
  1  0.0000E+00  6.0839E-05  0.0000E+00  0.0000E+00  0.0000E+00  0.0000E+00  0.0000E+00  0.0000E+00  0.0000E+00
  2  3.3340E-02  2.3427E-02  2.3817E-02  2.4248E-02  2.4137E-02  2.3624E-02  2.3941E-02  2.5032E-02  2.3647E-02
  3  3.6775E-03  6.7249E-03  6.6883E-03  6.3937E-03  5.9354E-03  6.4030E-03  8.2348E-03  6.4051E-03  7.3336E-03
  4  1.0300E-01  9.6230E-02  9.6228E-02  9.8702E-02  1.0017E-01  9.8160E-02  9.7999E-02  9.8343E-02  9.7115E-02
  5  0.0000E+00  1.1538E-03  0.0000E+00  0.0000E+00  0.0000E+00  0.0000E+00  4.1390E-04  0.0000E+00  0.0000E+00
  6  0.0000E+00  8.6546E-04  3.6886E-03  0.0000E+00  9.1617E-05  0.0000E+00  5.7784E-03  0.0000E+00  5.3638E-05
  7  0.0000E+00  4.0191E-03  5.1633E-04  8.8287E-03  0.0000E+00  5.7779E-03  6.5320E-03  0.0000E+00  7.0843E-03
  8  0.0000E+00  2.4341E-03  0.0000E+00  0.0000E+00  3.0867E-04  0.0000E+00  0.0000E+00  0.0000E+00  0.0000E+00
  9  0.0000E+00  5.7551E-03  0.0000E+00  0.0000E+00  0.0000E+00  1.3620E-02  0.0000E+00  0.0000E+00  0.0000E+00
 10  0.0000E+00  1.5849E-02  2.9364E-02  1.6381E-02  0.0000E+00  8.0208E-02  0.0000E+00  7.4053E-02  1.5535E-02
 11  0.0000E+00  4.7367E-02  0.0000E+00  2.3957E-02  0.0000E+00  3.9552E-02  1.8835E-01  7.9941E-02  0.0000E+00
 12  4.6210E+01  4.3839E+01  4.3635E+01  4.4890E+01  4.4950E+01  4.2765E+01  4.5120E+01  4.4489E+01  4.4544E+01
 13  5.0772E+01  4.4950E+01  4.6331E+01  4.4489E+01  4.5920E+01  4.5710E+01  4.6492E+01  4.4920E+01  4.6566E+01
 14  0.0000E+00  2.2618E-01  0.0000E+00  0.0000E+00  7.9961E-02  5.1112E-01  0.0000E+00  0.0000E+00  0.0000E+00
 15  0.0000E+00  1.8218E-01  0.0000E+00  9.0391E-02  0.0000E+00  9.5618E-02  0.0000E+00  0.0000E+00  0.0000E+00
 16  0.0000E+00  3.5486E-05  0.0000E+00  0.0000E+00  0.0000E+00  0.0000E+00  0.0000E+00  0.0000E+00  0.0000E+00
 17  0.0000E+00  1.6588E-05  3.0386E-05  0.0000E+00  0.0000E+00  0.0000E+00  0.0000E+00  9.8977E-05  0.0000E+00
 18  8.5446E-03  1.0647E-02  1.0773E-02  1.0913E-02  1.0211E-02  1.0620E-02  1.0848E-02  9.7512E-03  1.0790E-02
 19  0.0000E+00  1.3626E-04  0.0000E+00  0.0000E+00  0.0000E+00  0.0000E+00  0.0000E+00  0.0000E+00  0.0000E+00
 20  0.0000E+00  2.3758E-04  0.0000E+00  0.0000E+00  0.0000E+00  0.0000E+00  0.0000E+00  1.7932E-04  0.0000E+00
 21  0.0000E+00  8.5339E-04  0.0000E+00  0.0000E+00  0.0000E+00  0.0000E+00  0.0000E+00  0.0000E+00  0.0000E+00
 22  0.0000E+00  1.3917E-03  0.0000E+00  0.0000E+00  0.0000E+00  1.6949E-04  0.0000E+00  0.0000E+00  0.0000E+00
 23  0.0000E+00  9.5248E-04  0.0000E+00  0.0000E+00  0.0000E+00  0.0000E+00  2.0425E-03  0.0000E+00  0.0000E+00
 24  0.0000E+00  3.1336E-03  0.0000E+00  1.6701E-03  0.0000E+00  0.0000E+00  0.0000E+00  0.0000E+00  0.0000E+00
 25  0.0000E+00  1.5471E-02  0.0000E+00  0.0000E+00  0.0000E+00  0.0000E+00  0.0000E+00  0.0000E+00  5.4252E-03
 26  0.0000E+00  9.0463E-02  0.0000E+00  0.0000E+00  0.0000E+00  3.1647E-01  0.0000E+00  0.0000E+00  1.3615E-01
 27  0.0000E+00  4.7271E-01  0.0000E+00  6.1858E-01  3.5342E-01  5.7985E-01  7.8641E-01  0.0000E+00  4.6554E-01
 28  0.0000E+00  1.5028E-01  3.8443E-02  6.2783E-02  0.0000E+00  0.0000E+00  0.0000E+00  0.0000E+00  0.0000E+00
 29  0.0000E+00  1.6347E-01  0.0000E+00  0.0000E+00  0.0000E+00  1.0594E+00  0.0000E+00  0.0000E+00  0.0000E+00
 30  0.0000E+00  1.4336E-01  0.0000E+00  0.0000E+00  0.0000E+00  0.0000E+00  0.0000E+00  0.0000E+00  0.0000E+00
 31  0.0000E+00  1.9973E-05  0.0000E+00  0.0000E+00  2.2780E-05  0.0000E+00  0.0000E+00  0.0000E+00  0.0000E+00
 32  0.0000E+00  2.0083E-05  0.0000E+00  0.0000E+00  0.0000E+00  0.0000E+00  0.0000E+00  0.0000E+00  0.0000E+00
 33  0.0000E+00  7.7229E-05  0.0000E+00  0.0000E+00  0.0000E+00  0.0000E+00  0.0000E+00  0.0000E+00  0.0000E+00
