###################################################################
## OUTPUT of StarlightChains_v04.for    [Cid@UFSC - 01/Apr/2007] ##
###################################################################

## Some input info
NGC2808_a_1.cxt                          [arq_obs]
Base.BC03.N                              [arq_base]
NGC2808_a_1.msk                          [arq_masks]
StCv04.C11.config                        [arq_config]
   45                                    [N_base]
    0                                    [N_YAV_components = # of components with extra extinction!]
    0                                    [i_FitPowerLaw (1/0 = Yes/No)]
-9.99                                    [alpha_PowerLaw]
CCM                                      [red_law_option]
 1.458241                                [q_norm = A(l_norm)/A(V)]

## (Re)Sampling Parameters
 3359.00                                 [l_ini (A)]
 6428.00                                 [l_fin (A)]
    1.00                                 [dl    (A)]     (OBS: dl_cushion =    50.00 A)

## Normalization info
 4020.00                                 [l_norm (A) - for base]
 4010.00                                 [llow_norm (A) - window for f_obs]
 4060.00                                 [lupp_norm (A) - window for f_obs]
8.660000E-14                             [fobs_norm (in input units)]

## S/N
 4730.00                                 [llow_SN (A) - window for S/N]
 4780.00                                 [lupp_SN (A) - window for S/N]
  64.505                                 [S/N in S/N window]
  51.490                                 [S/N in norm. window]
 409.712                                 [S/N_err in S/N window]
 327.043                                 [S/N_err in norm. window]
  1.0000                                 [fscale_chi2]

## etc...
  2147483642                             [idum_orig]
  3069                                   [NOl_eff]
   538                                   [Nl_eff]
  2531    NSIGMA                         [Ntot_cliped & clip_method]
  4218480                                [Nglobal_steps]
   7                                     [N_chains]
   9                                     [NEX0s_base = N_base in EX0s-fits]
 0   0   1      258   2.0   6.880E+02    [Clip-Bug, RC-Crash & Burn-In warning-flags, n_censored_weights, wei_nsig_threshold & wei_limit]
    32     31.970     31.966      0.004  [idt_all, wdt_TotTime, wdt_UsrTime & wdt_SysTime (sec)]

## Synthesis Results - Best model ##

 2.84988E+00                             [chi2/Nl_eff]
     0.51431                             [adev (%)]

   102.20709                             [sum-of-x (%)]
 2.44448E-13                             [Flux_tot (units of input spectrum!)]
 2.47378E-09                             [Mini_tot (???)]
 1.32988E-09                             [Mcor_tot (???)]

  -9.68                                  [v0_min  (km/s)]
  73.91                                  [vd_min  (km/s)]
 0.7564                                  [AV_min  (mag)]
 0.0000                                  [YAV_min (mag)]

# j     x_j(%)      Mini_j(%)     Mcor_j(%)     age_j(yr)     Z_j      (L/M)_j    YAV?  Mstars   component_j        a/Fe...       SSP_chi2r SSP_adev(%)   SSP_AV   SSP_x(%)
  1      0.0000     0.0000E+00    0.0000E+00    1.000000E+06  0.00400  1.114E-02    0   1.0000   age020_m42            0.0000     2.3125E+03    12.5475   4.0000    81.4543
  2     10.3409     2.4546E-02    4.5656E-02    3.160000E+06  0.00400  4.073E-02    0   0.9999   age045_m42            0.0000     6.0842E+02     6.3724   3.1208    94.5544
  3      1.5873     6.0563E-03    1.0689E-02    5.010000E+06  0.00400  2.534E-02    0   0.9488   age055_m42            0.0000     1.1412E+03     9.2847   3.5085    88.2329
  4      6.7462     5.1317E-02    8.4594E-02    1.000000E+07  0.00400  1.271E-02    0   0.8862   age070_m42            0.0000     1.0494E+03     9.1409   2.7265    91.8759
  5      0.6074     1.1583E-02    1.7612E-02    2.512000E+07  0.00400  5.070E-03    0   0.8174   age090_m42            0.0000     8.8772E+02     8.4616   2.6009    93.4339
  6      0.0000     0.0000E+00    0.0000E+00    4.000000E+07  0.00400  3.505E-03    0   0.7851   age104_m42            0.0000     5.5834E+02     6.5306   2.2898    96.4067
  7      0.0177     7.5650E-04    1.0142E-03    1.015200E+08  0.00400  2.268E-03    0   0.7207   age116_m42            0.0000     2.1553E+03     8.7448   2.3076   105.8821
  8      0.0000     0.0000E+00    0.0000E+00    2.861200E+08  0.00400  1.079E-03    0   0.6613   age125_m42            0.0000     2.3354E+03     9.2775   1.8225   107.8647
  9      0.0000     0.0000E+00    0.0000E+00    6.405400E+08  0.00400  5.077E-04    0   0.6197   age132_m42            0.0000     2.5661E+03     9.8525   1.4626   111.6822
 10      0.5999     1.6408E-01    1.8387E-01    9.047900E+08  0.00400  3.535E-04    0   0.6024   age135_m42            0.0000     1.6736E+03     8.0969   1.2181   111.0721
 11      0.0000     0.0000E+00    0.0000E+00    1.434000E+09  0.00400  1.910E-04    0   0.5716   age139_m42            0.0000     7.7549E+02     6.1542   0.6860   110.2577
 12     61.6766     6.0735E+01    6.1720E+01    2.500000E+09  0.00400  9.818E-05    0   0.5463   age150_m42            0.0000     2.2030E+02     4.0435   0.4000   105.9966
 13     19.0325     3.9002E+01    3.7929E+01    5.000000E+09  0.00400  4.718E-05    0   0.5228   age161_m42            0.0000     2.0270E+02     3.6455   0.2283   102.7724
 14      0.0000     0.0000E+00    0.0000E+00    1.100000E+10  0.00400  2.205E-05    0   0.4980   age185_m42            0.0000     5.8387E+02     5.5770  -0.0367   100.8906
 15      0.0000     0.0000E+00    0.0000E+00    1.300000E+10  0.00400  1.883E-05    0   0.4927   age193_m42            0.0000     6.4584E+02     5.8381  -0.0542   100.7418
 16      0.0000     0.0000E+00    0.0000E+00    1.000000E+06  0.02000  1.989E-02    0   1.0000   age020_m62            0.0000     2.2776E+03    12.4105   4.0000    81.4291
 17      0.0000     0.0000E+00    0.0000E+00    3.160000E+06  0.02000  3.772E-02    0   0.9858   age045_m62            0.0000     2.0074E+03    11.8470   3.8794    83.2920
 18      1.5984     4.7889E-03    8.3219E-03    5.010000E+06  0.02000  3.227E-02    0   0.9342   age055_m62            0.0000     8.1370E+02     7.8583   3.3687    91.2060
 19      0.0000     0.0000E+00    0.0000E+00    1.000000E+07  0.02000  1.011E-02    0   0.8751   age070_m62            0.0000     2.3817E+03    13.3724   2.7643    87.7385
 20      0.0000     0.0000E+00    0.0000E+00    2.512000E+07  0.02000  4.206E-03    0   0.8099   age090_m62            0.0000     1.6515E+03    11.1778   2.6963    88.7781
 21      0.0000     0.0000E+00    0.0000E+00    4.000000E+07  0.02000  3.373E-03    0   0.7799   age104_m62            0.0000     6.4364E+02     6.2190   2.5159    97.8285
 22      0.0000     0.0000E+00    0.0000E+00    1.015200E+08  0.02000  1.878E-03    0   0.7221   age116_m62            0.0000     1.8345E+03     8.0673   2.3414   106.0343
 23      0.0000     0.0000E+00    0.0000E+00    2.861200E+08  0.02000  8.869E-04    0   0.6700   age125_m62            0.0000     3.8660E+03    11.7603   1.8499   112.5206
 24      0.0000     0.0000E+00    0.0000E+00    6.405400E+08  0.02000  3.657E-04    0   0.6322   age132_m62            0.0000     2.6209E+03    10.5103   1.1625   116.3534
 25      0.0000     0.0000E+00    0.0000E+00    9.047900E+08  0.02000  2.312E-04    0   0.6152   age135_m62            0.0000     1.4990E+03     8.4521   0.7783   115.7489
 26      0.0000     0.0000E+00    0.0000E+00    1.434000E+09  0.02000  1.168E-04    0   0.5865   age139_m62            0.0000     4.8637E+02     5.4930   0.3593   110.1840
 27      0.0000     0.0000E+00    0.0000E+00    2.500000E+09  0.02000  5.505E-05    0   0.5610   age150_m62            0.0000     6.1990E+02     6.3306  -0.0161   107.5538
 28      0.0000     0.0000E+00    0.0000E+00    5.000000E+09  0.02000  2.596E-05    0   0.5353   age161_m62            0.0000     1.4332E+03     9.1486  -0.3515   107.9237
 29      0.0000     0.0000E+00    0.0000E+00    1.100000E+10  0.02000  1.169E-05    0   0.5103   age185_m62            0.0000     2.5604E+03    11.9016  -0.7166   109.6764
 30      0.0000     0.0000E+00    0.0000E+00    1.300000E+10  0.02000  9.691E-06    0   0.5047   age193_m62            0.0000     2.7841E+03    12.3371  -0.7632   109.9663
 31      0.0000     0.0000E+00    0.0000E+00    1.000000E+06  0.05000  2.651E-02    0   0.9998   age020_m72            0.0000     2.1002E+03    11.8089   4.0000    82.3638
 32      0.0000     0.0000E+00    0.0000E+00    3.160000E+06  0.05000  4.817E-02    0   0.9577   age045_m72            0.0000     1.3843E+03    10.0184   3.7406    86.6745
 33      0.0000     0.0000E+00    0.0000E+00    5.010000E+06  0.05000  3.101E-02    0   0.9147   age055_m72            0.0000     1.2354E+03     9.6099   3.3961    89.1882
 34      0.0000     0.0000E+00    0.0000E+00    1.000000E+07  0.05000  8.954E-03    0   0.8524   age070_m72            0.0000     1.2738E+03     9.4223   3.6393    87.6221
 35      0.0000     0.0000E+00    0.0000E+00    2.512000E+07  0.05000  4.207E-03    0   0.7902   age090_m72            0.0000     6.5376E+02     6.7100   3.2136    93.4161
 36      0.0000     0.0000E+00    0.0000E+00    4.000000E+07  0.05000  3.198E-03    0   0.7618   age104_m72            0.0000     1.0745E+03     6.1531   2.7192   101.7904
 37      0.0000     0.0000E+00    0.0000E+00    1.015200E+08  0.05000  1.716E-03    0   0.7092   age116_m72            0.0000     2.2218E+03     8.9082   2.4451   106.1249
 38      0.0000     0.0000E+00    0.0000E+00    2.861200E+08  0.05000  7.047E-04    0   0.6618   age125_m72            0.0000     3.7286E+03    11.8214   1.6503   113.2010
 39      0.0000     0.0000E+00    0.0000E+00    6.405400E+08  0.05000  2.633E-04    0   0.6253   age132_m72            0.0000     2.0405E+03     9.7500   0.7859   116.1455
 40      0.0000     0.0000E+00    0.0000E+00    9.047900E+08  0.05000  1.484E-04    0   0.6088   age135_m72            0.0000     9.1709E+02     7.5068   0.2901   111.6008
 41      0.0000     0.0000E+00    0.0000E+00    1.434000E+09  0.05000  7.827E-05    0   0.5847   age139_m72            0.0000     1.0211E+03     8.1332  -0.1024   108.3446
 42      0.0000     0.0000E+00    0.0000E+00    2.500000E+09  0.05000  3.759E-05    0   0.5583   age150_m72            0.0000     1.6472E+03     9.8808  -0.4260   107.7568
 43      0.0000     0.0000E+00    0.0000E+00    5.000000E+09  0.05000  1.548E-05    0   0.5320   age161_m72            0.0000     2.7013E+03    12.0731  -0.8340   107.7667
 44      0.0000     0.0000E+00    0.0000E+00    1.100000E+10  0.05000  6.532E-06    0   0.5070   age185_m72            0.0000     4.3475E+03    15.1973  -1.0000   102.3386
 45      0.0000     0.0000E+00    0.0000E+00    1.300000E+10  0.05000  5.316E-06    0   0.5018   age193_m72            0.0000     5.3381E+03    16.9601  -1.0000    99.3154


## Synthesis Results - Average & Chains ##

# j      x_j: min, <> & last-chain-values for 1 ...  7 chains
  1      0.0000      0.0037      0.0000      0.0000      0.0000      0.0058      0.0000      0.0062      0.0005
  2     10.3409      9.8204      9.9859      9.8363      9.7398     10.0272      9.9482      9.8544      9.9012
  3      1.5873      1.9778      1.9878      1.9577      1.9959      1.8469      2.0095      2.1873      1.9481
  4      6.7462      6.6621      6.8161      6.7252      6.6101      6.6670      6.6563      6.6327      6.6945
  5      0.6074      0.8068      0.7949      0.7246      0.8479      0.7848      0.8244      0.6981      0.7357
  6      0.0000      0.0407      0.0000      0.0029      0.0000      0.0189      0.0000      0.0080      0.0000
  7      0.0177      0.2460      0.2473      0.2652      0.2252      0.3758      0.4083      0.3265      0.2416
  8      0.0000      0.0465      0.0691      0.0594      0.1552      0.0407      0.1026      0.0000      0.0312
  9      0.0000      0.2467      0.2283      0.1692      0.3987      0.2066      0.1884      0.5287      0.2157
 10      0.5999      0.3065      0.5469      0.3341      0.3984      0.3253      0.3542      0.4430      0.4156
 11      0.0000      0.1966      0.1184      0.0285      0.2353      0.2618      0.1646      0.0590      0.1401
 12     61.6766     60.7745     60.3662     61.0549     60.4922     60.9136     60.9120     60.4167     60.9096
 13     19.0325     18.2989     18.3437     18.2641     18.3831     18.1979     18.3147     18.2581     18.4055
 14      0.0000      0.0738      0.0000      0.0000      0.0041      0.0000      0.0000      0.2033      0.1382
 15      0.0000      0.0517      0.2062      0.0221      0.0000      0.0925      0.0000      0.1493      0.0000
 16      0.0000      0.0105      0.0000      0.0000      0.0000      0.0667      0.0245      0.0000      0.0000
 17      0.0000      0.0098      0.0000      0.0127      0.0480      0.0000      0.0000      0.0000      0.0000
 18      1.5984      1.4099      1.3571      1.4124      1.5484      1.4050      1.3621      1.3466      1.4050
 19      0.0000      0.0307      0.0000      0.1788      0.0000      0.0576      0.0000      0.0137      0.0000
 20      0.0000      0.0154      0.0000      0.0000      0.0309      0.0000      0.0000      0.0683      0.0000
 21      0.0000      0.0290      0.0139      0.0000      0.0000      0.0000      0.0000      0.0000      0.2257
 22      0.0000      0.0278      0.0803      0.0000      0.0000      0.0000      0.0000      0.0000      0.0674
 23      0.0000      0.0232      0.0000      0.0894      0.0070      0.0036      0.0000      0.0443      0.0000
 24      0.0000      0.0207      0.0257      0.0003      0.0000      0.0175      0.0000      0.0000      0.0000
 25      0.0000      0.0354      0.0691      0.0144      0.0000      0.0000      0.0000      0.0000      0.0000
 26      0.0000      0.0714      0.0460      0.0000      0.0608      0.0077      0.0000      0.0180      0.0000
 27      0.0000      0.0743      0.0983      0.0274      0.0000      0.0000      0.0549      0.2078      0.0000
 28      0.0000      0.0712      0.0456      0.1707      0.1636      0.0844      0.0861      0.1177      0.0000
 29      0.0000      0.0615      0.0009      0.0000      0.1284      0.0828      0.0000      0.0000      0.0000
 30      0.0000      0.0255      0.0083      0.0000      0.0254      0.0000      0.0000      0.0000      0.0214
 31      0.0000      0.0088      0.0000      0.0011      0.0000      0.0000      0.0025      0.0000      0.0000
 32      0.0000      0.0110      0.0000      0.0000      0.0228      0.0000      0.0208      0.0000      0.0000
 33      0.0000      0.0318      0.0000      0.0000      0.0407      0.0000      0.0000      0.0000      0.0000
 34      0.0000      0.0068      0.0000      0.0000      0.0000      0.0000      0.0000      0.0039      0.0000
 35      0.0000      0.0119      0.0000      0.0026      0.0000      0.0000      0.0570      0.0257      0.0775
 36      0.0000      0.0340      0.0431      0.0000      0.0000      0.0755      0.0000      0.0000      0.0038
 37      0.0000      0.0454      0.0000      0.1226      0.0417      0.0306      0.0000      0.0000      0.0303
 38      0.0000      0.0291      0.0340      0.0790      0.0000      0.0000      0.0000      0.0476      0.0000
 39      0.0000      0.0351      0.0000      0.0000      0.0000      0.0000      0.0000      0.0000      0.0000
 40      0.0000      0.0614      0.0000      0.0782      0.1509      0.0000      0.1153      0.0000      0.0000
 41      0.0000      0.0830      0.0742      0.0702      0.0000      0.0174      0.0000      0.0000      0.0000
 42      0.0000      0.1090      0.2209      0.1603      0.0868      0.1817      0.1676      0.1734      0.1937
 43      0.0000      0.1359      0.1455      0.2237      0.0635      0.1994      0.3124      0.2085      0.2012
 44      0.0000      0.0746      0.1853      0.0492      0.1468      0.0836      0.0694      0.0391      0.1455
 45      0.0000      0.0975      0.0876      0.1129      0.2029      0.1654      0.0860      0.1644      0.0782

# j      m_j: min, <> & last-chain-values for 1 ...  7 chains
  1  0.0000E+00  5.7495E-05  0.0000E+00  0.0000E+00  0.0000E+00  8.9670E-05  0.0000E+00  9.5644E-05  8.4283E-06
  2  4.5656E-02  4.1891E-02  4.2148E-02  4.2065E-02  4.0619E-02  4.2227E-02  4.2555E-02  4.1522E-02  4.2046E-02
  3  1.0689E-02  1.2868E-02  1.2797E-02  1.2770E-02  1.2695E-02  1.1863E-02  1.3111E-02  1.4056E-02  1.2618E-02
  4  8.4594E-02  8.0714E-02  8.1708E-02  8.1685E-02  7.8294E-02  7.9742E-02  8.0869E-02  7.9375E-02  8.0742E-02
  5  1.7612E-02  2.2601E-02  2.2033E-02  2.0351E-02  2.3223E-02  2.1704E-02  2.3161E-02  1.9318E-02  2.0518E-02
  6  0.0000E+00  1.5829E-03  0.0000E+00  1.1401E-04  0.0000E+00  7.2641E-04  0.0000E+00  3.0793E-04  0.0000E+00
  7  1.0142E-03  1.3581E-02  1.3511E-02  1.4678E-02  1.2154E-02  2.0485E-02  2.2606E-02  1.7809E-02  1.3282E-02
  8  0.0000E+00  4.9514E-03  7.2807E-03  6.3469E-03  1.6162E-02  4.2781E-03  1.0953E-02  0.0000E+00  3.3098E-03
  9  0.0000E+00  5.2313E-02  4.7919E-02  3.5973E-02  8.2662E-02  4.3249E-02  4.0066E-02  1.1076E-01  4.5547E-02
 10  1.8387E-01  9.0755E-02  1.6023E-01  9.9190E-02  1.1534E-01  9.5086E-02  1.0519E-01  1.2958E-01  1.2251E-01
 11  0.0000E+00  1.0225E-01  6.0929E-02  1.4864E-02  1.1961E-01  1.3440E-01  8.5822E-02  3.0298E-02  7.2528E-02
 12  6.1720E+01  5.8760E+01  5.7749E+01  5.9181E+01  5.7180E+01  5.8142E+01  5.9057E+01  5.7699E+01  5.8625E+01
 13  3.7929E+01  3.5233E+01  3.4947E+01  3.5256E+01  3.4604E+01  3.4591E+01  3.5362E+01  3.4725E+01  3.5279E+01
 14  0.0000E+00  2.8968E-01  0.0000E+00  0.0000E+00  1.5801E-02  0.0000E+00  0.0000E+00  7.8788E-01  5.3986E-01
 15  0.0000E+00  2.3525E-01  9.2778E-01  1.0061E-01  0.0000E+00  4.1513E-01  0.0000E+00  6.7052E-01  0.0000E+00
 16  0.0000E+00  9.2117E-05  0.0000E+00  0.0000E+00  0.0000E+00  5.7550E-04  2.1430E-04  0.0000E+00  0.0000E+00
 17  0.0000E+00  4.4631E-05  0.0000E+00  5.8021E-05  2.1314E-04  0.0000E+00  0.0000E+00  0.0000E+00  0.0000E+00
 18  8.3219E-03  7.0924E-03  6.7544E-03  7.1230E-03  7.6146E-03  6.9773E-03  6.8708E-03  6.6909E-03  7.0357E-03
 19  0.0000E+00  4.6141E-04  0.0000E+00  2.6959E-03  0.0000E+00  8.5547E-04  0.0000E+00  2.0365E-04  0.0000E+00
 20  0.0000E+00  5.1581E-04  0.0000E+00  0.0000E+00  1.0122E-03  0.0000E+00  0.0000E+00  2.2584E-03  0.0000E+00
 21  0.0000E+00  1.1634E-03  5.5124E-04  0.0000E+00  0.0000E+00  0.0000E+00  0.0000E+00  0.0000E+00  9.0286E-03
 22  0.0000E+00  1.8555E-03  5.3089E-03  0.0000E+00  0.0000E+00  0.0000E+00  0.0000E+00  0.0000E+00  4.4853E-03
 23  0.0000E+00  3.0451E-03  0.0000E+00  1.1768E-02  8.9431E-04  4.6155E-04  0.0000E+00  5.7469E-03  0.0000E+00
 24  0.0000E+00  6.2223E-03  7.6329E-03  1.0233E-04  0.0000E+00  5.2015E-03  0.0000E+00  0.0000E+00  0.0000E+00
 25  0.0000E+00  1.6360E-02  3.1616E-02  6.6810E-03  0.0000E+00  0.0000E+00  0.0000E+00  0.0000E+00  0.0000E+00
 26  0.0000E+00  6.2276E-02  3.9745E-02  0.0000E+00  5.1897E-02  6.6699E-03  0.0000E+00  1.5494E-02  0.0000E+00
 27  0.0000E+00  1.3164E-01  1.7224E-01  4.8608E-02  0.0000E+00  0.0000E+00  9.7566E-02  3.6348E-01  0.0000E+00
 28  0.0000E+00  2.5503E-01  1.6152E-01  6.1300E-01  5.7298E-01  2.9841E-01  3.0927E-01  4.1655E-01  0.0000E+00
 29  0.0000E+00  4.6647E-01  6.6288E-03  0.0000E+00  9.5251E-01  6.2024E-01  0.0000E+00  0.0000E+00  0.0000E+00
 30  0.0000E+00  2.3114E-01  7.4079E-02  0.0000E+00  2.2443E-01  0.0000E+00  0.0000E+00  0.0000E+00  1.9295E-01
 31  0.0000E+00  5.7473E-05  0.0000E+00  7.3696E-06  0.0000E+00  0.0000E+00  1.6636E-05  0.0000E+00  0.0000E+00
 32  0.0000E+00  3.7968E-05  0.0000E+00  0.0000E+00  7.7137E-05  0.0000E+00  7.2189E-05  0.0000E+00  0.0000E+00
 33  0.0000E+00  1.6277E-04  0.0000E+00  0.0000E+00  2.0410E-04  0.0000E+00  0.0000E+00  0.0000E+00  0.0000E+00
