###################################################################
## OUTPUT of StarlightChains_v04.for    [Cid@UFSC - 01/Apr/2007] ##
###################################################################

## Some input info
NGC2298_a_1.cxt                          [arq_obs]
Base.BC03.N                              [arq_base]
NGC2298_a_1.msk                          [arq_masks]
StCv04.C11.config                        [arq_config]
   45                                    [N_base]
    0                                    [N_YAV_components = # of components with extra extinction!]
    0                                    [i_FitPowerLaw (1/0 = Yes/No)]
-9.99                                    [alpha_PowerLaw]
CCM                                      [red_law_option]
 1.458241                                [q_norm = A(l_norm)/A(V)]

## (Re)Sampling Parameters
 3359.00                                 [l_ini (A)]
 6428.00                                 [l_fin (A)]
    1.00                                 [dl    (A)]     (OBS: dl_cushion =    50.00 A)

## Normalization info
 4020.00                                 [l_norm (A) - for base]
 4010.00                                 [llow_norm (A) - window for f_obs]
 4060.00                                 [lupp_norm (A) - window for f_obs]
3.712074E-15                             [fobs_norm (in input units)]

## S/N
 4730.00                                 [llow_SN (A) - window for S/N]
 4780.00                                 [lupp_SN (A) - window for S/N]
  81.814                                 [S/N in S/N window]
  72.947                                 [S/N in norm. window]
 157.218                                 [S/N_err in S/N window]
 140.180                                 [S/N_err in norm. window]
  1.0000                                 [fscale_chi2]

## etc...
  2147483644                             [idum_orig]
  3065                                   [NOl_eff]
  1140                                   [Nl_eff]
  1925    NSIGMA                         [Ntot_cliped & clip_method]
   786800                                [Nglobal_steps]
   7                                     [N_chains]
   8                                     [NEX0s_base = N_base in EX0s-fits]
 0   0   1      150   2.0   3.200E+02    [Clip-Bug, RC-Crash & Burn-In warning-flags, n_censored_weights, wei_nsig_threshold & wei_limit]
    10     10.307     10.307      0.000  [idt_all, wdt_TotTime, wdt_UsrTime & wdt_SysTime (sec)]

## Synthesis Results - Best model ##

 2.67793E+00                             [chi2/Nl_eff]
     1.21318                             [adev (%)]

   104.00548                             [sum-of-x (%)]
 1.51846E-14                             [Flux_tot (units of input spectrum!)]
 6.69177E-11                             [Mini_tot (???)]
 3.72423E-11                             [Mcor_tot (???)]

   4.15                                  [v0_min  (km/s)]
 126.02                                  [vd_min  (km/s)]
 1.0196                                  [AV_min  (mag)]
 0.0000                                  [YAV_min (mag)]

# j     x_j(%)      Mini_j(%)     Mcor_j(%)     age_j(yr)     Z_j      (L/M)_j    YAV?  Mstars   component_j        a/Fe...       SSP_chi2r SSP_adev(%)   SSP_AV   SSP_x(%)
  1      0.0000     0.0000E+00    0.0000E+00    1.000000E+06  0.00400  1.114E-02    0   1.0000   age020_m42            0.0000     4.2203E+02    11.3948   3.7583    79.8540
  2     20.2658     1.0856E-01    1.9504E-01    3.160000E+06  0.00400  4.073E-02    0   0.9999   age045_m42            0.0000     7.2862E+01     4.9310   2.8005    93.8712
  3      0.0000     0.0000E+00    0.0000E+00    5.010000E+06  0.00400  2.534E-02    0   0.9488   age055_m42            0.0000     2.0762E+02     8.1938   3.2012    87.5916
  4      4.5031     7.7298E-02    1.2309E-01    1.000000E+07  0.00400  1.271E-02    0   0.8862   age070_m42            0.0000     1.8406E+02     8.2075   2.4140    91.1560
  5      0.0000     0.0000E+00    0.0000E+00    2.512000E+07  0.00400  5.070E-03    0   0.8174   age090_m42            0.0000     1.5557E+02     7.4999   2.2824    92.7428
  6      0.0000     0.0000E+00    0.0000E+00    4.000000E+07  0.00400  3.505E-03    0   0.7851   age104_m42            0.0000     8.1980E+01     5.3532   1.9637    95.7451
  7     16.4189     1.5794E+00    2.0453E+00    1.015200E+08  0.00400  2.268E-03    0   0.7207   age116_m42            0.0000     1.2448E+02     4.6466   1.9696   105.1952
  8      0.0000     0.0000E+00    0.0000E+00    2.861200E+08  0.00400  1.079E-03    0   0.6613   age125_m42            0.0000     1.4957E+02     5.6716   1.4753   107.3737
  9      0.0000     0.0000E+00    0.0000E+00    6.405400E+08  0.00400  5.077E-04    0   0.6197   age132_m42            0.0000     1.6371E+02     6.0035   1.1063   111.7465
 10     24.5084     1.5126E+01    1.6373E+01    9.047900E+08  0.00400  3.535E-04    0   0.6024   age135_m42            0.0000     8.9897E+01     4.8242   0.8660   110.8426
 11     13.3880     1.5293E+01    1.5707E+01    1.434000E+09  0.00400  1.910E-04    0   0.5716   age139_m42            0.0000     5.9727E+01     4.8098   0.3388   109.0430
 12     19.7433     4.3874E+01    4.3066E+01    2.500000E+09  0.00400  9.818E-05    0   0.5463   age150_m42            0.0000     8.5548E+01     4.7485   0.0648   104.0056
 13      5.1774     2.3942E+01    2.2491E+01    5.000000E+09  0.00400  4.718E-05    0   0.5228   age161_m42            0.0000     1.3292E+02     5.3277  -0.0991   100.3689
 14      0.0000     0.0000E+00    0.0000E+00    1.100000E+10  0.00400  2.205E-05    0   0.4980   age185_m42            0.0000     2.4767E+02     7.0784  -0.3573    97.7980
 15      0.0000     0.0000E+00    0.0000E+00    1.300000E+10  0.00400  1.883E-05    0   0.4927   age193_m42            0.0000     2.6445E+02     7.2898  -0.3743    97.5995
 16      0.0000     0.0000E+00    0.0000E+00    1.000000E+06  0.02000  1.989E-02    0   1.0000   age020_m62            0.0000     4.2590E+02    11.3487   3.7177    80.6386
 17      0.0000     0.0000E+00    0.0000E+00    3.160000E+06  0.02000  3.772E-02    0   0.9858   age045_m62            0.0000     3.7868E+02    10.8127   3.5743    82.8525
 18      0.0006     3.9919E-06    6.7008E-06    5.010000E+06  0.02000  3.227E-02    0   0.9342   age055_m62            0.0000     1.3170E+02     6.5294   3.0616    90.4251
 19      0.0000     0.0000E+00    0.0000E+00    1.000000E+07  0.02000  1.011E-02    0   0.8751   age070_m62            0.0000     4.5564E+02    12.7878   2.4273    87.4275
 20      0.0000     0.0000E+00    0.0000E+00    2.512000E+07  0.02000  4.206E-03    0   0.8099   age090_m62            0.0000     3.1765E+02    10.4527   2.3578    88.5441
 21      0.0000     0.0000E+00    0.0000E+00    4.000000E+07  0.02000  3.373E-03    0   0.7799   age104_m62            0.0000     6.5506E+01     4.7710   2.1760    97.3271
 22      0.0000     0.0000E+00    0.0000E+00    1.015200E+08  0.02000  1.878E-03    0   0.7221   age116_m62            0.0000     9.8741E+01     3.7846   1.9933   105.5596
 23      0.0000     0.0000E+00    0.0000E+00    2.861200E+08  0.02000  8.869E-04    0   0.6700   age125_m62            0.0000     3.0384E+02     7.9265   1.4736   112.7482
 24      0.0000     0.0000E+00    0.0000E+00    6.405400E+08  0.02000  3.657E-04    0   0.6322   age132_m62            0.0000     2.0990E+02     7.8782   0.7805   116.3200
 25      0.0000     0.0000E+00    0.0000E+00    9.047900E+08  0.02000  2.312E-04    0   0.6152   age135_m62            0.0000     1.3260E+02     6.8773   0.4082   115.0005
 26      0.0000     0.0000E+00    0.0000E+00    1.434000E+09  0.02000  1.168E-04    0   0.5865   age139_m62            0.0000     1.0737E+02     5.6739  -0.0011   108.4544
 27      0.0000     0.0000E+00    0.0000E+00    2.500000E+09  0.02000  5.505E-05    0   0.5610   age150_m62            0.0000     2.0566E+02     7.0798  -0.3716   105.0597
 28      0.0000     0.0000E+00    0.0000E+00    5.000000E+09  0.02000  2.596E-05    0   0.5353   age161_m62            0.0000     3.7852E+02     9.3976  -0.6998   104.5462
 29      0.0000     0.0000E+00    0.0000E+00    1.100000E+10  0.02000  1.169E-05    0   0.5103   age185_m62            0.0000     5.7700E+02    11.2709  -1.0000   103.9636
 30      0.0000     0.0000E+00    0.0000E+00    1.300000E+10  0.02000  9.691E-06    0   0.5047   age193_m62            0.0000     6.2218E+02    11.4348  -1.0000   102.9288
 31      0.0000     0.0000E+00    0.0000E+00    1.000000E+06  0.05000  2.651E-02    0   0.9998   age020_m72            0.0000     3.9372E+02    10.7347   3.7214    81.5521
 32      0.0000     0.0000E+00    0.0000E+00    3.160000E+06  0.05000  4.817E-02    0   0.9577   age045_m72            0.0000     2.6007E+02     8.8173   3.4368    86.1060
 33      0.0000     0.0000E+00    0.0000E+00    5.010000E+06  0.05000  3.101E-02    0   0.9147   age055_m72            0.0000     2.3622E+02     8.6552   3.0776    88.7135
 34      0.0000     0.0000E+00    0.0000E+00    1.000000E+07  0.05000  8.954E-03    0   0.8524   age070_m72            0.0000     2.5028E+02     8.4904   3.3194    87.3192
 35      0.0000     0.0000E+00    0.0000E+00    2.512000E+07  0.05000  4.207E-03    0   0.7902   age090_m72            0.0000     1.0502E+02     5.4866   2.8818    92.9334
 36      0.0000     0.0000E+00    0.0000E+00    4.000000E+07  0.05000  3.198E-03    0   0.7618   age104_m72            0.0000     5.0278E+01     2.8861   2.3688   101.0871
 37      0.0000     0.0000E+00    0.0000E+00    1.015200E+08  0.05000  1.716E-03    0   0.7092   age116_m72            0.0000     1.3469E+02     4.6240   2.0828   105.7455
 38      0.0000     0.0000E+00    0.0000E+00    2.861200E+08  0.05000  7.047E-04    0   0.6618   age125_m72            0.0000     3.0162E+02     8.4486   1.2638   113.1564
 39      0.0000     0.0000E+00    0.0000E+00    6.405400E+08  0.05000  2.633E-04    0   0.6253   age132_m72            0.0000     1.8308E+02     7.8824   0.4025   115.3826
 40      0.0000     0.0000E+00    0.0000E+00    9.047900E+08  0.05000  1.484E-04    0   0.6088   age135_m72            0.0000     1.5929E+02     7.0923  -0.0745   109.5642
 41      0.0000     0.0000E+00    0.0000E+00    1.434000E+09  0.05000  7.827E-05    0   0.5847   age139_m72            0.0000     2.6991E+02     8.4105  -0.4590   105.3804
 42      0.0000     0.0000E+00    0.0000E+00    2.500000E+09  0.05000  3.759E-05    0   0.5583   age150_m72            0.0000     4.0839E+02     9.8429  -0.7783   104.1560
 43      0.0000     0.0000E+00    0.0000E+00    5.000000E+09  0.05000  1.548E-05    0   0.5320   age161_m72            0.0000     6.2217E+02    11.2079  -1.0000    98.5932
 44      0.0000     0.0000E+00    0.0000E+00    1.100000E+10  0.05000  6.532E-06    0   0.5070   age185_m72            0.0000     1.0773E+03    15.3173  -1.0000    88.0976
 45      0.0000     0.0000E+00    0.0000E+00    1.300000E+10  0.05000  5.316E-06    0   0.5018   age193_m72            0.0000     1.2771E+03    16.8482  -1.0000    84.9295


## Synthesis Results - Average & Chains ##

# j      x_j: min, <> & last-chain-values for 1 ...  7 chains
  1      0.0000      0.0078      0.0000      0.0000      0.0000      0.0018      0.0000      0.0000      0.0000
  2     20.2658     17.7438     17.8772     17.8495     18.0837     17.9579     18.2560     18.2430     18.1749
  3      0.0000      0.0471      0.0000      0.0000      0.0268      0.0052      0.0000      0.0000      0.0000
  4      4.5031      5.1053      5.0320      5.1578      5.0224      5.0449      5.1774      5.1019      5.1969
  5      0.0000      0.0604      0.0000      0.0351      0.0000      0.0770      0.0000      0.0000      0.0263
  6      0.0000      0.0496      0.0000      0.0000      0.0474      0.0000      0.0035      0.0627      0.0000
  7     16.4189     15.2152     15.7279     15.3205     15.5689     15.3725     15.3819     15.4584     15.3779
  8      0.0000      0.1491      0.1186      0.4961      0.1325      0.2718      0.2462      0.0448      0.2179
  9      0.0000      0.4082      0.4811      0.1865      0.3432      0.4078      0.1634      0.3597      0.3549
 10     24.5084     24.3364     24.3955     24.5130     24.6348     24.4567     24.7203     24.0572     24.1892
 11     13.3880     15.1623     14.9933     14.5470     14.8143     14.9191     14.8733     15.0943     15.2365
 12     19.7433     18.2649     18.2261     18.2893     18.2563     17.9915     18.6123     18.5645     18.2049
 13      5.1774      4.6231      4.4207      4.6207      4.5651      4.4807      4.5959      4.6826      4.6035
 14      0.0000      0.0197      0.0173      0.0000      0.0010      0.0000      0.0000      0.0000      0.1167
 15      0.0000      0.0086      0.0000      0.0000      0.0000      0.0481      0.0000      0.0000      0.0000
 16      0.0000      0.0060      0.0000      0.0000      0.0000      0.0000      0.0000      0.0000      0.0000
 17      0.0000      0.0084      0.0000      0.0000      0.0000      0.0000      0.0000      0.0000      0.0000
 18      0.0006      0.9630      1.0046      0.8762      1.0069      0.8663      0.8540      0.7740      0.8137
 19      0.0000      0.0315      0.0000      0.2153      0.0000      0.3168      0.0000      0.0000      0.0000
 20      0.0000      0.0168      0.0000      0.0000      0.0000      0.0000      0.0000      0.0000      0.0000
 21      0.0000      0.0458      0.0000      0.0000      0.0000      0.0000      0.1175      0.1409      0.0000
 22      0.0000      0.2576      0.3661      0.0000      0.0000      0.1154      0.0000      0.3866      0.2522
 23      0.0000      0.0512      0.0000      0.0000      0.0000      0.0000      0.0000      0.0000      0.0000
 24      0.0000      0.0173      0.0000      0.0000      0.0000      0.0000      0.0000      0.0000      0.0000
 25      0.0000      0.0521      0.0088      0.0000      0.0000      0.0000      0.0000      0.0000      0.0000
 26      0.0000      0.0420      0.2415      0.0000      0.2025      0.0000      0.0000      0.0000      0.0298
 27      0.0000      0.0236      0.0000      0.0000      0.0000      0.0000      0.0280      0.0295      0.0000
 28      0.0000      0.0192      0.0012      0.0000      0.0000      0.0000      0.0000      0.0000      0.0366
 29      0.0000      0.0682      0.0521      0.0798      0.0731      0.0000      0.0000      0.0000      0.0000
 30      0.0000      0.0162      0.0000      0.0000      0.0000      0.0000      0.1125      0.0000      0.0000
 31      0.0000      0.0073      0.0571      0.0000      0.0833      0.0000      0.0000      0.0000      0.0000
 32      0.0000      0.0118      0.0000      0.0000      0.0000      0.0000      0.0000      0.0057      0.0101
 33      0.0000      0.0271      0.0176      0.0000      0.0000      0.0000      0.0000      0.0000      0.0000
 34      0.0000      0.0120      0.1251      0.0000      0.0000      0.0000      0.0000      0.0000      0.0000
 35      0.0000      0.0199      0.0000      0.0167      0.0000      0.0000      0.0471      0.0000      0.0117
 36      0.0000      0.0564      0.0000      0.0000      0.0000      0.0000      0.0244      0.0000      0.0413
 37      0.0000      0.2317      0.0000      0.6494      0.2745      0.4964      0.2163      0.2342      0.3621
 38      0.0000      0.0469      0.0000      0.0471      0.1088      0.0170      0.0000      0.0000      0.0000
 39      0.0000      0.0470      0.0000      0.0000      0.0000      0.0195      0.0000      0.0000      0.0000
 40      0.0000      0.0540      0.0000      0.3639      0.0000      0.1890      0.0000      0.0000      0.0000
 41      0.0000      0.0457      0.2863      0.0000      0.0000      0.2133      0.0436      0.0000      0.0000
 42      0.0000      0.1130      0.0000      0.1804      0.1261      0.0000      0.0000      0.1782      0.0854
 43      0.0000      0.3075      0.2875      0.2434      0.2602      0.3799      0.2765      0.2893      0.3631
 44      0.0000      0.1568      0.1541      0.2026      0.1747      0.2109      0.1447      0.1694      0.2214
 45      0.0000      0.2173      0.2903      0.2908      0.3364      0.3136      0.2170      0.2476      0.2194

# j      m_j: min, <> & last-chain-values for 1 ...  7 chains
  1  0.0000E+00  2.3691E-04  0.0000E+00  0.0000E+00  0.0000E+00  5.1859E-05  0.0000E+00  0.0000E+00  0.0000E+00
  2  1.9504E-01  1.4647E-01  1.4689E-01  1.4413E-01  1.4539E-01  1.4432E-01  1.5192E-01  1.5066E-01  1.4831E-01
  3  0.0000E+00  5.9329E-04  0.0000E+00  0.0000E+00  3.2880E-04  6.3563E-05  0.0000E+00  0.0000E+00  0.0000E+00
  4  1.2309E-01  1.1969E-01  1.1743E-01  1.1829E-01  1.1469E-01  1.1516E-01  1.2236E-01  1.1967E-01  1.2044E-01
  5  0.0000E+00  3.2757E-03  0.0000E+00  1.8604E-03  0.0000E+00  4.0617E-03  0.0000E+00  0.0000E+00  1.4102E-03
  6  0.0000E+00  3.7355E-03  0.0000E+00  0.0000E+00  3.4808E-03  0.0000E+00  2.6330E-04  4.7260E-03  0.0000E+00
  7  2.0453E+00  1.6257E+00  1.6727E+00  1.6013E+00  1.6202E+00  1.5992E+00  1.6568E+00  1.6525E+00  1.6242E+00
  8  0.0000E+00  3.0720E-02  2.4327E-02  1.0001E-01  2.6587E-02  5.4543E-02  5.1141E-02  9.2385E-03  4.4397E-02
  9  0.0000E+00  1.6755E-01  1.9652E-01  7.4879E-02  1.3721E-01  1.6297E-01  6.7613E-02  1.4771E-01  1.4398E-01
 10  1.6373E+01  1.3944E+01  1.3914E+01  1.3740E+01  1.3749E+01  1.3644E+01  1.4279E+01  1.3791E+01  1.3701E+01
 11  1.5707E+01  1.5257E+01  1.5017E+01  1.4319E+01  1.4519E+01  1.4617E+01  1.5088E+01  1.5196E+01  1.5156E+01
 12  4.3066E+01  3.4172E+01  3.3943E+01  3.3473E+01  3.3268E+01  3.2773E+01  3.5105E+01  3.4750E+01  3.3670E+01
 13  2.2491E+01  1.7225E+01  1.6395E+01  1.6841E+01  1.6567E+01  1.6254E+01  1.7262E+01  1.7456E+01  1.6956E+01
 14  0.0000E+00  1.4953E-01  1.3091E-01  0.0000E+00  7.6124E-03  0.0000E+00  0.0000E+00  0.0000E+00  8.7569E-01
 15  0.0000E+00  7.5965E-02  0.0000E+00  0.0000E+00  0.0000E+00  4.1226E-01  0.0000E+00  0.0000E+00  0.0000E+00
 16  0.0000E+00  1.0136E-04  0.0000E+00  0.0000E+00  0.0000E+00  0.0000E+00  0.0000E+00  0.0000E+00  0.0000E+00
 17  0.0000E+00  7.3478E-05  0.0000E+00  0.0000E+00  0.0000E+00  0.0000E+00  0.0000E+00  0.0000E+00  0.0000E+00
 18  6.7008E-06  9.3736E-03  9.7335E-03  8.3435E-03  9.5468E-03  8.2100E-03  8.3797E-03  7.5375E-03  7.8295E-03
 19  0.0000E+00  9.1670E-04  0.0000E+00  6.1293E-03  0.0000E+00  8.9781E-03  0.0000E+00  0.0000E+00  0.0000E+00
 20  0.0000E+00  1.0884E-03  0.0000E+00  0.0000E+00  0.0000E+00  0.0000E+00  0.0000E+00  0.0000E+00  0.0000E+00
 21  0.0000E+00  3.5639E-03  0.0000E+00  0.0000E+00  0.0000E+00  0.0000E+00  9.2110E-03  1.0962E-02  0.0000E+00
 22  0.0000E+00  3.3306E-02  4.7116E-02  0.0000E+00  0.0000E+00  1.4525E-02  0.0000E+00  5.0012E-02  3.2235E-02
 23  0.0000E+00  1.3013E-02  0.0000E+00  0.0000E+00  0.0000E+00  0.0000E+00  0.0000E+00  0.0000E+00  0.0000E+00
 24  0.0000E+00  1.0041E-02  0.0000E+00  0.0000E+00  0.0000E+00  0.0000E+00  0.0000E+00  0.0000E+00  0.0000E+00
 25  0.0000E+00  4.6572E-02  7.8190E-03  0.0000E+00  0.0000E+00  0.0000E+00  0.0000E+00  0.0000E+00  0.0000E+00
 26  0.0000E+00  7.0888E-02  4.0580E-01  0.0000E+00  3.3298E-01  0.0000E+00  0.0000E+00  0.0000E+00  4.9732E-02
 27  0.0000E+00  8.0963E-02  0.0000E+00  0.0000E+00  0.0000E+00  0.0000E+00  9.6688E-02  1.0098E-01  0.0000E+00
 28  0.0000E+00  1.3330E-01  8.4111E-03  0.0000E+00  0.0000E+00  0.0000E+00  0.0000E+00  0.0000E+00  2.5084E-01
 29  0.0000E+00  1.0016E+00  7.6059E-01  1.1451E+00  1.0453E+00  0.0000E+00  0.0000E+00  0.0000E+00  0.0000E+00
 30  0.0000E+00  2.8396E-01  0.0000E+00  0.0000E+00  0.0000E+00  0.0000E+00  1.9862E+00  0.0000E+00  0.0000E+00
 31  0.0000E+00  9.2499E-05  7.2026E-04  0.0000E+00  1.0293E-03  0.0000E+00  0.0000E+00  0.0000E+00  0.0000E+00
 32  0.0000E+00  7.8864E-05  0.0000E+00  0.0000E+00  0.0000E+00  0.0000E+00  0.0000E+00  3.8084E-05  6.6936E-05
 33  0.0000E+00  2.6870E-04  1.7362E-04  0.0000E+00  0.0000E+00  0.0000E+00  0.0000E+00  0.0000E+00  0.0000E+00
