###################################################################
## OUTPUT of StarlightChains_v04.for    [Cid@UFSC - 01/Apr/2007] ##
###################################################################

## Some input info
NGC3201_a_1.cxt                          [arq_obs]
Base.BC03.N                              [arq_base]
NGC3201_a_1.msk                          [arq_masks]
StCv04.C11.config                        [arq_config]
   45                                    [N_base]
    0                                    [N_YAV_components = # of components with extra extinction!]
    0                                    [i_FitPowerLaw (1/0 = Yes/No)]
-9.99                                    [alpha_PowerLaw]
CCM                                      [red_law_option]
 1.458241                                [q_norm = A(l_norm)/A(V)]

## (Re)Sampling Parameters
 3359.00                                 [l_ini (A)]
 6428.00                                 [l_fin (A)]
    1.00                                 [dl    (A)]     (OBS: dl_cushion =    50.00 A)

## Normalization info
 4020.00                                 [l_norm (A) - for base]
 4010.00                                 [llow_norm (A) - window for f_obs]
 4060.00                                 [lupp_norm (A) - window for f_obs]
1.250092E-14                             [fobs_norm (in input units)]

## S/N
 4730.00                                 [llow_SN (A) - window for S/N]
 4780.00                                 [lupp_SN (A) - window for S/N]
  72.417                                 [S/N in S/N window]
  61.465                                 [S/N in norm. window]
  55.763                                 [S/N_err in S/N window]
  47.330                                 [S/N_err in norm. window]
  1.0000                                 [fscale_chi2]

## etc...
  2147483640                             [idum_orig]
  3052                                   [NOl_eff]
  1165                                   [Nl_eff]
  1887    NSIGMA                         [Ntot_cliped & clip_method]
   794640                                [Nglobal_steps]
   7                                     [N_chains]
  11                                     [NEX0s_base = N_base in EX0s-fits]
 0   0   1      371   2.0   8.843E+02    [Clip-Bug, RC-Crash & Burn-In warning-flags, n_censored_weights, wei_nsig_threshold & wei_limit]
     9      9.087      9.082      0.004  [idt_all, wdt_TotTime, wdt_UsrTime & wdt_SysTime (sec)]

## Synthesis Results - Best model ##

 2.26451E+00                             [chi2/Nl_eff]
     1.83063                             [adev (%)]

   109.38611                             [sum-of-x (%)]
 3.82060E-14                             [Flux_tot (units of input spectrum!)]
 2.91398E-10                             [Mini_tot (???)]
 1.59830E-10                             [Mcor_tot (???)]

 -14.07                                  [v0_min  (km/s)]
 100.95                                  [vd_min  (km/s)]
 0.7650                                  [AV_min  (mag)]
 0.0000                                  [YAV_min (mag)]

# j     x_j(%)      Mini_j(%)     Mcor_j(%)     age_j(yr)     Z_j      (L/M)_j    YAV?  Mstars   component_j        a/Fe...       SSP_chi2r SSP_adev(%)   SSP_AV   SSP_x(%)
  1      0.0000     0.0000E+00    0.0000E+00    1.000000E+06  0.00400  1.114E-02    0   1.0000   age020_m42            0.0000     4.9740E+02    10.6741   4.0000    72.3418
  2     11.5614     3.4023E-02    6.2024E-02    3.160000E+06  0.00400  4.073E-02    0   0.9999   age045_m42            0.0000     5.4810E+01     3.3993   3.1700    90.1527
  3      0.0000     0.0000E+00    0.0000E+00    5.010000E+06  0.00400  2.534E-02    0   0.9488   age055_m42            0.0000     1.6804E+02     5.4120   3.6653    81.6317
  4      1.1095     1.0463E-02    1.6906E-02    1.000000E+07  0.00400  1.271E-02    0   0.8862   age070_m42            0.0000     1.0071E+02     5.5059   2.8809    85.2065
  5      0.2079     4.9151E-03    7.3249E-03    2.512000E+07  0.00400  5.070E-03    0   0.8174   age090_m42            0.0000     9.3441E+01     5.2952   2.7384    87.2593
  6      0.0000     0.0000E+00    0.0000E+00    4.000000E+07  0.00400  3.505E-03    0   0.7851   age104_m42            0.0000     6.7636E+01     4.2637   2.3843    91.6689
  7     12.3692     6.5370E-01    8.5894E-01    1.015200E+08  0.00400  2.268E-03    0   0.7207   age116_m42            0.0000     4.3318E+02     6.0899   2.0459   110.8216
  8      0.0000     0.0000E+00    0.0000E+00    2.861200E+08  0.00400  1.079E-03    0   0.6613   age125_m42            0.0000     4.2669E+02     6.3812   1.5083   115.4226
  9      0.0000     0.0000E+00    0.0000E+00    6.405400E+08  0.00400  5.077E-04    0   0.6197   age132_m42            0.0000     4.3835E+02     6.6447   1.1218   121.0164
 10      4.5860     1.5550E+00    1.7078E+00    9.047900E+08  0.00400  3.535E-04    0   0.6024   age135_m42            0.0000     2.1085E+02     5.0449   0.9496   118.4848
 11      0.0000     0.0000E+00    0.0000E+00    1.434000E+09  0.00400  1.910E-04    0   0.5716   age139_m42            0.0000     2.7367E+01     3.4611   0.4824   116.6291
 12     55.6995     6.8000E+01    6.7728E+01    2.500000E+09  0.00400  9.818E-05    0   0.5463   age150_m42            0.0000     5.4838E+01     2.8161   0.3100   108.8058
 13      0.0000     0.0000E+00    0.0000E+00    5.000000E+09  0.00400  4.718E-05    0   0.5228   age161_m42            0.0000     1.6818E+02     3.4180   0.2015   103.4964
 14      0.0000     0.0000E+00    0.0000E+00    1.100000E+10  0.00400  2.205E-05    0   0.4980   age185_m42            0.0000     3.6964E+02     4.6672  -0.0425   101.2844
 15      0.0000     0.0000E+00    0.0000E+00    1.300000E+10  0.00400  1.883E-05    0   0.4927   age193_m42            0.0000     4.0524E+02     4.8697  -0.0535   100.9975
 16      0.0000     0.0000E+00    0.0000E+00    1.000000E+06  0.02000  1.989E-02    0   1.0000   age020_m62            0.0000     4.8887E+02     9.6233   4.0000    73.1540
 17      0.0000     0.0000E+00    0.0000E+00    3.160000E+06  0.02000  3.772E-02    0   0.9858   age045_m62            0.0000     3.5650E+02     6.2507   4.0000    75.5596
 18      0.0000     0.0000E+00    0.0000E+00    5.010000E+06  0.02000  3.227E-02    0   0.9342   age055_m62            0.0000     8.3262E+01     4.1576   3.4701    85.7701
 19      0.0000     0.0000E+00    0.0000E+00    1.000000E+07  0.02000  1.011E-02    0   0.8751   age070_m62            0.0000     2.9201E+02     9.3755   3.0037    78.7938
 20      0.0000     0.0000E+00    0.0000E+00    2.512000E+07  0.02000  4.206E-03    0   0.8099   age090_m62            0.0000     2.5392E+02     7.6787   2.9024    81.0689
 21      0.0000     0.0000E+00    0.0000E+00    4.000000E+07  0.02000  3.373E-03    0   0.7799   age104_m62            0.0000     7.1962E+01     4.0549   2.5492    94.2350
 22      0.0000     0.0000E+00    0.0000E+00    1.015200E+08  0.02000  1.878E-03    0   0.7221   age116_m62            0.0000     3.5625E+02     5.3902   2.1226   109.6324
 23      0.0000     0.0000E+00    0.0000E+00    2.861200E+08  0.02000  8.869E-04    0   0.6700   age125_m62            0.0000     8.4580E+02     8.7948   1.4019   124.7722
 24      0.0000     0.0000E+00    0.0000E+00    6.405400E+08  0.02000  3.657E-04    0   0.6322   age132_m62            0.0000     3.2089E+02     7.0658   0.7390   130.8804
 25      5.1750     2.6829E+00    3.0092E+00    9.047900E+08  0.02000  2.312E-04    0   0.6152   age135_m62            0.0000     8.3556E+01     5.1991   0.4680   126.7253
 26      0.0000     0.0000E+00    0.0000E+00    1.434000E+09  0.02000  1.168E-04    0   0.5865   age139_m62            0.0000     4.0743E+01     3.3592   0.2039   115.1323
 27      0.0000     0.0000E+00    0.0000E+00    2.500000E+09  0.02000  5.505E-05    0   0.5610   age150_m62            0.0000     2.2210E+02     4.2233  -0.1208   110.8683
 28      0.0000     0.0000E+00    0.0000E+00    5.000000E+09  0.02000  2.596E-05    0   0.5353   age161_m62            0.0000     5.6745E+02     5.7216  -0.4633   112.2035
 29      0.0000     0.0000E+00    0.0000E+00    1.100000E+10  0.02000  1.169E-05    0   0.5103   age185_m62            0.0000     9.5655E+02     6.9564  -0.8452   115.0848
 30      0.0000     0.0000E+00    0.0000E+00    1.300000E+10  0.02000  9.691E-06    0   0.5047   age193_m62            0.0000     1.0362E+03     7.1537  -0.8909   115.4547
 31      0.0000     0.0000E+00    0.0000E+00    1.000000E+06  0.05000  2.651E-02    0   0.9998   age020_m72            0.0000     4.6692E+02     9.3423   4.0000    74.1630
 32      0.0000     0.0000E+00    0.0000E+00    3.160000E+06  0.05000  4.817E-02    0   0.9577   age045_m72            0.0000     2.1510E+02     5.8195   3.9187    79.7078
 33      0.0000     0.0000E+00    0.0000E+00    5.010000E+06  0.05000  3.101E-02    0   0.9147   age055_m72            0.0000     1.7503E+02     5.7762   3.5565    82.1038
 34      0.0000     0.0000E+00    0.0000E+00    1.000000E+07  0.05000  8.954E-03    0   0.8524   age070_m72            0.0000     2.4811E+02     6.2109   3.8004    80.9405
 35      0.0000     0.0000E+00    0.0000E+00    2.512000E+07  0.05000  4.207E-03    0   0.7902   age090_m72            0.0000     1.0427E+02     4.4604   3.2786    88.9160
 36      0.0000     0.0000E+00    0.0000E+00    4.000000E+07  0.05000  3.198E-03    0   0.7618   age104_m72            0.0000     1.6788E+02     3.9959   2.5707   102.7832
 37      0.0067     4.6869E-04    6.0601E-04    1.015200E+08  0.05000  1.716E-03    0   0.7092   age116_m72            0.0000     4.5556E+02     6.1870   2.1678   110.8237
 38      0.0000     0.0000E+00    0.0000E+00    2.861200E+08  0.05000  7.047E-04    0   0.6618   age125_m72            0.0000     7.7184E+02     8.7235   1.1775   126.4217
 39     17.7982     8.1023E+00    9.2369E+00    6.405400E+08  0.05000  2.633E-04    0   0.6253   age132_m72            0.0000     1.6914E+02     6.1146   0.4009   129.3164
 40      0.0000     0.0000E+00    0.0000E+00    9.047900E+08  0.05000  1.484E-04    0   0.6088   age135_m72            0.0000     4.1349E+01     5.0533   0.0000   119.9651
 41      0.0000     0.0000E+00    0.0000E+00    1.434000E+09  0.05000  7.827E-05    0   0.5847   age139_m72            0.0000     2.5995E+02     5.1591  -0.2656   114.0469
 42      0.0000     0.0000E+00    0.0000E+00    2.500000E+09  0.05000  3.759E-05    0   0.5583   age150_m72            0.0000     5.9763E+02     6.0971  -0.5549   112.4410
 43      0.0000     0.0000E+00    0.0000E+00    5.000000E+09  0.05000  1.548E-05    0   0.5320   age161_m72            0.0000     9.2877E+02     7.2695  -0.9857   113.3089
 44      0.1718     3.1521E+00    2.9137E+00    1.100000E+10  0.05000  6.532E-06    0   0.5070   age185_m72            0.0000     1.3043E+03    21.6906  -1.0000   115.0396
 45      0.7009     1.5804E+01    1.4458E+01    1.300000E+10  0.05000  5.316E-06    0   0.5018   age193_m72            0.0000     1.5121E+03    27.0694  -1.0000   115.4966


## Synthesis Results - Average & Chains ##

# j      x_j: min, <> & last-chain-values for 1 ...  7 chains
  1      0.0000      0.0101      0.0000      0.0000      0.0000      0.0000      0.0000      0.0000      0.0000
  2     11.5614      9.8424     10.3039      9.9324     10.7687     10.2215     10.5076     10.6762     11.3143
  3      0.0000      0.0552      0.0861      0.0000      0.1506      0.0000      0.0000      0.0049      0.0000
  4      1.1095      0.5954      0.6514      0.6174      0.9849      0.8887      0.6530      0.4372      0.4675
  5      0.2079      0.2648      0.4101      0.2878      0.4205      0.0000      0.2700      0.7264      0.2873
  6      0.0000      0.2038      0.0000      0.0000      0.0000      0.0000      0.2571      0.0064      0.0000
  7     12.3692     11.9551     12.0838     12.5298     12.7579     12.7970     12.4858     12.1912     11.9818
  8      0.0000      0.1644      0.1118      0.4582      0.0188      0.0903      0.0000      0.0000      0.0000
  9      0.0000      0.4226      0.3827      0.6805      0.3482      0.1733      0.0460      0.9771      1.4840
 10      4.5860      0.7006      1.1460      0.8087      1.1650      1.4637      1.0485      0.1322      0.7364
 11      0.0000      0.2007      0.0340      0.5986      0.0000      0.0000      0.0000      0.0000      0.4016
 12     55.6995     52.7746     53.1872     53.8948     53.1001     53.1812     52.7785     53.8730     52.5245
 13      0.0000      0.3004      0.0000      0.1599      0.1947      0.0081      0.0000      0.0383      0.1169
 14      0.0000      0.2264      0.1480      0.1033      0.3367      0.2078      0.0385      0.0000      0.0000
 15      0.0000      0.0790      0.0000      0.2404      0.0000      0.0614      0.3508      0.3649      0.0000
 16      0.0000      0.0041      0.0000      0.0000      0.0000      0.0000      0.0000      0.0000      0.0000
 17      0.0000      0.0082      0.0166      0.0000      0.0000      0.0000      0.0153      0.0000      0.0000
 18      0.0000      0.1122      0.0000      0.0000      0.0000      0.1818      0.0000      0.0000      0.0000
 19      0.0000      0.2450      0.2823      0.8059      0.0000      0.1806      0.2710      0.1396      0.4441
 20      0.0000      0.0128      0.0000      0.0000      0.0000      0.0000      0.0000      0.0000      0.0000
 21      0.0000      0.0634      0.1199      0.0000      0.0813      0.0000      0.0000      0.0000      0.0000
 22      0.0000      0.3321      0.0000      0.0000      0.0347      0.1523      0.0000      0.3460      0.0000
 23      0.0000      0.0647      0.0000      0.1442      0.0171      0.0000      0.0000      0.0000      0.0000
 24      0.0000      0.0489      0.0441      0.0580      0.0000      0.0000      0.0000      0.0000      0.0000
 25      5.1750      9.5453      9.4009      8.6785      9.2764      7.9681      9.4909      8.1575      9.6566
 26      0.0000      0.3474      0.7317      0.0000      0.3533      0.4778      0.0000      0.2081      0.0478
 27      0.0000      0.1356      0.2563      0.0000      0.1554      0.0000      0.2388      0.1574      0.2741
 28      0.0000      0.0250      0.0000      0.0000      0.0000      0.0000      0.0190      0.0435      0.0000
 29      0.0000      0.0312      0.0000      0.0824      0.0000      0.0000      0.0108      0.0000      0.0232
 30      0.0000      0.0145      0.0000      0.0000      0.0000      0.0000      0.0000      0.0000      0.0000
 31      0.0000      0.0140      0.0000      0.0002      0.0000      0.0000      0.0000      0.0000      0.0000
 32      0.0000      0.0378      0.0000      0.0000      0.0000      0.2199      0.0000      0.0088      0.0000
 33      0.0000      0.0428      0.0000      0.0180      0.0000      0.0000      0.0000      0.0000      0.0197
 34      0.0000      0.0173      0.0000      0.0000      0.0000      0.0000      0.0000      0.0000      0.0000
 35      0.0000      0.0224      0.0000      0.0000      0.0000      0.0000      0.0259      0.0000      0.0000
 36      0.0000      0.1045      0.1136      0.0000      0.0000      0.0000      0.0997      0.0158      0.1055
 37      0.0067      0.6993      0.7431      0.6207      0.3551      0.3841      0.8385      0.7749      0.0000
 38      0.0000      0.0626      0.0009      0.0000      0.0000      0.0000      0.0000      0.0000      0.0000
 39     17.7982     18.6143     18.3903     17.7985     18.0216     19.3123     18.9669     19.2856     18.3977
 40      0.0000      0.1926      0.1693      0.1802      0.0000      0.3700      0.0000      0.0000      0.1702
 41      0.0000      0.0438      0.0000      0.0000      0.0000      0.0000      0.0378      0.0086      0.0000
 42      0.0000      0.0204      0.0000      0.0000      0.0000      0.0000      0.0000      0.0000      0.0000
 43      0.0000      0.4389      0.1573      0.2583      0.2209      0.4428      0.4632      0.3851      0.5655
 44      0.1718      0.4782      0.5205      0.3850      0.4348      0.5958      0.4950      0.5473      0.3309
 45      0.7009      0.7408      0.7228      0.7312      0.7345      0.7896      0.7893      0.5894      0.7340

# j      m_j: min, <> & last-chain-values for 1 ...  7 chains
  1  0.0000E+00  1.7752E-04  0.0000E+00  0.0000E+00  0.0000E+00  0.0000E+00  0.0000E+00  0.0000E+00  0.0000E+00
  2  6.2024E-02  4.7346E-02  5.0973E-02  4.9073E-02  5.3536E-02  4.8568E-02  5.0279E-02  5.2589E-02  5.6619E-02
  3  0.0000E+00  4.0481E-04  6.4978E-04  0.0000E+00  1.1422E-03  0.0000E+00  0.0000E+00  3.6707E-05  0.0000E+00
  4  1.6906E-02  8.1350E-03  9.1527E-03  8.6638E-03  1.3907E-02  1.1993E-02  8.8739E-03  6.1161E-03  6.6447E-03
  5  7.3249E-03  8.3665E-03  1.3324E-02  9.3369E-03  1.3728E-02  0.0000E+00  8.4859E-03  2.3499E-02  9.4415E-03
  6  0.0000E+00  8.9432E-03  0.0000E+00  0.0000E+00  0.0000E+00  0.0000E+00  1.1223E-02  2.8809E-04  0.0000E+00
  7  8.5894E-01  7.4440E-01  7.7377E-01  8.0131E-01  8.2097E-01  7.8707E-01  7.7333E-01  7.7732E-01  7.7611E-01
  8  0.0000E+00  1.9745E-02  1.3802E-02  5.6515E-02  2.3279E-03  1.0718E-02  0.0000E+00  0.0000E+00  0.0000E+00
  9  0.0000E+00  1.0106E-01  9.4137E-02  1.6716E-01  8.6061E-02  4.0951E-02  1.0934E-02  2.3931E-01  3.6924E-01
 10  1.7078E+00  2.3393E-01  3.9353E-01  2.7735E-01  4.0202E-01  4.8276E-01  3.4827E-01  4.5194E-02  2.5580E-01
 11  0.0000E+00  1.1767E-01  2.0504E-02  3.6053E-01  0.0000E+00  0.0000E+00  0.0000E+00  0.0000E+00  2.4496E-01
 12  6.7728E+01  5.7541E+01  5.9636E+01  6.0353E+01  5.9833E+01  5.7274E+01  5.7240E+01  6.0148E+01  5.9574E+01
 13  0.0000E+00  6.5222E-01  0.0000E+00  3.5660E-01  4.3687E-01  1.7330E-02  0.0000E+00  8.5100E-02  2.6397E-01
 14  0.0000E+00  1.0021E+00  6.7364E-01  4.6942E-01  1.5399E+00  9.0838E-01  1.6936E-01  0.0000E+00  0.0000E+00
 15  0.0000E+00  4.0508E-01  0.0000E+00  1.2659E+00  0.0000E+00  3.1084E-01  1.7889E+00  1.9160E+00  0.0000E+00
 16  0.0000E+00  4.0390E-05  0.0000E+00  0.0000E+00  0.0000E+00  0.0000E+00  0.0000E+00  0.0000E+00  0.0000E+00
 17  0.0000E+00  4.1800E-05  8.7411E-05  0.0000E+00  0.0000E+00  0.0000E+00  7.7980E-05  0.0000E+00  0.0000E+00
 18  0.0000E+00  6.3665E-04  0.0000E+00  0.0000E+00  0.0000E+00  1.0187E-03  0.0000E+00  0.0000E+00  0.0000E+00
 19  0.0000E+00  4.1557E-03  4.9236E-03  1.4039E-02  0.0000E+00  3.0255E-03  4.5722E-03  2.4245E-03  7.8357E-03
 20  0.0000E+00  4.8340E-04  0.0000E+00  0.0000E+00  0.0000E+00  0.0000E+00  0.0000E+00  0.0000E+00  0.0000E+00
 21  0.0000E+00  2.8734E-03  5.5871E-03  0.0000E+00  3.8090E-03  0.0000E+00  0.0000E+00  0.0000E+00  0.0000E+00
 22  0.0000E+00  2.5023E-02  0.0000E+00  0.0000E+00  2.6993E-03  1.1333E-02  0.0000E+00  2.6693E-02  0.0000E+00
 23  0.0000E+00  9.5802E-03  0.0000E+00  2.1925E-02  2.6159E-03  0.0000E+00  0.0000E+00  0.0000E+00  0.0000E+00
 24  0.0000E+00  1.6555E-02  1.5371E-02  2.0169E-02  0.0000E+00  0.0000E+00  0.0000E+00  0.0000E+00  0.0000E+00
 25  3.0092E+00  4.9769E+00  5.0407E+00  4.6475E+00  4.9986E+00  4.1037E+00  4.9223E+00  4.3554E+00  5.2377E+00
 26  0.0000E+00  3.4182E-01  7.4042E-01  0.0000E+00  3.5928E-01  4.6432E-01  0.0000E+00  2.0962E-01  4.8963E-02
 27  0.0000E+00  2.7084E-01  5.2627E-01  0.0000E+00  3.2070E-01  0.0000E+00  4.7433E-01  3.2191E-01  5.6935E-01
 28  0.0000E+00  1.0112E-01  0.0000E+00  0.0000E+00  0.0000E+00  0.0000E+00  7.6463E-02  1.7980E-01  0.0000E+00
 29  0.0000E+00  2.6716E-01  0.0000E+00  7.2399E-01  0.0000E+00  0.0000E+00  9.2157E-02  0.0000E+00  2.0623E-01
 30  0.0000E+00  1.4772E-01  0.0000E+00  0.0000E+00  0.0000E+00  0.0000E+00  0.0000E+00  0.0000E+00  0.0000E+00
 31  0.0000E+00  1.0309E-04  0.0000E+00  1.2498E-06  0.0000E+00  0.0000E+00  0.0000E+00  0.0000E+00  0.0000E+00
 32  0.0000E+00  1.4744E-04  0.0000E+00  0.0000E+00  0.0000E+00  8.4626E-04  0.0000E+00  3.5156E-05  0.0000E+00
 33  0.0000E+00  2.4744E-04  0.0000E+00  1.0694E-04  0.0000E+00  0.0000E+00  0.0000E+00  0.0000E+00  1.1845E-04
