###################################################################
## OUTPUT of StarlightChains_v04.for    [Cid@UFSC - 01/Apr/2007] ##
###################################################################

## Some input info
NGC5927_c_1.cxt                          [arq_obs]
Base.BC03.N                              [arq_base]
NGC5927_c_1.msk                          [arq_masks]
StCv04.C11.config                        [arq_config]
   45                                    [N_base]
    0                                    [N_YAV_components = # of components with extra extinction!]
    0                                    [i_FitPowerLaw (1/0 = Yes/No)]
-9.99                                    [alpha_PowerLaw]
CCM                                      [red_law_option]
 1.458241                                [q_norm = A(l_norm)/A(V)]

## (Re)Sampling Parameters
 3359.00                                 [l_ini (A)]
 6428.00                                 [l_fin (A)]
    1.00                                 [dl    (A)]     (OBS: dl_cushion =    50.00 A)

## Normalization info
 4020.00                                 [l_norm (A) - for base]
 4010.00                                 [llow_norm (A) - window for f_obs]
 4060.00                                 [lupp_norm (A) - window for f_obs]
5.954027E-15                             [fobs_norm (in input units)]

## S/N
 4730.00                                 [llow_SN (A) - window for S/N]
 4780.00                                 [lupp_SN (A) - window for S/N]
  31.182                                 [S/N in S/N window]
  18.272                                 [S/N in norm. window]
 384.682                                 [S/N_err in S/N window]
 225.410                                 [S/N_err in norm. window]
  1.0000                                 [fscale_chi2]

## etc...
  2147483631                             [idum_orig]
  3066                                   [NOl_eff]
  1157                                   [Nl_eff]
  1909    NSIGMA                         [Ntot_cliped & clip_method]
   955640                                [Nglobal_steps]
   7                                     [N_chains]
  11                                     [NEX0s_base = N_base in EX0s-fits]
 0   0   1      166   2.0   5.068E+02    [Clip-Bug, RC-Crash & Burn-In warning-flags, n_censored_weights, wei_nsig_threshold & wei_limit]
    10     10.425     10.421      0.004  [idt_all, wdt_TotTime, wdt_UsrTime & wdt_SysTime (sec)]

## Synthesis Results - Best model ##

 2.47095E+00                             [chi2/Nl_eff]
     1.97384                             [adev (%)]

   101.23974                             [sum-of-x (%)]
 2.67008E-14                             [Flux_tot (units of input spectrum!)]
 1.64947E-09                             [Mini_tot (???)]
 8.40235E-10                             [Mcor_tot (???)]

   7.68                                  [v0_min  (km/s)]
  63.29                                  [vd_min  (km/s)]
 1.1081                                  [AV_min  (mag)]
 0.0000                                  [YAV_min (mag)]

# j     x_j(%)      Mini_j(%)     Mcor_j(%)     age_j(yr)     Z_j      (L/M)_j    YAV?  Mstars   component_j        a/Fe...       SSP_chi2r SSP_adev(%)   SSP_AV   SSP_x(%)
  1      3.3712     4.8387E-03    9.4989E-03    1.000000E+06  0.00400  1.114E-02    0   1.0000   age020_m42            0.0000     2.7112E+03    33.0648   4.0000    92.4303
  2      8.4578     3.3203E-03    6.5174E-03    3.160000E+06  0.00400  4.073E-02    0   0.9999   age045_m42            0.0000     6.7707E+02    10.5713   4.0000   101.5072
  3      0.0000     0.0000E+00    0.0000E+00    5.010000E+06  0.00400  2.534E-02    0   0.9488   age055_m42            0.0000     1.3249E+03    19.6571   4.0000    98.7765
  4      8.9007     1.1197E-02    1.9480E-02    1.000000E+07  0.00400  1.271E-02    0   0.8862   age070_m42            0.0000     5.5467E+02    11.4210   4.0000    95.9639
  5      0.0000     0.0000E+00    0.0000E+00    2.512000E+07  0.00400  5.070E-03    0   0.8174   age090_m42            0.0000     4.7369E+02    12.5388   4.0000    95.7477
  6      0.0000     0.0000E+00    0.0000E+00    4.000000E+07  0.00400  3.505E-03    0   0.7851   age104_m42            0.0000     4.0007E+02    12.1165   3.7702    96.6096
  7      0.0000     0.0000E+00    0.0000E+00    1.015200E+08  0.00400  2.268E-03    0   0.7207   age116_m42            0.0000     9.2680E+02     8.4988   3.5565   105.6276
  8      0.0000     0.0000E+00    0.0000E+00    2.861200E+08  0.00400  1.079E-03    0   0.6613   age125_m42            0.0000     9.6796E+02     8.3085   3.0421   107.2003
  9      0.0000     0.0000E+00    0.0000E+00    6.405400E+08  0.00400  5.077E-04    0   0.6197   age132_m42            0.0000     9.8727E+02     8.6861   2.6954   111.1937
 10      0.9766     4.4174E-02    5.2239E-02    9.047900E+08  0.00400  3.535E-04    0   0.6024   age135_m42            0.0000     7.2953E+02     7.6443   2.4428   110.6575
 11      0.0000     0.0000E+00    0.0000E+00    1.434000E+09  0.00400  1.910E-04    0   0.5716   age139_m42            0.0000     3.9100E+02     6.1953   1.8344   109.4538
 12      0.0000     0.0000E+00    0.0000E+00    2.500000E+09  0.00400  9.818E-05    0   0.5463   age150_m42            0.0000     1.4823E+02     4.5922   1.5484   104.7935
 13      0.0000     0.0000E+00    0.0000E+00    5.000000E+09  0.00400  4.718E-05    0   0.5228   age161_m42            0.0000     6.4054E+01     3.5899   1.3858   101.3739
 14      3.2106     2.3281E+00    2.2760E+00    1.100000E+10  0.00400  2.205E-05    0   0.4980   age185_m42            0.0000     3.2405E+01     4.4623   1.0583    99.2446
 15      8.6724     7.3641E+00    7.1227E+00    1.300000E+10  0.00400  1.883E-05    0   0.4927   age193_m42            0.0000     3.1106E+01     4.5734   1.0377    99.0713
 16      1.0274     8.2592E-04    1.6214E-03    1.000000E+06  0.02000  1.989E-02    0   1.0000   age020_m62            0.0000     2.6474E+03    32.1675   4.0000    93.0711
 17      0.0000     0.0000E+00    0.0000E+00    3.160000E+06  0.02000  3.772E-02    0   0.9858   age045_m62            0.0000     2.2845E+03    29.0833   4.0000    95.2836
 18      0.0000     0.0000E+00    0.0000E+00    5.010000E+06  0.02000  3.227E-02    0   0.9342   age055_m62            0.0000     1.0471E+03    15.9813   4.0000   100.7059
 19      0.0000     0.0000E+00    0.0000E+00    1.000000E+07  0.02000  1.011E-02    0   0.8751   age070_m62            0.0000     7.9846E+02    13.7871   4.0000    93.7595
 20      0.0000     0.0000E+00    0.0000E+00    2.512000E+07  0.02000  4.206E-03    0   0.8099   age090_m62            0.0000     6.2534E+02    13.2206   4.0000    93.2819
 21      0.0000     0.0000E+00    0.0000E+00    4.000000E+07  0.02000  3.373E-03    0   0.7799   age104_m62            0.0000     5.1575E+02    12.1908   3.9785    97.9657
 22      0.0000     0.0000E+00    0.0000E+00    1.015200E+08  0.02000  1.878E-03    0   0.7221   age116_m62            0.0000     8.9079E+02     8.7616   3.6423   105.7420
 23      0.0000     0.0000E+00    0.0000E+00    2.861200E+08  0.02000  8.869E-04    0   0.6700   age125_m62            0.0000     1.3582E+03     9.4426   3.0481   111.7552
 24      0.0000     0.0000E+00    0.0000E+00    6.405400E+08  0.02000  3.657E-04    0   0.6322   age132_m62            0.0000     9.3810E+02     9.3316   2.2697   115.2628
 25      0.0000     0.0000E+00    0.0000E+00    9.047900E+08  0.02000  2.312E-04    0   0.6152   age135_m62            0.0000     5.7745E+02     8.2974   1.8632   114.6923
 26      0.0000     0.0000E+00    0.0000E+00    1.434000E+09  0.02000  1.168E-04    0   0.5865   age139_m62            0.0000     2.0085E+02     5.7345   1.4493   108.8347
 27      0.0000     0.0000E+00    0.0000E+00    2.500000E+09  0.02000  5.505E-05    0   0.5610   age150_m62            0.0000     7.1096E+01     5.5007   1.0335   106.0077
 28      5.9207     3.6467E+00    3.8321E+00    5.000000E+09  0.02000  2.596E-05    0   0.5353   age161_m62            0.0000     6.1803E+01     7.6188   0.6143   106.0183
 29     32.5884     4.4574E+01    4.4653E+01    1.100000E+10  0.02000  1.169E-05    0   0.5103   age185_m62            0.0000     1.1601E+02    10.7594   0.1473   107.6946
 30     21.0442     3.4721E+01    3.4401E+01    1.300000E+10  0.02000  9.691E-06    0   0.5047   age193_m62            0.0000     1.3036E+02    11.3507   0.0844   107.9507
 31      0.0000     0.0000E+00    0.0000E+00    1.000000E+06  0.05000  2.651E-02    0   0.9998   age020_m72            0.0000     2.5812E+03    31.7288   4.0000    94.1796
 32      0.0000     0.0000E+00    0.0000E+00    3.160000E+06  0.05000  4.817E-02    0   0.9577   age045_m72            0.0000     1.8218E+03    24.7788   4.0000    98.7636
 33      0.0000     0.0000E+00    0.0000E+00    5.010000E+06  0.05000  3.101E-02    0   0.9147   age055_m72            0.0000     1.2362E+03    16.7593   4.0000    99.5827
 34      0.0000     0.0000E+00    0.0000E+00    1.000000E+07  0.05000  8.954E-03    0   0.8524   age070_m72            0.0000     1.5588E+03    21.8722   4.0000    99.1793
 35      0.0000     0.0000E+00    0.0000E+00    2.512000E+07  0.05000  4.207E-03    0   0.7902   age090_m72            0.0000     8.0770E+02    11.7445   4.0000   101.3801
 36      0.0000     0.0000E+00    0.0000E+00    4.000000E+07  0.05000  3.198E-03    0   0.7618   age104_m72            0.0000     7.0157E+02     8.5323   4.0000   102.2076
 37      0.0000     0.0000E+00    0.0000E+00    1.015200E+08  0.05000  1.716E-03    0   0.7092   age116_m72            0.0000     1.0051E+03     8.7957   3.7118   105.9065
 38      0.0000     0.0000E+00    0.0000E+00    2.861200E+08  0.05000  7.047E-04    0   0.6618   age125_m72            0.0000     1.2716E+03     9.6274   2.7708   112.6797
 39      0.0000     0.0000E+00    0.0000E+00    6.405400E+08  0.05000  2.633E-04    0   0.6253   age132_m72            0.0000     7.0008E+02     9.5307   1.8147   115.2273
 40      0.0000     0.0000E+00    0.0000E+00    9.047900E+08  0.05000  1.484E-04    0   0.6088   age135_m72            0.0000     2.7855E+02     7.9378   1.3073   109.9817
 41      0.0000     0.0000E+00    0.0000E+00    1.434000E+09  0.05000  7.827E-05    0   0.5847   age139_m72            0.0000     1.0525E+02     7.6019   0.8650   106.6417
 42      0.0000     0.0000E+00    0.0000E+00    2.500000E+09  0.05000  3.759E-05    0   0.5583   age150_m72            0.0000     7.7048E+01     8.3833   0.5092   105.8239
 43      7.0697     7.3023E+00    7.6263E+00    5.000000E+09  0.05000  1.548E-05    0   0.5320   age161_m72            0.0000     1.2292E+02    11.3860   0.0064   105.4117
 44      0.0000     0.0000E+00    0.0000E+00    1.100000E+10  0.05000  6.532E-06    0   0.5070   age185_m72            0.0000     2.2322E+02    15.8471  -0.5638   106.3405
 45      0.0000     0.0000E+00    0.0000E+00    1.300000E+10  0.05000  5.316E-06    0   0.5018   age193_m72            0.0000     2.7284E+02    17.5651  -0.7620   107.0421


## Synthesis Results - Average & Chains ##

# j      x_j: min, <> & last-chain-values for 1 ...  7 chains
  1      3.3712      3.1823      3.2674      3.3090      3.1891      3.2804      3.2137      3.1390      3.1976
  2      8.4578      7.8408      7.9901      7.9227      7.8492      7.8167      7.7941      7.8860      8.2314
  3      0.0000      0.1261      0.2054      0.1649      0.0000      0.0195      0.0000      0.3177      0.2307
  4      8.9007      9.2954      9.4851      9.1561      9.1488      9.3878      9.3166      9.2899      9.1633
  5      0.0000      0.0225      0.0000      0.0291      0.0046      0.0000      0.0000      0.0000      0.0000
  6      0.0000      0.0112      0.0000      0.0000      0.0000      0.0000      0.0000      0.0206      0.0000
  7      0.0000      0.0081      0.0000      0.0000      0.0142      0.0349      0.0000      0.0000      0.0000
  8      0.0000      0.0162      0.0000      0.0000      0.0000      0.0000      0.0000      0.1262      0.0000
  9      0.0000      0.0788      0.1096      0.0000      0.0003      0.2680      0.0000      0.0661      0.0000
 10      0.9766      0.2972      0.4914      0.4852      0.5010      0.3217      0.6634      0.2777      0.4451
 11      0.0000      0.0853      0.0000      0.1265      0.2481      0.0000      0.0929      0.0919      0.2351
 12      0.0000      0.1586      0.2619      0.0000      0.2532      0.0000      0.1329      0.0000      0.4081
 13      0.0000      0.2838      0.0000      0.0000      0.6485      0.3652      0.0000      0.2033      0.0000
 14      3.2106      8.2904      8.4242      8.0005      7.6748      8.2299      8.1656      8.1153      7.9785
 15      8.6724      1.9102      2.0727      3.3432      2.1348      2.1999      2.7809      2.8711      2.4107
 16      1.0274      0.4097      0.4028      0.4065      0.4461      0.5943      0.3136      0.3294      0.6810
 17      0.0000      0.4517      0.4515      0.4217      0.4475      0.5022      0.4123      0.3778      0.4154
 18      0.0000      0.0929      0.0962      0.0000      0.1184      0.0342      0.0988      0.0871      0.0317
 19      0.0000      0.0641      0.0000      0.1186      0.0000      0.0117      0.1740      0.1662      0.0000
 20      0.0000      0.0217      0.0000      0.0000      0.0000      0.0000      0.0068      0.0000      0.0000
 21      0.0000      0.0135      0.0000      0.0000      0.0000      0.0000      0.0000      0.0000      0.0000
 22      0.0000      0.0108      0.0000      0.0000      0.0000      0.0000      0.0000      0.0000      0.0000
 23      0.0000      0.0130      0.0000      0.0000      0.0000      0.0000      0.0000      0.0034      0.0000
 24      0.0000      0.0195      0.0000      0.0000      0.0000      0.0000      0.0000      0.1006      0.0000
 25      0.0000      0.0365      0.0000      0.0329      0.0000      0.0000      0.0194      0.0000      0.0000
 26      0.0000      0.0420      0.0000      0.1658      0.1124      0.0000      0.0000      0.0413      0.0000
 27      0.0000      0.1732      0.0000      0.2903      0.0000      0.3594      0.2145      0.0000      0.2794
 28      5.9207      4.9184      4.7080      4.4621      5.4818      4.6502      4.4590      4.7558      4.8896
 29     32.5884     33.3800     33.3065     32.9899     33.6968     33.6396     33.3166     33.5326     33.6357
 30     21.0442     20.2404     20.1983     20.2423     20.0603     20.3369     20.1591     20.1120     20.1648
 31      0.0000      0.0619      0.0871      0.1526      0.1325      0.0000      0.0000      0.0998      0.0000
 32      0.0000      0.1575      0.0000      0.0104      0.3934      0.0348      0.4155      0.0985      0.0000
 33      0.0000      0.0686      0.0000      0.0000      0.0595      0.1485      0.1361      0.0000      0.0000
 34      0.0000      0.0411      0.0000      0.0000      0.0000      0.0000      0.0000      0.1091      0.0000
 35      0.0000      0.0190      0.0000      0.0000      0.0000      0.0000      0.0000      0.0000      0.0000
 36      0.0000      0.0165      0.0000      0.0000      0.0000      0.0000      0.0000      0.0000      0.0000
 37      0.0000      0.0092      0.0000      0.0000      0.0000      0.0000      0.0000      0.0000      0.0000
 38      0.0000      0.0133      0.0000      0.0000      0.0000      0.0000      0.0000      0.0000      0.0117
 39      0.0000      0.0498      0.0000      0.0000      0.0000      0.0000      0.0000      0.0000      0.0000
 40      0.0000      0.0602      0.0131      0.1384      0.0000      0.1181      0.0000      0.0000      0.1335
 41      0.0000      0.0628      0.0000      0.0000      0.0000      0.0000      0.0000      0.0954      0.0097
 42      0.0000      0.3015      1.1931      0.5277      0.0809      0.4028      0.3223      0.2815      0.0000
 43      7.0697      8.9211      8.5365      8.7932      8.6448      8.5435      9.1036      8.6907      8.7536
 44      0.0000      0.0437      0.0000      0.0000      0.0000      0.0000      0.0000      0.0000      0.0000
 45      0.0000      0.0258      0.0000      0.0000      0.0000      0.0000      0.0000      0.0000      0.0000

# j      m_j: min, <> & last-chain-values for 1 ...  7 chains
  1  9.4989E-03  8.9949E-03  9.2753E-03  9.3663E-03  9.0361E-03  9.2696E-03  9.0815E-03  8.8721E-03  9.0497E-03
  2  6.5174E-03  6.0610E-03  6.2031E-03  6.1330E-03  6.0822E-03  6.0406E-03  6.0235E-03  6.0957E-03  6.3711E-03
  3  0.0000E+00  1.4866E-04  2.4320E-04  1.9475E-04  0.0000E+00  2.2934E-05  0.0000E+00  3.7456E-04  2.7234E-04
  4  1.9480E-02  2.0408E-02  2.0914E-02  2.0130E-02  2.0135E-02  2.0604E-02  2.0450E-02  2.0395E-02  2.0144E-02
  5  0.0000E+00  1.1423E-04  0.0000E+00  1.4793E-04  2.3545E-05  0.0000E+00  0.0000E+00  0.0000E+00  0.0000E+00
  6  0.0000E+00  7.8703E-05  0.0000E+00  0.0000E+00  0.0000E+00  0.0000E+00  0.0000E+00  1.4500E-04  0.0000E+00
  7  0.0000E+00  8.0627E-05  0.0000E+00  0.0000E+00  1.4222E-04  3.4862E-04  0.0000E+00  0.0000E+00  0.0000E+00
  8  0.0000E+00  3.1177E-04  0.0000E+00  0.0000E+00  0.0000E+00  0.0000E+00  0.0000E+00  2.4350E-03  0.0000E+00
  9  0.0000E+00  3.0278E-03  4.2314E-03  0.0000E+00  1.0716E-05  1.0299E-02  0.0000E+00  2.5401E-03  0.0000E+00
 10  5.2239E-02  1.5949E-02  2.6480E-02  2.6074E-02  2.6948E-02  1.7259E-02  3.5588E-02  1.4900E-02  2.3915E-02
 11  0.0000E+00  8.0345E-03  0.0000E+00  1.1939E-02  2.3435E-02  0.0000E+00  8.7509E-03  8.6596E-03  2.2181E-02
 12  0.0000E+00  2.7787E-02  4.6093E-02  0.0000E+00  4.4462E-02  0.0000E+00  2.3280E-02  0.0000E+00  7.1585E-02
 13  0.0000E+00  9.9036E-02  0.0000E+00  0.0000E+00  2.2684E-01  1.2738E-01  0.0000E+00  7.0928E-02  0.0000E+00
 14  2.2760E+00  5.8958E+00  6.0168E+00  5.6976E+00  5.4712E+00  5.8509E+00  5.8056E+00  5.7709E+00  5.6812E+00
 15  7.1227E+00  1.5738E+00  1.7150E+00  2.7583E+00  1.7632E+00  1.8119E+00  2.2906E+00  2.3654E+00  1.9887E+00
 16  1.6214E-03  6.4866E-04  6.4050E-04  6.4447E-04  7.0796E-04  9.4063E-04  4.9632E-04  5.2138E-04  1.0795E-03
 17  0.0000E+00  3.7170E-04  3.7318E-04  3.4748E-04  3.6915E-04  4.1312E-04  3.3920E-04  3.1089E-04  3.4231E-04
 18  0.0000E+00  8.4709E-05  8.8066E-05  0.0000E+00  1.0819E-04  3.1164E-05  9.0006E-05  7.9389E-05  2.8953E-05
 19  0.0000E+00  1.7467E-04  0.0000E+00  3.2372E-04  0.0000E+00  3.1745E-05  4.7410E-04  4.5302E-04  0.0000E+00
 20  0.0000E+00  1.3158E-04  0.0000E+00  0.0000E+00  0.0000E+00  0.0000E+00  4.1225E-05  0.0000E+00  0.0000E+00
 21  0.0000E+00  9.8019E-05  0.0000E+00  0.0000E+00  0.0000E+00  0.0000E+00  0.0000E+00  0.0000E+00  0.0000E+00
 22  0.0000E+00  1.3062E-04  0.0000E+00  0.0000E+00  0.0000E+00  0.0000E+00  0.0000E+00  0.0000E+00  0.0000E+00
 23  0.0000E+00  3.0881E-04  0.0000E+00  0.0000E+00  0.0000E+00  0.0000E+00  0.0000E+00  8.0979E-05  0.0000E+00
 24  0.0000E+00  1.0588E-03  0.0000E+00  0.0000E+00  0.0000E+00  0.0000E+00  0.0000E+00  5.4733E-03  0.0000E+00
 25  0.0000E+00  3.0592E-03  0.0000E+00  2.7577E-03  0.0000E+00  0.0000E+00  1.6268E-03  0.0000E+00  0.0000E+00
 26  0.0000E+00  6.6335E-03  0.0000E+00  2.6259E-02  1.7808E-02  0.0000E+00  0.0000E+00  6.5279E-03  0.0000E+00
 27  0.0000E+00  5.5562E-02  0.0000E+00  9.3276E-02  0.0000E+00  1.1528E-01  6.8821E-02  0.0000E+00  8.9766E-02
 28  3.8321E+00  3.1934E+00  3.0700E+00  2.9013E+00  3.5679E+00  3.0184E+00  2.8945E+00  3.0877E+00  3.1788E+00
 29  4.4653E+01  4.5882E+01  4.5978E+01  4.5410E+01  4.6430E+01  4.6225E+01  4.5784E+01  4.6089E+01  4.6292E+01
 30  3.4401E+01  3.3191E+01  3.3265E+01  3.3241E+01  3.2976E+01  3.3340E+01  3.3050E+01  3.2979E+01  3.3110E+01
 31  0.0000E+00  7.3450E-05  1.0384E-04  1.8149E-04  1.5777E-04  0.0000E+00  0.0000E+00  1.1851E-04  0.0000E+00
 32  0.0000E+00  9.8614E-05  0.0000E+00  6.5208E-06  2.4690E-04  2.1789E-05  2.6006E-04  6.1663E-05  0.0000E+00
 33  0.0000E+00  6.3713E-05  0.0000E+00  0.0000E+00  5.5410E-05  1.3784E-04  1.2636E-04  0.0000E+00  0.0000E+00
