###################################################################
## OUTPUT of StarlightChains_v04.for    [Cid@UFSC - 01/Apr/2007] ##
###################################################################

## Some input info
NGC5946_a_1.cxt                          [arq_obs]
Base.BC03.N                              [arq_base]
NGC5946_a_1.msk                          [arq_masks]
StCv04.C11.config                        [arq_config]
   45                                    [N_base]
    0                                    [N_YAV_components = # of components with extra extinction!]
    0                                    [i_FitPowerLaw (1/0 = Yes/No)]
-9.99                                    [alpha_PowerLaw]
CCM                                      [red_law_option]
 1.458241                                [q_norm = A(l_norm)/A(V)]

## (Re)Sampling Parameters
 3359.00                                 [l_ini (A)]
 6428.00                                 [l_fin (A)]
    1.00                                 [dl    (A)]     (OBS: dl_cushion =    50.00 A)

## Normalization info
 4020.00                                 [l_norm (A) - for base]
 4010.00                                 [llow_norm (A) - window for f_obs]
 4060.00                                 [lupp_norm (A) - window for f_obs]
2.679293E-15                             [fobs_norm (in input units)]

## S/N
 4730.00                                 [llow_SN (A) - window for S/N]
 4780.00                                 [lupp_SN (A) - window for S/N]
  76.219                                 [S/N in S/N window]
  50.437                                 [S/N in norm. window]
 152.898                                 [S/N_err in S/N window]
 101.177                                 [S/N_err in norm. window]
  1.0000                                 [fscale_chi2]

## etc...
  2147483630                             [idum_orig]
  3068                                   [NOl_eff]
   787                                   [Nl_eff]
  2281    NSIGMA                         [Ntot_cliped & clip_method]
   955920                                [Nglobal_steps]
   7                                     [N_chains]
   9                                     [NEX0s_base = N_base in EX0s-fits]
 0   0   1      136   2.0   2.373E+02    [Clip-Bug, RC-Crash & Burn-In warning-flags, n_censored_weights, wei_nsig_threshold & wei_limit]
    12     12.187     12.187      0.000  [idt_all, wdt_TotTime, wdt_UsrTime & wdt_SysTime (sec)]

## Synthesis Results - Best model ##

 2.56815E+00                             [chi2/Nl_eff]
     2.01085                             [adev (%)]

    99.88862                             [sum-of-x (%)]
 5.29353E-14                             [Flux_tot (units of input spectrum!)]
 4.72179E-10                             [Mini_tot (???)]
 2.52407E-10                             [Mcor_tot (???)]

 -30.85                                  [v0_min  (km/s)]
 134.13                                  [vd_min  (km/s)]
 2.2222                                  [AV_min  (mag)]
 0.0000                                  [YAV_min (mag)]

# j     x_j(%)      Mini_j(%)     Mcor_j(%)     age_j(yr)     Z_j      (L/M)_j    YAV?  Mstars   component_j        a/Fe...       SSP_chi2r SSP_adev(%)   SSP_AV   SSP_x(%)
  1      0.0000     0.0000E+00    0.0000E+00    1.000000E+06  0.00400  1.114E-02    0   1.0000   age020_m42            0.0000     2.1608E+03    33.0602   4.0000    96.9350
  2      5.3239     1.4670E-02    2.7441E-02    3.160000E+06  0.00400  4.073E-02    0   0.9999   age045_m42            0.0000     1.3306E+02     8.8993   4.0000    99.7980
  3      0.5064     2.2429E-03    3.9810E-03    5.010000E+06  0.00400  2.534E-02    0   0.9488   age055_m42            0.0000     6.5935E+02    19.5699   4.0000   100.3487
  4     13.0263     1.1503E-01    1.9069E-01    1.000000E+07  0.00400  1.271E-02    0   0.8862   age070_m42            0.0000     7.7985E+01     8.2243   3.8652    91.2415
  5      7.3113     1.6185E-01    2.4749E-01    2.512000E+07  0.00400  5.070E-03    0   0.8174   age090_m42            0.0000     6.4688E+01     7.4970   3.7406    92.8183
  6      0.0000     0.0000E+00    0.0000E+00    4.000000E+07  0.00400  3.505E-03    0   0.7851   age104_m42            0.0000     3.3716E+01     5.4165   3.4345    95.9492
  7      0.0000     0.0000E+00    0.0000E+00    1.015200E+08  0.00400  2.268E-03    0   0.7207   age116_m42            0.0000     2.3652E+02    11.7078   3.4596   104.9805
  8      0.0000     0.0000E+00    0.0000E+00    2.861200E+08  0.00400  1.079E-03    0   0.6613   age125_m42            0.0000     2.7423E+02    12.7902   2.9800   106.3685
  9      2.9711     6.5681E-01    7.6142E-01    6.405400E+08  0.00400  5.077E-04    0   0.6197   age132_m42            0.0000     3.0265E+02    13.7936   2.6370   109.6117
 10     15.8484     5.0317E+00    5.6703E+00    9.047900E+08  0.00400  3.535E-04    0   0.6024   age135_m42            0.0000     2.0030E+02    11.3892   2.4021   108.7330
 11      0.0000     0.0000E+00    0.0000E+00    1.434000E+09  0.00400  1.910E-04    0   0.5716   age139_m42            0.0000     1.0721E+02     8.6307   1.8914   107.4168
 12     22.6713     2.5916E+01    2.6486E+01    2.500000E+09  0.00400  9.818E-05    0   0.5463   age150_m42            0.0000     4.5185E+01     5.9260   1.6201   102.7590
 13     28.6227     6.8089E+01    6.6591E+01    5.000000E+09  0.00400  4.718E-05    0   0.5228   age161_m42            0.0000     3.8793E+01     5.1823   1.4493    99.6038
 14      0.0000     0.0000E+00    0.0000E+00    1.100000E+10  0.00400  2.205E-05    0   0.4980   age185_m42            0.0000     7.5008E+01     6.7047   1.1967    97.5444
 15      0.0000     0.0000E+00    0.0000E+00    1.300000E+10  0.00400  1.883E-05    0   0.4927   age193_m42            0.0000     8.0321E+01     6.9630   1.1803    97.3967
 16      0.0000     0.0000E+00    0.0000E+00    1.000000E+06  0.02000  1.989E-02    0   1.0000   age020_m62            0.0000     2.0543E+03    32.0602   4.0000    97.4728
 17      0.0000     0.0000E+00    0.0000E+00    3.160000E+06  0.02000  3.772E-02    0   0.9858   age045_m62            0.0000     1.6192E+03    29.2041   4.0000    99.2744
 18      3.6071     1.2545E-02    2.1924E-02    5.010000E+06  0.02000  3.227E-02    0   0.9342   age055_m62            0.0000     3.9197E+02    15.2892   4.0000   101.4663
 19      0.0000     0.0000E+00    0.0000E+00    1.000000E+07  0.02000  1.011E-02    0   0.8751   age070_m62            0.0000     2.5482E+02    13.7469   3.8747    87.2971
 20      0.0000     0.0000E+00    0.0000E+00    2.512000E+07  0.02000  4.206E-03    0   0.8099   age090_m62            0.0000     1.6509E+02    11.5577   3.8109    88.4514
 21      0.0000     0.0000E+00    0.0000E+00    4.000000E+07  0.02000  3.373E-03    0   0.7799   age104_m62            0.0000     3.9358E+01     5.0096   3.6393    97.4581
 22      0.0000     0.0000E+00    0.0000E+00    1.015200E+08  0.02000  1.878E-03    0   0.7221   age116_m62            0.0000     1.8978E+02    10.2626   3.4760   105.5507
 23      0.0000     0.0000E+00    0.0000E+00    2.861200E+08  0.02000  8.869E-04    0   0.6700   age125_m62            0.0000     4.6401E+02    16.6746   3.0074   111.1773
 24      0.0000     0.0000E+00    0.0000E+00    6.405400E+08  0.02000  3.657E-04    0   0.6322   age132_m62            0.0000     3.4052E+02    14.5175   2.3665   113.1866
 25      0.0000     0.0000E+00    0.0000E+00    9.047900E+08  0.02000  2.312E-04    0   0.6152   age135_m62            0.0000     2.0661E+02    11.6362   1.9993   112.0837
 26      0.0000     0.0000E+00    0.0000E+00    1.434000E+09  0.02000  1.168E-04    0   0.5865   age139_m62            0.0000     8.0963E+01     7.4474   1.5786   106.6082
 27      0.0000     0.0000E+00    0.0000E+00    2.500000E+09  0.02000  5.505E-05    0   0.5610   age150_m62            0.0000     8.9963E+01     7.5645   1.2195   103.6020
 28      0.0000     0.0000E+00    0.0000E+00    5.000000E+09  0.02000  2.596E-05    0   0.5353   age161_m62            0.0000     1.6326E+02     9.7917   0.9034   103.4710
 29      0.0000     0.0000E+00    0.0000E+00    1.100000E+10  0.02000  1.169E-05    0   0.5103   age185_m62            0.0000     2.5957E+02    12.1191   0.5474   105.0699
 30      0.0000     0.0000E+00    0.0000E+00    1.300000E+10  0.02000  9.691E-06    0   0.5047   age193_m62            0.0000     2.7809E+02    12.5216   0.5019   105.3621
 31      0.0000     0.0000E+00    0.0000E+00    1.000000E+06  0.05000  2.651E-02    0   0.9998   age020_m72            0.0000     2.0218E+03    31.5587   4.0000    98.6559
 32      0.0000     0.0000E+00    0.0000E+00    3.160000E+06  0.05000  4.817E-02    0   0.9577   age045_m72            0.0000     1.1462E+03    24.8960   4.0000   102.0352
 33      0.0000     0.0000E+00    0.0000E+00    5.010000E+06  0.05000  3.101E-02    0   0.9147   age055_m72            0.0000     4.6409E+02    17.2938   4.0000    99.4388
 34      0.0000     0.0000E+00    0.0000E+00    1.000000E+07  0.05000  8.954E-03    0   0.8524   age070_m72            0.0000     8.7357E+02    22.0211   4.0000   101.4868
 35      0.0000     0.0000E+00    0.0000E+00    2.512000E+07  0.05000  4.207E-03    0   0.7902   age090_m72            0.0000     1.9127E+02    10.9888   4.0000   100.3918
 36      0.0000     0.0000E+00    0.0000E+00    4.000000E+07  0.05000  3.198E-03    0   0.7618   age104_m72            0.0000     1.0667E+02     7.1893   3.8374   101.4376
 37      0.0000     0.0000E+00    0.0000E+00    1.015200E+08  0.05000  1.716E-03    0   0.7092   age116_m72            0.0000     2.4127E+02    11.6100   3.5661   105.6324
 38      0.0000     0.0000E+00    0.0000E+00    2.861200E+08  0.05000  7.047E-04    0   0.6618   age125_m72            0.0000     4.5648E+02    16.6232   2.8174   111.4466
 39      0.0000     0.0000E+00    0.0000E+00    6.405400E+08  0.05000  2.633E-04    0   0.6253   age132_m72            0.0000     2.7039E+02    13.2331   2.0052   112.4610
 40      0.0000     0.0000E+00    0.0000E+00    9.047900E+08  0.05000  1.484E-04    0   0.6088   age135_m72            0.0000     1.3852E+02     9.8871   1.5315   107.1919
 41      0.0000     0.0000E+00    0.0000E+00    1.434000E+09  0.05000  7.827E-05    0   0.5847   age139_m72            0.0000     1.3275E+02     9.1524   1.1478   103.7901
 42      0.0000     0.0000E+00    0.0000E+00    2.500000E+09  0.05000  3.759E-05    0   0.5583   age150_m72            0.0000     1.7678E+02    10.1756   0.8294   103.1010
 43      0.0000     0.0000E+00    0.0000E+00    5.000000E+09  0.05000  1.548E-05    0   0.5320   age161_m72            0.0000     2.6050E+02    11.8762   0.4225   103.0328
 44      0.0000     0.0000E+00    0.0000E+00    1.100000E+10  0.05000  6.532E-06    0   0.5070   age185_m72            0.0000     3.8377E+02    14.1455   0.0479   103.6238
 45      0.0000     0.0000E+00    0.0000E+00    1.300000E+10  0.05000  5.316E-06    0   0.5018   age193_m72            0.0000     4.3862E+02    15.1010  -0.0677   103.9551


## Synthesis Results - Average & Chains ##

# j      x_j: min, <> & last-chain-values for 1 ...  7 chains
  1      0.0000      0.0204      0.0000      0.0079      0.0000      0.0000      0.0770      0.0000      0.0000
  2      5.3239      5.3841      5.4089      5.4373      5.3884      5.4358      5.4878      5.4762      5.4123
  3      0.5064      1.2218      1.3944      1.3167      1.2247      1.3363      1.2651      1.1685      1.1143
  4     13.0263     11.5725     11.9413     11.7967     11.8977     11.5402     11.5564     12.3696     11.8774
  5      7.3113      6.8385      6.6549      7.1169      6.9886      6.9451      6.9580      6.8110      6.8573
  6      0.0000      0.0734      0.1755      0.0000      0.0000      0.0000      0.0000      0.0000      0.0000
  7      0.0000      0.1815      0.0000      0.2593      0.1204      0.0708      0.4712      0.0000      0.0499
  8      0.0000      0.1101      0.1856      0.0000      0.0000      0.0015      0.0401      0.0000      0.0000
  9      2.9711      2.6108      2.5427      2.6595      2.5874      2.5828      2.4880      2.6628      2.7813
 10     15.8484     14.8909     15.4355     15.0346     15.7601     15.8362     14.6063     14.9130     14.7999
 11      0.0000      0.3021      0.5346      0.0000      0.0370      0.2686      0.6278      0.5650      0.3881
 12     22.6713     22.9275     22.8483     23.4266     23.0546     23.0923     23.1822     22.8519     22.9205
 13     28.6227     28.9726     28.9942     28.5611     29.1365     28.5287     29.0798     29.0341     29.1251
 14      0.0000      0.0502      0.0000      0.1166      0.0506      0.0000      0.0304      0.0000      0.0000
 15      0.0000      0.0326      0.0000      0.0410      0.0000      0.0000      0.0000      0.0000      0.0000
 16      0.0000      0.0173      0.0000      0.0000      0.0000      0.0000      0.0142      0.0000      0.0000
 17      0.0000      0.0202      0.0000      0.0364      0.0000      0.0082      0.0000      0.0000      0.0000
 18      3.6071      3.1118      3.0723      3.0961      3.0396      3.3254      3.2503      3.2416      3.3555
 19      0.0000      0.2848      0.2311      0.0658      0.2461      0.3816      0.2176      0.0750      0.1934
 20      0.0000      0.0342      0.0082      0.0000      0.0000      0.0000      0.0000      0.0000      0.1771
 21      0.0000      0.0706      0.0000      0.1367      0.0000      0.0000      0.0000      0.0000      0.0000
 22      0.0000      0.0798      0.0000      0.0639      0.0000      0.0000      0.0189      0.1106      0.0459
 23      0.0000      0.0595      0.0000      0.0587      0.0389      0.0000      0.0254      0.0000      0.0000
 24      0.0000      0.0588      0.0000      0.0000      0.0000      0.0000      0.0000      0.2626      0.0000
 25      0.0000      0.1043      0.0000      0.0000      0.0000      0.0641      0.0000      0.0000      0.0419
 26      0.0000      0.0741      0.0000      0.0000      0.0000      0.0000      0.0621      0.2090      0.0000
 27      0.0000      0.0611      0.0000      0.0578      0.0000      0.0000      0.0000      0.0000      0.0000
 28      0.0000      0.0352      0.0000      0.0000      0.0000      0.0176      0.0000      0.0000      0.0000
 29      0.0000      0.0454      0.0000      0.0000      0.0000      0.1168      0.0000      0.0000      0.0201
 30      0.0000      0.0077      0.0000      0.0742      0.0000      0.0000      0.0000      0.0000      0.0000
 31      0.0000      0.0183      0.0000      0.0000      0.0436      0.0000      0.0000      0.0000      0.0000
 32      0.0000      0.0342      0.0000      0.0000      0.0000      0.0000      0.0000      0.0233      0.0298
 33      0.0000      0.0611      0.0710      0.0000      0.0533      0.0234      0.0000      0.0000      0.0164
 34      0.0000      0.0172      0.0000      0.0000      0.0000      0.0000      0.0035      0.0000      0.0000
 35      0.0000      0.0308      0.0000      0.0000      0.0556      0.0000      0.0000      0.0000      0.0023
 36      0.0000      0.0614      0.0000      0.0000      0.0000      0.1334      0.0062      0.0000      0.0000
 37      0.0000      0.1628      0.2398      0.3345      0.0000      0.0648      0.3473      0.1162      0.4041
 38      0.0000      0.0419      0.0144      0.0000      0.0000      0.0000      0.0294      0.0000      0.0071
 39      0.0000      0.0827      0.0000      0.0063      0.0402      0.0000      0.0000      0.0000      0.0605
 40      0.0000      0.0664      0.1294      0.0000      0.0393      0.0000      0.0000      0.0000      0.1934
 41      0.0000      0.0378      0.0281      0.1302      0.1056      0.0000      0.0000      0.0000      0.0000
 42      0.0000      0.0296      0.0000      0.0000      0.0000      0.1515      0.0000      0.0000      0.0000
 43      0.0000      0.0133      0.0000      0.0000      0.0132      0.0000      0.0000      0.0000      0.0000
 44      0.0000      0.0166      0.0000      0.0000      0.0000      0.0000      0.0000      0.0000      0.0000
 45      0.0000      0.0216      0.0352      0.1015      0.0000      0.0000      0.0484      0.0315      0.0000

# j      m_j: min, <> & last-chain-values for 1 ...  7 chains
  1  0.0000E+00  3.7297E-04  0.0000E+00  1.4359E-04  0.0000E+00  0.0000E+00  1.4126E-03  0.0000E+00  0.0000E+00
  2  2.7441E-02  2.6859E-02  2.7324E-02  2.6858E-02  2.7205E-02  2.7471E-02  2.7539E-02  2.7660E-02  2.7428E-02
  3  3.9810E-03  9.2964E-03  1.0744E-02  9.9197E-03  9.4306E-03  1.0300E-02  9.6831E-03  9.0019E-03  8.6123E-03
  4  1.9069E-01  1.6397E-01  1.7133E-01  1.6550E-01  1.7061E-01  1.6565E-01  1.6471E-01  1.7745E-01  1.7095E-01
  5  2.4749E-01  2.2404E-01  2.2078E-01  2.3087E-01  2.3172E-01  2.3051E-01  2.2931E-01  2.2592E-01  2.2821E-01
  6  0.0000E+00  3.3396E-03  8.0912E-03  0.0000E+00  0.0000E+00  0.0000E+00  0.0000E+00  0.0000E+00  0.0000E+00
  7  0.0000E+00  1.1717E-02  0.0000E+00  1.6579E-02  7.8697E-03  4.6336E-03  3.0606E-02  0.0000E+00  3.2758E-03
  8  0.0000E+00  1.3718E-02  2.3403E-02  0.0000E+00  0.0000E+00  1.8941E-04  5.0278E-03  0.0000E+00  0.0000E+00
  9  7.6142E-01  6.4757E-01  6.3866E-01  6.5316E-01  6.4952E-01  6.4899E-01  6.2078E-01  6.6873E-01  7.0077E-01
 10  5.6703E+00  5.1565E+00  5.4127E+00  5.1550E+00  5.5234E+00  5.5555E+00  5.0880E+00  5.2286E+00  5.2062E+00
 11  0.0000E+00  1.8372E-01  3.2925E-01  0.0000E+00  2.2763E-02  1.6548E-01  3.8403E-01  3.4788E-01  2.3976E-01
 12  2.6486E+01  2.5924E+01  2.6161E+01  2.6228E+01  2.6383E+01  2.6452E+01  2.6368E+01  2.6161E+01  2.6327E+01
 13  6.6591E+01  6.5239E+01  6.6113E+01  6.3679E+01  6.6400E+01  6.5079E+01  6.5868E+01  6.6193E+01  6.6620E+01
 14  0.0000E+00  2.3044E-01  0.0000E+00  5.3005E-01  2.3511E-01  0.0000E+00  1.4026E-01  0.0000E+00  0.0000E+00
 15  0.0000E+00  1.7349E-01  0.0000E+00  2.1575E-01  0.0000E+00  0.0000E+00  0.0000E+00  0.0000E+00  0.0000E+00
 16  0.0000E+00  1.7634E-04  0.0000E+00  0.0000E+00  0.0000E+00  0.0000E+00  1.4632E-04  0.0000E+00  0.0000E+00
 17  0.0000E+00  1.0704E-04  0.0000E+00  1.9121E-04  0.0000E+00  4.4216E-05  0.0000E+00  0.0000E+00  0.0000E+00
 18  2.1924E-02  1.8306E-02  1.8302E-02  1.8034E-02  1.8097E-02  1.9818E-02  1.9234E-02  1.9307E-02  2.0052E-02
 19  0.0000E+00  5.0086E-03  4.1168E-03  1.1457E-03  4.3817E-03  6.7999E-03  3.8509E-03  1.3360E-03  3.4559E-03
 20  0.0000E+00  1.3373E-03  3.2597E-04  0.0000E+00  0.0000E+00  0.0000E+00  0.0000E+00  0.0000E+00  7.0379E-03
 21  0.0000E+00  3.3176E-03  0.0000E+00  6.3576E-03  0.0000E+00  0.0000E+00  0.0000E+00  0.0000E+00  0.0000E+00
 22  0.0000E+00  6.2341E-03  0.0000E+00  4.9429E-03  0.0000E+00  0.0000E+00  1.4885E-03  8.7487E-03  3.6449E-03
 23  0.0000E+00  9.1359E-03  0.0000E+00  8.9179E-03  6.0491E-03  0.0000E+00  3.9198E-03  0.0000E+00  0.0000E+00
 24  0.0000E+00  2.0644E-02  0.0000E+00  0.0000E+00  0.0000E+00  0.0000E+00  0.0000E+00  9.3387E-02  0.0000E+00
 25  0.0000E+00  5.6375E-02  0.0000E+00  0.0000E+00  0.0000E+00  3.5086E-02  0.0000E+00  0.0000E+00  2.2998E-02
 26  0.0000E+00  7.5587E-02  0.0000E+00  0.0000E+00  0.0000E+00  0.0000E+00  6.3785E-02  2.1591E-01  0.0000E+00
 27  0.0000E+00  1.2644E-01  0.0000E+00  1.1849E-01  0.0000E+00  0.0000E+00  0.0000E+00  0.0000E+00  0.0000E+00
 28  0.0000E+00  1.4768E-01  0.0000E+00  0.0000E+00  0.0000E+00  7.4537E-02  0.0000E+00  0.0000E+00  0.0000E+00
 29  0.0000E+00  4.0234E-01  0.0000E+00  0.0000E+00  0.0000E+00  1.0494E+00  0.0000E+00  0.0000E+00  1.8089E-01
 30  0.0000E+00  8.0969E-02  0.0000E+00  7.7754E-01  0.0000E+00  0.0000E+00  0.0000E+00  0.0000E+00  0.0000E+00
 31  0.0000E+00  1.3988E-04  0.0000E+00  0.0000E+00  3.3795E-04  0.0000E+00  0.0000E+00  0.0000E+00  0.0000E+00
 32  0.0000E+00  1.3815E-04  0.0000E+00  0.0000E+00  0.0000E+00  0.0000E+00  0.0000E+00  9.5252E-05  1.2222E-04
 33  0.0000E+00  3.6639E-04  4.3112E-04  0.0000E+00  3.2347E-04  1.4202E-04  0.0000E+00  0.0000E+00  1.0001E-04
