###################################################################
## OUTPUT of StarlightChains_v04.for    [Cid@UFSC - 01/Apr/2007] ##
###################################################################

## Some input info
NGC5927_a_1.cxt                          [arq_obs]
Base.BC03.N                              [arq_base]
NGC5927_a_1.msk                          [arq_masks]
StCv04.C11.config                        [arq_config]
   45                                    [N_base]
    0                                    [N_YAV_components = # of components with extra extinction!]
    0                                    [i_FitPowerLaw (1/0 = Yes/No)]
-9.99                                    [alpha_PowerLaw]
CCM                                      [red_law_option]
 1.458241                                [q_norm = A(l_norm)/A(V)]

## (Re)Sampling Parameters
 3359.00                                 [l_ini (A)]
 6428.00                                 [l_fin (A)]
    1.00                                 [dl    (A)]     (OBS: dl_cushion =    50.00 A)

## Normalization info
 4020.00                                 [l_norm (A) - for base]
 4010.00                                 [llow_norm (A) - window for f_obs]
 4060.00                                 [lupp_norm (A) - window for f_obs]
6.245917E-15                             [fobs_norm (in input units)]

## S/N
 4730.00                                 [llow_SN (A) - window for S/N]
 4780.00                                 [lupp_SN (A) - window for S/N]
  32.311                                 [S/N in S/N window]
  18.790                                 [S/N in norm. window]
  40.662                                 [S/N_err in S/N window]
  23.646                                 [S/N_err in norm. window]
  1.0000                                 [fscale_chi2]

## etc...
  2147483633                             [idum_orig]
  3068                                   [NOl_eff]
  1604                                   [Nl_eff]
  1464    NSIGMA                         [Ntot_cliped & clip_method]
   978880                                [Nglobal_steps]
   7                                     [N_chains]
  13                                     [NEX0s_base = N_base in EX0s-fits]
 0   0   1      209   2.0   5.155E+02    [Clip-Bug, RC-Crash & Burn-In warning-flags, n_censored_weights, wei_nsig_threshold & wei_limit]
    10     10.113     10.105      0.008  [idt_all, wdt_TotTime, wdt_UsrTime & wdt_SysTime (sec)]

## Synthesis Results - Best model ##

 1.78692E+00                             [chi2/Nl_eff]
     1.86285                             [adev (%)]

   101.85921                             [sum-of-x (%)]
 3.31354E-14                             [Flux_tot (units of input spectrum!)]
 1.92780E-09                             [Mini_tot (???)]
 9.84880E-10                             [Mcor_tot (???)]

  14.56                                  [v0_min  (km/s)]
  59.79                                  [vd_min  (km/s)]
 1.2287                                  [AV_min  (mag)]
 0.0000                                  [YAV_min (mag)]

# j     x_j(%)      Mini_j(%)     Mcor_j(%)     age_j(yr)     Z_j      (L/M)_j    YAV?  Mstars   component_j        a/Fe...       SSP_chi2r SSP_adev(%)   SSP_AV   SSP_x(%)
  1      2.7573     4.1766E-03    8.1752E-03    1.000000E+06  0.00400  1.114E-02    0   1.0000   age020_m42            0.0000     1.2507E+03    35.8909   4.0000    85.2512
  2      9.7313     4.0317E-03    7.8908E-03    3.160000E+06  0.00400  4.073E-02    0   0.9999   age045_m42            0.0000     3.7149E+02    13.7577   4.0000    95.4915
  3      3.0792     2.0505E-03    3.8082E-03    5.010000E+06  0.00400  2.534E-02    0   0.9488   age055_m42            0.0000     6.4348E+02    23.3331   4.0000    91.7218
  4      6.7203     8.9222E-03    1.5477E-02    1.000000E+07  0.00400  1.271E-02    0   0.8862   age070_m42            0.0000     3.0827E+02     9.4942   4.0000    91.0617
  5      0.0000     0.0000E+00    0.0000E+00    2.512000E+07  0.00400  5.070E-03    0   0.8174   age090_m42            0.0000     2.7946E+02     9.4313   3.9941    91.5179
  6      0.0000     0.0000E+00    0.0000E+00    4.000000E+07  0.00400  3.505E-03    0   0.7851   age104_m42            0.0000     2.5549E+02     7.8529   3.6499    94.1496
  7      0.0000     0.0000E+00    0.0000E+00    1.015200E+08  0.00400  2.268E-03    0   0.7207   age116_m42            0.0000     6.0622E+02     8.9608   3.5373   100.7908
  8      0.0000     0.0000E+00    0.0000E+00    2.861200E+08  0.00400  1.079E-03    0   0.6613   age125_m42            0.0000     6.2193E+02     9.8911   3.0074   102.6884
  9      0.0000     0.0000E+00    0.0000E+00    6.405400E+08  0.00400  5.077E-04    0   0.6197   age132_m42            0.0000     6.2764E+02    10.1767   2.6520   106.4146
 10      0.0000     0.0000E+00    0.0000E+00    9.047900E+08  0.00400  3.535E-04    0   0.6024   age135_m42            0.0000     4.6489E+02     9.0086   2.4117   106.3346
 11      0.8276     7.3120E-02    8.1810E-02    1.434000E+09  0.00400  1.910E-04    0   0.5716   age139_m42            0.0000     2.5891E+02     7.3162   1.8604   106.2479
 12      0.0000     0.0000E+00    0.0000E+00    2.500000E+09  0.00400  9.818E-05    0   0.5463   age150_m42            0.0000     9.8308E+01     4.8356   1.5973   102.8570
 13      1.8019     6.4446E-01    6.5949E-01    5.000000E+09  0.00400  4.718E-05    0   0.5228   age161_m42            0.0000     4.2555E+01     3.4634   1.4434   100.2367
 14      0.0375     2.8730E-02    2.8006E-02    1.100000E+10  0.00400  2.205E-05    0   0.4980   age185_m42            0.0000     2.8606E+01     3.6521   1.1574    98.7371
 15      2.9451     2.6393E+00    2.5453E+00    1.300000E+10  0.00400  1.883E-05    0   0.4927   age193_m42            0.0000     2.8720E+01     3.6891   1.1391    98.6481
 16      0.0000     0.0000E+00    0.0000E+00    1.000000E+06  0.02000  1.989E-02    0   1.0000   age020_m62            0.0000     1.2030E+03    35.0514   4.0000    85.9560
 17      0.0000     0.0000E+00    0.0000E+00    3.160000E+06  0.02000  3.772E-02    0   0.9858   age045_m62            0.0000     1.0510E+03    32.1812   4.0000    88.0015
 18      1.7947     9.3849E-04    1.7161E-03    5.010000E+06  0.02000  3.227E-02    0   0.9342   age055_m62            0.0000     5.4052E+02    19.8723   4.0000    93.7869
 19      0.0000     0.0000E+00    0.0000E+00    1.000000E+07  0.02000  1.011E-02    0   0.8751   age070_m62            0.0000     3.9322E+02    12.4210   4.0000    88.8011
 20      0.0000     0.0000E+00    0.0000E+00    2.512000E+07  0.02000  4.206E-03    0   0.8099   age090_m62            0.0000     3.3065E+02    10.6801   4.0000    88.8681
 21      0.0000     0.0000E+00    0.0000E+00    4.000000E+07  0.02000  3.373E-03    0   0.7799   age104_m62            0.0000     3.2236E+02     8.0253   3.8470    94.9045
 22      0.0000     0.0000E+00    0.0000E+00    1.015200E+08  0.02000  1.878E-03    0   0.7221   age116_m62            0.0000     5.8079E+02     8.5777   3.5802   101.1086
 23      0.0000     0.0000E+00    0.0000E+00    2.861200E+08  0.02000  8.869E-04    0   0.6700   age125_m62            0.0000     8.7114E+02    11.6674   3.0074   106.6270
 24      0.0000     0.0000E+00    0.0000E+00    6.405400E+08  0.02000  3.657E-04    0   0.6322   age132_m62            0.0000     6.1305E+02    11.3724   2.2683   110.7889
 25      0.0000     0.0000E+00    0.0000E+00    9.047900E+08  0.02000  2.312E-04    0   0.6152   age135_m62            0.0000     3.7975E+02     9.6728   1.8906   110.9425
 26      0.0000     0.0000E+00    0.0000E+00    1.434000E+09  0.02000  1.168E-04    0   0.5865   age139_m62            0.0000     1.3358E+02     6.2877   1.4931   106.8277
 27      0.0000     0.0000E+00    0.0000E+00    2.500000E+09  0.02000  5.505E-05    0   0.5610   age150_m62            0.0000     5.1120E+01     5.1765   1.1162   105.0232
 28     16.8583     1.0958E+01    1.1482E+01    5.000000E+09  0.02000  2.596E-05    0   0.5353   age161_m62            0.0000     5.4518E+01     6.4092   0.7376   105.8076
 29     35.8200     5.1706E+01    5.1647E+01    1.100000E+10  0.02000  1.169E-05    0   0.5103   age185_m62            0.0000     1.0232E+02     8.5024   0.3070   108.0619
 30     19.4859     3.3930E+01    3.3519E+01    1.300000E+10  0.02000  9.691E-06    0   0.5047   age193_m62            0.0000     1.1432E+02     8.8818   0.2498   108.4125
 31      0.0000     0.0000E+00    0.0000E+00    1.000000E+06  0.05000  2.651E-02    0   0.9998   age020_m72            0.0000     1.1810E+03    34.7690   4.0000    86.8748
 32      0.0000     0.0000E+00    0.0000E+00    3.160000E+06  0.05000  4.817E-02    0   0.9577   age045_m72            0.0000     8.7132E+02    28.3147   4.0000    91.2133
 33      0.0000     0.0000E+00    0.0000E+00    5.010000E+06  0.05000  3.101E-02    0   0.9147   age055_m72            0.0000     6.0155E+02    20.4679   4.0000    92.7712
 34      0.0000     0.0000E+00    0.0000E+00    1.000000E+07  0.05000  8.954E-03    0   0.8524   age070_m72            0.0000     7.3596E+02    25.3705   4.0000    92.1895
 35      0.0000     0.0000E+00    0.0000E+00    2.512000E+07  0.05000  4.207E-03    0   0.7902   age090_m72            0.0000     4.1515E+02    15.2513   4.0000    95.3702
 36      0.0000     0.0000E+00    0.0000E+00    4.000000E+07  0.05000  3.198E-03    0   0.7618   age104_m72            0.0000     4.5642E+02     7.3158   3.9689    97.8414
 37      0.0000     0.0000E+00    0.0000E+00    1.015200E+08  0.05000  1.716E-03    0   0.7092   age116_m72            0.0000     6.4771E+02     9.1232   3.6594   101.0297
 38      0.0000     0.0000E+00    0.0000E+00    2.861200E+08  0.05000  7.047E-04    0   0.6618   age125_m72            0.0000     8.2391E+02    11.6199   2.7753   107.5666
 39      0.0000     0.0000E+00    0.0000E+00    6.405400E+08  0.05000  2.633E-04    0   0.6253   age132_m72            0.0000     4.6053E+02    10.7473   1.8604   111.2193
 40      0.0000     0.0000E+00    0.0000E+00    9.047900E+08  0.05000  1.484E-04    0   0.6088   age135_m72            0.0000     1.8811E+02     8.1272   1.3762   107.6216
 41      0.0000     0.0000E+00    0.0000E+00    1.434000E+09  0.05000  7.827E-05    0   0.5847   age139_m72            0.0000     8.0065E+01     6.6382   0.9829   105.5180
 42      0.0000     0.0000E+00    0.0000E+00    2.500000E+09  0.05000  3.759E-05    0   0.5583   age150_m72            0.0000     6.7812E+01     6.9351   0.6535   105.4029
 43      0.0000     0.0000E+00    0.0000E+00    5.000000E+09  0.05000  1.548E-05    0   0.5320   age161_m72            0.0000     1.0681E+02     8.7301   0.1912   105.5738
 44      0.0000     0.0000E+00    0.0000E+00    1.100000E+10  0.05000  6.532E-06    0   0.5070   age185_m72            0.0000     1.8623E+02    12.1418  -0.3239   106.7977
 45      0.0000     5.5871E-05    5.4878E-05    1.300000E+10  0.05000  5.316E-06    0   0.5018   age193_m72            0.0000     2.2631E+02    13.5268  -0.5042   107.5200


## Synthesis Results - Average & Chains ##

# j      x_j: min, <> & last-chain-values for 1 ...  7 chains
  1      2.7573      2.0772      2.2068      2.1534      2.0940      2.2130      2.3168      2.2816      2.0517
  2      9.7313      9.0824      8.9284      9.5123      9.3328      9.1268      8.6772      9.2605      9.0536
  3      3.0792      2.8744      2.8313      2.9049      2.9267      3.0701      2.8993      2.7826      2.9116
  4      6.7203      6.7157      6.7747      6.6838      6.7942      6.7142      6.8786      6.6357      6.6268
  5      0.0000      0.0737      0.0000      0.0000      0.0000      0.0000      0.0000      0.0000      0.0000
  6      0.0000      0.0266      0.0000      0.0000      0.0000      0.0000      0.0000      0.0000      0.0000
  7      0.0000      0.0162      0.0000      0.0000      0.0000      0.0000      0.0000      0.0000      0.0000
  8      0.0000      0.0225      0.0000      0.0000      0.0000      0.0000      0.0000      0.0000      0.0000
  9      0.0000      0.0471      0.0000      0.2384      0.0000      0.1330      0.1389      0.0000      0.0000
 10      0.0000      0.4682      0.3984      0.1524      0.6153      0.5580      0.6562      0.7236      0.8103
 11      0.8276      0.0953      0.0000      0.4790      0.2150      0.0000      0.0000      0.1816      0.0431
 12      0.0000      0.1330      0.7685      0.0000      0.3112      0.0102      0.3445      0.2196      0.0000
 13      1.8019      0.3469      0.9966      1.0759      0.0000      0.9409      0.4735      0.0000      0.6102
 14      0.0375      0.7696      0.0266      0.9881      0.7997      0.6633      0.2244      1.3657      0.7664
 15      2.9451      1.1236      1.6592      0.8750      1.4661      1.1559      1.7737      0.8869      2.2394
 16      0.0000      0.0841      0.2916      0.0000      0.2030      0.0834      0.0000      0.2090      0.0000
 17      0.0000      0.1926      0.2866      0.1831      0.2721      0.0723      0.2042      0.0000      0.2896
 18      1.7947      2.4425      2.5533      2.3385      2.5195      2.3523      2.3957      2.3227      2.3304
 19      0.0000      0.1420      0.0000      0.0000      0.0000      0.1746      0.2639      0.3465      0.1116
 20      0.0000      0.0086      0.0000      0.0000      0.0000      0.0000      0.0000      0.0000      0.0000
 21      0.0000      0.0227      0.0000      0.0000      0.0000      0.0000      0.0882      0.0000      0.0000
 22      0.0000      0.0075      0.0000      0.0000      0.0000      0.0000      0.0000      0.0000      0.0000
 23      0.0000      0.0115      0.0000      0.0000      0.0000      0.0000      0.0000      0.0000      0.0000
 24      0.0000      0.0114      0.0000      0.0000      0.0000      0.0000      0.0000      0.0908      0.0000
 25      0.0000      0.0271      0.1118      0.0277      0.0000      0.0677      0.0000      0.0000      0.0050
 26      0.0000      0.0331      0.0000      0.0000      0.0000      0.0000      0.0000      0.0761      0.0000
 27      0.0000      0.0768      0.0000      0.0000      0.0000      0.0000      0.0000      0.0000      0.0000
 28     16.8583     19.2931     18.6257     18.1736     18.9914     18.9898     19.5470     18.9435     18.3711
 29     35.8200     34.8087     35.0816     35.4417     34.5691     34.9892     34.7545     34.9077     34.7975
 30     19.4859     18.2590     18.8016     18.9106     18.1622     18.4485     17.9647     18.5432     18.3432
 31      0.0000      0.1880      0.0566      0.3696      0.2716      0.1861      0.1919      0.1975      0.2369
 32      0.0000      0.1654      0.1289      0.1390      0.0000      0.1944      0.1677      0.2272      0.3741
 33      0.0000      0.0820      0.0000      0.0168      0.0000      0.0514      0.0000      0.0670      0.1239
 34      0.0000      0.1064      0.0763      0.0497      0.0000      0.0000      0.0000      0.0000      0.0000
 35      0.0000      0.0295      0.0000      0.0000      0.0000      0.0039      0.0000      0.0000      0.0000
 36      0.0000      0.0195      0.0000      0.0000      0.0000      0.0000      0.0000      0.0000      0.0000
 37      0.0000      0.0111      0.0000      0.0000      0.0000      0.0000      0.0000      0.0000      0.0056
 38      0.0000      0.0123      0.0000      0.0000      0.0000      0.0000      0.0000      0.0000      0.0000
 39      0.0000      0.0170      0.0000      0.0000      0.0000      0.0710      0.0000      0.0000      0.0000
 40      0.0000      0.0212      0.0000      0.0000      0.0095      0.0000      0.0000      0.0000      0.0000
 41      0.0000      0.0326      0.0000      0.0000      0.0000      0.0000      0.0000      0.0000      0.0204
 42      0.0000      0.1435      0.1341      0.0423      0.0000      0.0000      0.0000      0.2904      0.0232
 43      0.0000      0.3749      0.0000      0.4298      0.6151      0.2408      0.6942      0.0404      0.3352
 44      0.0000      0.5440      0.4970      0.0389      1.1115      0.5975      0.4895      0.5922      0.5990
 45      0.0000      0.9340      0.7107      0.7053      0.6131      0.8600      0.8012      0.7442      0.8133

# j      m_j: min, <> & last-chain-values for 1 ...  7 chains
  1  8.1752E-03  6.0763E-03  6.4658E-03  6.3336E-03  6.1173E-03  6.4629E-03  6.8090E-03  6.6915E-03  5.9920E-03
  2  7.8908E-03  7.2658E-03  7.1543E-03  7.6515E-03  7.4563E-03  7.2892E-03  6.9744E-03  7.4275E-03  7.2311E-03
  3  3.8082E-03  3.5072E-03  3.4603E-03  3.5638E-03  3.5663E-03  3.7397E-03  3.5543E-03  3.4040E-03  3.5468E-03
  4  1.5477E-02  1.5259E-02  1.5418E-02  1.5270E-02  1.5417E-02  1.5230E-02  1.5703E-02  1.5116E-02  1.5032E-02
  5  0.0000E+00  3.8739E-04  0.0000E+00  0.0000E+00  0.0000E+00  0.0000E+00  0.0000E+00  0.0000E+00  0.0000E+00
  6  0.0000E+00  1.9419E-04  0.0000E+00  0.0000E+00  0.0000E+00  0.0000E+00  0.0000E+00  0.0000E+00  0.0000E+00
  7  0.0000E+00  1.6786E-04  0.0000E+00  0.0000E+00  0.0000E+00  0.0000E+00  0.0000E+00  0.0000E+00  0.0000E+00
  8  0.0000E+00  4.5027E-04  0.0000E+00  0.0000E+00  0.0000E+00  0.0000E+00  0.0000E+00  0.0000E+00  0.0000E+00
  9  0.0000E+00  1.8745E-03  0.0000E+00  9.5332E-03  0.0000E+00  5.2804E-03  5.5492E-03  0.0000E+00  0.0000E+00
 10  0.0000E+00  2.6002E-02  2.2161E-02  8.5115E-03  3.4124E-02  3.0936E-02  3.6610E-02  4.0289E-02  4.4924E-02
 11  8.1810E-02  9.2897E-03  0.0000E+00  4.6965E-02  2.0941E-02  0.0000E+00  0.0000E+00  1.7753E-02  4.1976E-03
 12  0.0000E+00  2.4119E-02  1.3958E-01  0.0000E+00  5.6355E-02  1.8465E-03  6.2751E-02  3.9917E-02  0.0000E+00
 13  6.5949E-01  1.2527E-01  3.6047E-01  3.9063E-01  0.0000E+00  3.3919E-01  1.7179E-01  0.0000E+00  2.2000E-01
 14  2.8006E-02  5.6639E-01  1.9607E-02  7.3122E-01  5.8780E-01  4.8735E-01  1.6592E-01  1.0077E+00  5.6314E-01
 15  2.5453E+00  9.5807E-01  1.4171E+00  7.5014E-01  1.2485E+00  9.8392E-01  1.5195E+00  7.5822E-01  1.9064E+00
 16  0.0000E+00  1.3775E-04  4.7846E-04  0.0000E+00  3.3221E-04  1.3643E-04  0.0000E+00  3.4330E-04  0.0000E+00
 17  0.0000E+00  1.6406E-04  2.4450E-04  1.5680E-04  2.3147E-04  6.1455E-05  1.7472E-04  0.0000E+00  2.4621E-04
 18  1.7161E-03  2.3042E-03  2.4127E-03  2.2181E-03  2.3736E-03  2.2154E-03  2.2707E-03  2.1969E-03  2.1949E-03
 19  0.0000E+00  4.0046E-04  0.0000E+00  0.0000E+00  0.0000E+00  4.9158E-04  7.4795E-04  9.7998E-04  3.1419E-04
 20  0.0000E+00  5.4235E-05  0.0000E+00  0.0000E+00  0.0000E+00  0.0000E+00  0.0000E+00  0.0000E+00  0.0000E+00
 21  0.0000E+00  1.7080E-04  0.0000E+00  0.0000E+00  0.0000E+00  0.0000E+00  6.6735E-04  0.0000E+00  0.0000E+00
 22  0.0000E+00  9.3924E-05  0.0000E+00  0.0000E+00  0.0000E+00  0.0000E+00  0.0000E+00  0.0000E+00  0.0000E+00
 23  0.0000E+00  2.8407E-04  0.0000E+00  0.0000E+00  0.0000E+00  0.0000E+00  0.0000E+00  0.0000E+00  0.0000E+00
 24  0.0000E+00  6.3980E-04  0.0000E+00  0.0000E+00  0.0000E+00  0.0000E+00  0.0000E+00  5.1269E-03  0.0000E+00
 25  0.0000E+00  2.3484E-03  9.7131E-03  2.4181E-03  0.0000E+00  5.8583E-03  0.0000E+00  0.0000E+00  4.2974E-04
 26  0.0000E+00  5.4221E-03  0.0000E+00  0.0000E+00  0.0000E+00  0.0000E+00  0.0000E+00  1.2491E-02  0.0000E+00
 27  0.0000E+00  2.5494E-02  0.0000E+00  0.0000E+00  0.0000E+00  0.0000E+00  0.0000E+00  0.0000E+00  0.0000E+00
 28  1.1482E+01  1.2964E+01  1.2536E+01  1.2279E+01  1.2744E+01  1.2739E+01  1.3196E+01  1.2762E+01  1.2324E+01
 29  5.1647E+01  4.9515E+01  4.9985E+01  5.0692E+01  4.9110E+01  4.9689E+01  4.9671E+01  4.9785E+01  4.9420E+01
 30  3.3519E+01  3.0987E+01  3.1960E+01  3.2269E+01  3.0782E+01  3.1257E+01  3.0632E+01  3.1551E+01  3.1080E+01
 31  0.0000E+00  2.3099E-04  6.9672E-05  4.5673E-04  3.3331E-04  2.2839E-04  2.3695E-04  2.4341E-04  2.9062E-04
 32  0.0000E+00  1.0713E-04  8.3671E-05  9.0564E-05  0.0000E+00  1.2576E-04  1.0914E-04  1.4760E-04  2.4198E-04
 33  0.0000E+00  7.8778E-05  0.0000E+00  1.6232E-05  0.0000E+00  4.9284E-05  0.0000E+00  6.4539E-05  1.1887E-04
