###################################################################
## OUTPUT of StarlightChains_v04.for    [Cid@UFSC - 01/Apr/2007] ##
###################################################################

## Some input info
NGC5904_a_1.cxt                          [arq_obs]
Base.BC03.N                              [arq_base]
NGC5904_a_1.msk                          [arq_masks]
StCv04.C11.config                        [arq_config]
   45                                    [N_base]
    0                                    [N_YAV_components = # of components with extra extinction!]
    0                                    [i_FitPowerLaw (1/0 = Yes/No)]
-9.99                                    [alpha_PowerLaw]
CCM                                      [red_law_option]
 1.458241                                [q_norm = A(l_norm)/A(V)]

## (Re)Sampling Parameters
 3359.00                                 [l_ini (A)]
 6428.00                                 [l_fin (A)]
    1.00                                 [dl    (A)]     (OBS: dl_cushion =    50.00 A)

## Normalization info
 4020.00                                 [l_norm (A) - for base]
 4010.00                                 [llow_norm (A) - window for f_obs]
 4060.00                                 [lupp_norm (A) - window for f_obs]
5.027376E-14                             [fobs_norm (in input units)]

## S/N
 4730.00                                 [llow_SN (A) - window for S/N]
 4780.00                                 [lupp_SN (A) - window for S/N]
  94.495                                 [S/N in S/N window]
  88.383                                 [S/N in norm. window]
 203.063                                 [S/N_err in S/N window]
 189.929                                 [S/N_err in norm. window]
  1.0000                                 [fscale_chi2]

## etc...
  2147483635                             [idum_orig]
  3069                                   [NOl_eff]
   992                                   [Nl_eff]
  2077    NSIGMA                         [Ntot_cliped & clip_method]
   666120                                [Nglobal_steps]
   7                                     [N_chains]
   6                                     [NEX0s_base = N_base in EX0s-fits]
 0   0   1      257   2.0   3.991E+02    [Clip-Bug, RC-Crash & Burn-In warning-flags, n_censored_weights, wei_nsig_threshold & wei_limit]
     9      8.981      8.973      0.008  [idt_all, wdt_TotTime, wdt_UsrTime & wdt_SysTime (sec)]

## Synthesis Results - Best model ##

 2.89897E+00                             [chi2/Nl_eff]
     0.92466                             [adev (%)]

   103.03242                             [sum-of-x (%)]
 7.56589E-14                             [Flux_tot (units of input spectrum!)]
 4.95230E-10                             [Mini_tot (???)]
 2.73421E-10                             [Mcor_tot (???)]

  -8.53                                  [v0_min  (km/s)]
  85.23                                  [vd_min  (km/s)]
 0.2821                                  [AV_min  (mag)]
 0.0000                                  [YAV_min (mag)]

# j     x_j(%)      Mini_j(%)     Mcor_j(%)     age_j(yr)     Z_j      (L/M)_j    YAV?  Mstars   component_j        a/Fe...       SSP_chi2r SSP_adev(%)   SSP_AV   SSP_x(%)
  1      0.0000     0.0000E+00    0.0000E+00    1.000000E+06  0.00400  1.114E-02    0   1.0000   age020_m42            0.0000     9.2431E+02    14.2735   3.6282    77.0990
  2      7.0972     2.5838E-02    4.6794E-02    3.160000E+06  0.00400  4.073E-02    0   0.9999   age045_m42            0.0000     1.9977E+02     7.1078   2.5935    91.8355
  3      0.0000     0.0000E+00    0.0000E+00    5.010000E+06  0.00400  2.534E-02    0   0.9488   age055_m42            0.0000     4.6982E+02    10.6597   3.0362    85.0550
  4      7.7997     9.0994E-02    1.4606E-01    1.000000E+07  0.00400  1.271E-02    0   0.8862   age070_m42            0.0000     4.0378E+02    10.3321   2.2455    88.5273
  5      0.0000     0.0000E+00    0.0000E+00    2.512000E+07  0.00400  5.070E-03    0   0.8174   age090_m42            0.0000     3.4393E+02     9.5918   2.1034    90.2433
  6      0.0000     0.0000E+00    0.0000E+00    4.000000E+07  0.00400  3.505E-03    0   0.7851   age104_m42            0.0000     1.9914E+02     7.3401   1.7599    93.5696
  7     12.1759     7.9604E-01    1.0391E+00    1.015200E+08  0.00400  2.268E-03    0   0.7207   age116_m42            0.0000     4.1475E+02     6.3759   1.6421   105.4867
  8      0.0000     0.0000E+00    0.0000E+00    2.861200E+08  0.00400  1.079E-03    0   0.6613   age125_m42            0.0000     4.5907E+02     7.1578   1.1318   108.1185
  9      0.0000     0.0000E+00    0.0000E+00    6.405400E+08  0.00400  5.077E-04    0   0.6197   age132_m42            0.0000     5.1070E+02     7.5741   0.7636   112.4310
 10      3.3433     1.4024E+00    1.5301E+00    9.047900E+08  0.00400  3.535E-04    0   0.6024   age135_m42            0.0000     2.8695E+02     5.8589   0.5338   111.2136
 11     16.3307     1.2678E+01    1.3126E+01    1.434000E+09  0.00400  1.910E-04    0   0.5716   age139_m42            0.0000     1.0075E+02     4.3477  -0.0093   109.6512
 12     56.2856     8.5007E+01    8.4112E+01    2.500000E+09  0.00400  9.818E-05    0   0.5463   age150_m42            0.0000     5.3979E+01     3.3788  -0.2718   104.3258
 13      0.0000     0.0000E+00    0.0000E+00    5.000000E+09  0.00400  4.718E-05    0   0.5228   age161_m42            0.0000     1.1942E+02     4.1283  -0.4269   100.5346
 14      0.0000     0.0000E+00    0.0000E+00    1.100000E+10  0.00400  2.205E-05    0   0.4980   age185_m42            0.0000     2.8424E+02     6.1765  -0.7075    98.4380
 15      0.0000     0.0000E+00    0.0000E+00    1.300000E+10  0.00400  1.883E-05    0   0.4927   age193_m42            0.0000     3.1149E+02     6.4388  -0.7249    98.2645
 16      0.0000     0.0000E+00    0.0000E+00    1.000000E+06  0.02000  1.989E-02    0   1.0000   age020_m62            0.0000     9.2472E+02    14.1567   3.5875    77.8563
 17      0.0000     0.0000E+00    0.0000E+00    3.160000E+06  0.02000  3.772E-02    0   0.9858   age045_m62            0.0000     8.2285E+02    13.5162   3.4368    80.0623
 18      0.0000     0.0000E+00    0.0000E+00    5.010000E+06  0.02000  3.227E-02    0   0.9342   age055_m62            0.0000     3.1096E+02     8.8155   2.8699    88.2614
 19      0.0000     0.0000E+00    0.0000E+00    1.000000E+07  0.02000  1.011E-02    0   0.8751   age070_m62            0.0000     9.4818E+02    15.2750   2.2926    84.1682
 20      0.0000     0.0000E+00    0.0000E+00    2.512000E+07  0.02000  4.206E-03    0   0.8099   age090_m62            0.0000     6.8865E+02    12.8589   2.2011    85.5996
 21      0.0000     0.0000E+00    0.0000E+00    4.000000E+07  0.02000  3.373E-03    0   0.7799   age104_m62            0.0000     1.8795E+02     6.9942   1.9504    95.4966
 22      0.0000     0.0000E+00    0.0000E+00    1.015200E+08  0.02000  1.878E-03    0   0.7221   age116_m62            0.0000     3.4486E+02     5.9880   1.6822   105.4790
 23      0.0000     0.0000E+00    0.0000E+00    2.861200E+08  0.02000  8.869E-04    0   0.6700   age125_m62            0.0000     8.7681E+02     9.8641   1.0930   114.2774
 24      0.0000     0.0000E+00    0.0000E+00    6.405400E+08  0.02000  3.657E-04    0   0.6322   age132_m62            0.0000     5.2557E+02     8.8369   0.3771   118.2049
 25      0.0000     0.0000E+00    0.0000E+00    9.047900E+08  0.02000  2.312E-04    0   0.6152   age135_m62            0.0000     2.5561E+02     6.7972   0.0193   116.3566
 26      0.0000     0.0000E+00    0.0000E+00    1.434000E+09  0.02000  1.168E-04    0   0.5865   age139_m62            0.0000     8.7310E+01     4.3783  -0.3673   109.2327
 27      0.0000     0.0000E+00    0.0000E+00    2.500000E+09  0.02000  5.505E-05    0   0.5610   age150_m62            0.0000     2.0306E+02     5.9185  -0.7493   106.0200
 28      0.0000     0.0000E+00    0.0000E+00    5.000000E+09  0.02000  2.596E-05    0   0.5353   age161_m62            0.0000     5.1835E+02     8.5820  -1.0000   104.3840
 29      0.0000     0.0000E+00    0.0000E+00    1.100000E+10  0.02000  1.169E-05    0   0.5103   age185_m62            0.0000     1.2692E+03    13.8761  -1.0000    98.1344
 30      0.0000     0.0000E+00    0.0000E+00    1.300000E+10  0.02000  9.691E-06    0   0.5047   age193_m62            0.0000     1.4247E+03    14.7962  -1.0000    97.2816
 31      0.0000     0.0000E+00    0.0000E+00    1.000000E+06  0.05000  2.651E-02    0   0.9998   age020_m72            0.0000     8.5613E+02    13.4846   3.5861    78.7773
 32      0.0000     0.0000E+00    0.0000E+00    3.160000E+06  0.05000  4.817E-02    0   0.9577   age045_m72            0.0000     5.7017E+02    11.3152   3.2764    83.5307
 33      0.0000     0.0000E+00    0.0000E+00    5.010000E+06  0.05000  3.101E-02    0   0.9147   age055_m72            0.0000     5.2881E+02    11.1719   2.9060    86.0639
 34      0.0000     0.0000E+00    0.0000E+00    1.000000E+07  0.05000  8.954E-03    0   0.8524   age070_m72            0.0000     5.5380E+02    11.0279   3.1420    84.7963
 35      0.0000     0.0000E+00    0.0000E+00    2.512000E+07  0.05000  4.207E-03    0   0.7902   age090_m72            0.0000     2.5601E+02     7.8023   2.6630    91.0064
 36      0.0000     0.0000E+00    0.0000E+00    4.000000E+07  0.05000  3.198E-03    0   0.7618   age104_m72            0.0000     1.8184E+02     4.6714   2.0687   100.6565
 37      0.0000     0.0000E+00    0.0000E+00    1.015200E+08  0.05000  1.716E-03    0   0.7092   age116_m72            0.0000     4.3567E+02     6.6450   1.7486   106.0688
 38      0.0000     0.0000E+00    0.0000E+00    2.861200E+08  0.05000  7.047E-04    0   0.6618   age125_m72            0.0000     8.3157E+02    10.0347   0.8564   115.1598
 39      0.0000     0.0000E+00    0.0000E+00    6.405400E+08  0.05000  2.633E-04    0   0.6253   age132_m72            0.0000     3.7851E+02     8.0537  -0.0134   117.3898
 40      0.0000     0.0000E+00    0.0000E+00    9.047900E+08  0.05000  1.484E-04    0   0.6088   age135_m72            0.0000     1.6422E+02     6.1901  -0.4800   111.2804
 41      0.0000     0.0000E+00    0.0000E+00    1.434000E+09  0.05000  7.827E-05    0   0.5847   age139_m72            0.0000     2.8720E+02     7.4333  -0.8778   107.2869
 42      0.0000     0.0000E+00    0.0000E+00    2.500000E+09  0.05000  3.759E-05    0   0.5583   age150_m72            0.0000     6.0525E+02     9.1532  -1.0000   102.5699
 43      0.0000     0.0000E+00    0.0000E+00    5.000000E+09  0.05000  1.548E-05    0   0.5320   age161_m72            0.0000     1.5073E+03    15.6198  -1.0000    93.3313
 44      0.0000     0.0000E+00    0.0000E+00    1.100000E+10  0.05000  6.532E-06    0   0.5070   age185_m72            0.0000     2.9062E+03    22.1851  -1.0000    83.9564
 45      0.0000     0.0000E+00    0.0000E+00    1.300000E+10  0.05000  5.316E-06    0   0.5018   age193_m72            0.0000     3.4544E+03    24.1130  -1.0000    81.0410


## Synthesis Results - Average & Chains ##

# j      x_j: min, <> & last-chain-values for 1 ...  7 chains
  1      0.0000      0.0017      0.0042      0.0000      0.0000      0.0000      0.0000      0.0000      0.0000
  2      7.0972      6.6540      6.6482      6.6361      6.6938      6.8353      6.8528      6.7172      6.6069
  3      0.0000      0.0127      0.0180      0.0000      0.0000      0.0000      0.0000      0.0000      0.0041
  4      7.7997      8.2115      8.4243      8.1802      8.2883      8.3091      8.1423      8.2636      8.2879
  5      0.0000      0.0158      0.0000      0.0000      0.0000      0.0000      0.0000      0.0000      0.0000
  6      0.0000      0.0458      0.0000      0.0749      0.0000      0.0000      0.0000      0.0000      0.0000
  7     12.1759     11.2277     11.3046     11.3743     11.3195     11.1321     11.4346     11.2021     11.1715
  8      0.0000      0.1008      0.0000      0.1397      0.0000      0.2044      0.0000      0.4400      0.1768
  9      0.0000      0.0612      0.0000      0.3454      0.0000      0.0000      0.0000      0.0216      0.1016
 10      3.3433      1.8309      2.0211      1.7441      1.6939      1.9948      1.8436      2.2361      2.0082
 11     16.3307     21.1021     20.9827     20.2454     21.0171     21.1884     20.9045     19.7406     20.9612
 12     56.2856     52.7916     53.1550     53.7092     53.5981     52.8155     53.4082     54.1114     52.8347
 13      0.0000      0.3558      0.4752      0.5578      0.1759      0.2673      0.2946      0.2113      0.8046
 14      0.0000      0.0715      0.0000      0.0000      0.0000      0.2579      0.0543      0.0000      0.0000
 15      0.0000      0.0395      0.0000      0.0000      0.0000      0.0000      0.0000      0.0000      0.0000
 16      0.0000      0.0039      0.0000      0.0000      0.0000      0.0000      0.0006      0.0000      0.0000
 17      0.0000      0.0040      0.0000      0.0000      0.0000      0.0000      0.0000      0.0000      0.0000
 18      0.0000      0.0161      0.0000      0.0000      0.0000      0.0000      0.0348      0.0452      0.0887
 19      0.0000      0.0112      0.0000      0.0000      0.0000      0.0000      0.0000      0.0000      0.0000
 20      0.0000      0.0058      0.0000      0.0000      0.0000      0.0000      0.0000      0.0000      0.0000
 21      0.0000      0.0083      0.0018      0.0000      0.0000      0.0000      0.0000      0.0000      0.0000
 22      0.0000      0.0527      0.0000      0.0000      0.0000      0.0000      0.0000      0.0000      0.0348
 23      0.0000      0.0237      0.0000      0.0000      0.0069      0.0000      0.0000      0.0000      0.0000
 24      0.0000      0.0184      0.0000      0.0000      0.0417      0.0000      0.0000      0.0000      0.0000
 25      0.0000      0.0307      0.0177      0.0000      0.0000      0.0136      0.0000      0.0000      0.0250
 26      0.0000      0.0361      0.0000      0.0000      0.0000      0.0000      0.0143      0.0000      0.0000
 27      0.0000      0.0249      0.0000      0.0140      0.0000      0.0000      0.0857      0.0000      0.0000
 28      0.0000      0.0166      0.0000      0.0000      0.0000      0.0000      0.0000      0.0000      0.0000
 29      0.0000      0.0070      0.0000      0.0000      0.0000      0.0000      0.0000      0.0000      0.0000
 30      0.0000      0.0091      0.0000      0.0000      0.0000      0.0000      0.0000      0.0000      0.0084
 31      0.0000      0.0034      0.0000      0.0000      0.0000      0.0000      0.0013      0.0000      0.0000
 32      0.0000      0.0098      0.0000      0.0000      0.0291      0.0000      0.0000      0.0000      0.0027
 33      0.0000      0.0097      0.0000      0.0000      0.0000      0.0000      0.0000      0.0000      0.0000
 34      0.0000      0.0052      0.0000      0.0000      0.0000      0.0000      0.0000      0.0000      0.0000
 35      0.0000      0.0051      0.0000      0.0000      0.0000      0.0000      0.0000      0.0000      0.0000
 36      0.0000      0.0246      0.0000      0.0940      0.0837      0.0000      0.0000      0.0000      0.0000
 37      0.0000      0.0441      0.0000      0.0000      0.0436      0.0000      0.0187      0.0000      0.0000
 38      0.0000      0.0196      0.0000      0.0000      0.0000      0.0000      0.0000      0.0000      0.0000
 39      0.0000      0.0408      0.0000      0.0026      0.0463      0.0639      0.0000      0.0000      0.0000
 40      0.0000      0.0558      0.0092      0.0000      0.0575      0.0000      0.0000      0.0000      0.0000
 41      0.0000      0.0413      0.0000      0.0000      0.0000      0.0000      0.0022      0.0088      0.0000
 42      0.0000      0.0269      0.0000      0.0000      0.0000      0.0000      0.0000      0.0799      0.0000
 43      0.0000      0.0090      0.0000      0.0000      0.0000      0.0000      0.0000      0.0099      0.0000
 44      0.0000      0.0110      0.0000      0.0000      0.0000      0.0000      0.0000      0.0000      0.0000
 45      0.0000      0.0269      0.0000      0.0000      0.0000      0.0073      0.0000      0.0000      0.0000

# j      m_j: min, <> & last-chain-values for 1 ...  7 chains
  1  0.0000E+00  4.1400E-05  1.0237E-04  0.0000E+00  0.0000E+00  0.0000E+00  0.0000E+00  0.0000E+00  0.0000E+00
  2  4.6794E-02  4.3265E-02  4.3909E-02  4.3602E-02  4.4322E-02  4.4775E-02  4.5138E-02  4.4268E-02  4.3357E-02
  3  0.0000E+00  1.2625E-04  1.8155E-04  0.0000E+00  0.0000E+00  0.0000E+00  0.0000E+00  0.0000E+00  4.0710E-05
  4  1.4606E-01  1.5164E-01  1.5803E-01  1.5265E-01  1.5586E-01  1.5459E-01  1.5232E-01  1.5468E-01  1.5447E-01
  5  0.0000E+00  6.7483E-04  0.0000E+00  0.0000E+00  0.0000E+00  0.0000E+00  0.0000E+00  0.0000E+00  0.0000E+00
  6  0.0000E+00  2.7164E-03  0.0000E+00  4.4875E-03  0.0000E+00  0.0000E+00  0.0000E+00  0.0000E+00  0.0000E+00
  7  1.0391E+00  9.4496E-01  9.6644E-01  9.6736E-01  9.7015E-01  9.4391E-01  9.7490E-01  9.5560E-01  9.4894E-01
  8  0.0000E+00  1.6364E-02  0.0000E+00  2.2922E-02  0.0000E+00  3.3434E-02  0.0000E+00  7.2385E-02  2.8967E-02
  9  0.0000E+00  1.9774E-02  0.0000E+00  1.1283E-01  0.0000E+00  0.0000E+00  0.0000E+00  7.0681E-03  3.3135E-02
 10  1.5301E+00  8.2637E-01  9.2658E-01  7.9545E-01  7.7855E-01  9.0706E-01  8.4294E-01  1.0229E+00  9.1480E-01
 11  1.3126E+01  1.6726E+01  1.6894E+01  1.6216E+01  1.6964E+01  1.6920E+01  1.6785E+01  1.5859E+01  1.6768E+01
 12  8.4112E+01  7.7801E+01  7.9571E+01  7.9985E+01  8.0437E+01  7.8417E+01  7.9734E+01  8.0828E+01  7.8586E+01
 13  0.0000E+00  1.0443E+00  1.4166E+00  1.6542E+00  5.2585E-01  7.9040E-01  8.7581E-01  6.2852E-01  2.3833E+00
 14  0.0000E+00  4.2793E-01  0.0000E+00  0.0000E+00  0.0000E+00  1.5541E+00  3.2919E-01  0.0000E+00  0.0000E+00
 15  0.0000E+00  2.7361E-01  0.0000E+00  0.0000E+00  0.0000E+00  0.0000E+00  0.0000E+00  0.0000E+00  0.0000E+00
 16  0.0000E+00  5.1890E-05  0.0000E+00  0.0000E+00  0.0000E+00  0.0000E+00  8.2281E-06  0.0000E+00  0.0000E+00
 17  0.0000E+00  2.7800E-05  0.0000E+00  0.0000E+00  0.0000E+00  0.0000E+00  0.0000E+00  0.0000E+00  0.0000E+00
 18  0.0000E+00  1.2354E-04  0.0000E+00  0.0000E+00  0.0000E+00  0.0000E+00  2.7003E-04  3.5146E-04  6.8659E-04
 19  0.0000E+00  2.5695E-04  0.0000E+00  0.0000E+00  0.0000E+00  0.0000E+00  0.0000E+00  0.0000E+00  0.0000E+00
 20  0.0000E+00  2.9804E-04  0.0000E+00  0.0000E+00  0.0000E+00  0.0000E+00  0.0000E+00  0.0000E+00  0.0000E+00
 21  0.0000E+00  5.0905E-04  1.1247E-04  0.0000E+00  0.0000E+00  0.0000E+00  0.0000E+00  0.0000E+00  0.0000E+00
 22  0.0000E+00  5.3688E-03  0.0000E+00  0.0000E+00  0.0000E+00  0.0000E+00  0.0000E+00  0.0000E+00  3.5791E-03
 23  0.0000E+00  4.7466E-03  0.0000E+00  0.0000E+00  1.4034E-03  0.0000E+00  0.0000E+00  0.0000E+00  0.0000E+00
 24  0.0000E+00  8.4141E-03  0.0000E+00  0.0000E+00  1.9442E-02  0.0000E+00  0.0000E+00  0.0000E+00  0.0000E+00
 25  0.0000E+00  2.1649E-02  1.2653E-02  0.0000E+00  0.0000E+00  9.6893E-03  0.0000E+00  0.0000E+00  1.7797E-02
 26  0.0000E+00  4.8056E-02  0.0000E+00  0.0000E+00  0.0000E+00  0.0000E+00  1.9264E-02  0.0000E+00  0.0000E+00
 27  0.0000E+00  6.7293E-02  0.0000E+00  3.8113E-02  0.0000E+00  0.0000E+00  2.3436E-01  0.0000E+00  0.0000E+00
 28  0.0000E+00  9.0618E-02  0.0000E+00  0.0000E+00  0.0000E+00  0.0000E+00  0.0000E+00  0.0000E+00  0.0000E+00
 29  0.0000E+00  8.1413E-02  0.0000E+00  0.0000E+00  0.0000E+00  0.0000E+00  0.0000E+00  0.0000E+00  0.0000E+00
 30  0.0000E+00  1.2552E-01  0.0000E+00  0.0000E+00  0.0000E+00  0.0000E+00  0.0000E+00  0.0000E+00  1.1671E-01
 31  0.0000E+00  3.3994E-05  0.0000E+00  0.0000E+00  0.0000E+00  0.0000E+00  1.3070E-05  0.0000E+00  0.0000E+00
 32  0.0000E+00  5.1628E-05  0.0000E+00  0.0000E+00  1.5581E-04  0.0000E+00  0.0000E+00  0.0000E+00  1.4167E-05
 33  0.0000E+00  7.5948E-05  0.0000E+00  0.0000E+00  0.0000E+00  0.0000E+00  0.0000E+00  0.0000E+00  0.0000E+00
