###################################################################
## OUTPUT of StarlightChains_v04.for    [Cid@UFSC - 01/Apr/2007] ##
###################################################################

## Some input info
NGC5286_a_1.cxt                          [arq_obs]
Base.BC03.N                              [arq_base]
NGC5286_a_1.msk                          [arq_masks]
StCv04.C11.config                        [arq_config]
   45                                    [N_base]
    0                                    [N_YAV_components = # of components with extra extinction!]
    0                                    [i_FitPowerLaw (1/0 = Yes/No)]
-9.99                                    [alpha_PowerLaw]
CCM                                      [red_law_option]
 1.458241                                [q_norm = A(l_norm)/A(V)]

## (Re)Sampling Parameters
 3359.00                                 [l_ini (A)]
 6428.00                                 [l_fin (A)]
    1.00                                 [dl    (A)]     (OBS: dl_cushion =    50.00 A)

## Normalization info
 4020.00                                 [l_norm (A) - for base]
 4010.00                                 [llow_norm (A) - window for f_obs]
 4060.00                                 [lupp_norm (A) - window for f_obs]
3.810619E-14                             [fobs_norm (in input units)]

## S/N
 4730.00                                 [llow_SN (A) - window for S/N]
 4780.00                                 [lupp_SN (A) - window for S/N]
 122.361                                 [S/N in S/N window]
 104.972                                 [S/N in norm. window]
 167.801                                 [S/N_err in S/N window]
 143.955                                 [S/N_err in norm. window]
  1.0000                                 [fscale_chi2]

## etc...
  2147483638                             [idum_orig]
  3069                                   [NOl_eff]
  1359                                   [Nl_eff]
  1710    NSIGMA                         [Ntot_cliped & clip_method]
   853440                                [Nglobal_steps]
   7                                     [N_chains]
   9                                     [NEX0s_base = N_base in EX0s-fits]
 0   0   1      194   2.0   3.182E+02    [Clip-Bug, RC-Crash & Burn-In warning-flags, n_censored_weights, wei_nsig_threshold & wei_limit]
    10     10.084     10.084      0.000  [idt_all, wdt_TotTime, wdt_UsrTime & wdt_SysTime (sec)]

## Synthesis Results - Best model ##

 2.90463E+00                             [chi2/Nl_eff]
     1.05050                             [adev (%)]

   101.53355                             [sum-of-x (%)]
 1.80178E-13                             [Flux_tot (units of input spectrum!)]
 1.04463E-09                             [Mini_tot (???)]
 5.71422E-10                             [Mcor_tot (???)]

 -18.14                                  [v0_min  (km/s)]
 104.80                                  [vd_min  (km/s)]
 1.1454                                  [AV_min  (mag)]
 0.0000                                  [YAV_min (mag)]

# j     x_j(%)      Mini_j(%)     Mcor_j(%)     age_j(yr)     Z_j      (L/M)_j    YAV?  Mstars   component_j        a/Fe...       SSP_chi2r SSP_adev(%)   SSP_AV   SSP_x(%)
  1      0.0000     0.0000E+00    0.0000E+00    1.000000E+06  0.00400  1.114E-02    0   1.0000   age020_m42            0.0000     4.5464E+02    10.2242   4.0000    77.2949
  2      8.0902     3.3742E-02    6.1679E-02    3.160000E+06  0.00400  4.073E-02    0   0.9999   age045_m42            0.0000     7.0643E+01     4.2679   3.0451    91.8188
  3      0.0000     0.0000E+00    0.0000E+00    5.010000E+06  0.00400  2.534E-02    0   0.9488   age055_m42            0.0000     2.0999E+02     7.1933   3.4501    85.1258
  4     13.8521     1.8514E-01    2.9994E-01    1.000000E+07  0.00400  1.271E-02    0   0.8862   age070_m42            0.0000     1.7848E+02     7.3378   2.6584    89.0035
  5      0.0000     0.0000E+00    0.0000E+00    2.512000E+07  0.00400  5.070E-03    0   0.8174   age090_m42            0.0000     1.5277E+02     6.7958   2.5314    90.5200
  6      0.0000     0.0000E+00    0.0000E+00    4.000000E+07  0.00400  3.505E-03    0   0.7851   age104_m42            0.0000     8.1867E+01     4.9433   2.2195    93.5813
  7     15.2351     1.1411E+00    1.5035E+00    1.015200E+08  0.00400  2.268E-03    0   0.7207   age116_m42            0.0000     1.7691E+02     5.3629   2.2203   103.8743
  8      0.0000     0.0000E+00    0.0000E+00    2.861200E+08  0.00400  1.079E-03    0   0.6613   age125_m42            0.0000     2.0576E+02     6.1646   1.7330   105.7913
  9      3.4816     1.1649E+00    1.3197E+00    6.405400E+08  0.00400  5.077E-04    0   0.6197   age132_m42            0.0000     2.3734E+02     6.6134   1.3739   109.7043
 10     21.7681     1.0461E+01    1.1520E+01    9.047900E+08  0.00400  3.535E-04    0   0.6024   age135_m42            0.0000     1.3499E+02     5.2995   1.1346   108.8511
 11      0.0532     4.7318E-02    4.9445E-02    1.434000E+09  0.00400  1.910E-04    0   0.5716   age139_m42            0.0000     6.7764E+01     4.4130   0.6095   107.5407
 12     28.6190     4.9518E+01    4.9454E+01    2.500000E+09  0.00400  9.818E-05    0   0.5463   age150_m42            0.0000     6.5986E+01     3.8208   0.3354   102.6956
 13     10.4009     3.7449E+01    3.5792E+01    5.000000E+09  0.00400  4.718E-05    0   0.5228   age161_m42            0.0000     1.0751E+02     4.2906   0.1705    99.1437
 14      0.0000     0.0000E+00    0.0000E+00    1.100000E+10  0.00400  2.205E-05    0   0.4980   age185_m42            0.0000     2.1056E+02     5.8662  -0.0868    96.9110
 15      0.0000     0.0000E+00    0.0000E+00    1.300000E+10  0.00400  1.883E-05    0   0.4927   age193_m42            0.0000     2.2690E+02     6.0702  -0.1028    96.7044
 16      0.0000     0.0000E+00    0.0000E+00    1.000000E+06  0.02000  1.989E-02    0   1.0000   age020_m62            0.0000     4.5588E+02    10.2579   3.9726    77.7402
 17      0.0000     0.0000E+00    0.0000E+00    3.160000E+06  0.02000  3.772E-02    0   0.9858   age045_m62            0.0000     3.9990E+02     9.7461   3.8337    79.9567
 18      0.0333     1.7529E-04    2.9937E-04    5.010000E+06  0.02000  3.227E-02    0   0.9342   age055_m62            0.0000     1.2650E+02     5.7075   3.3075    88.2162
 19      0.0000     0.0000E+00    0.0000E+00    1.000000E+07  0.02000  1.011E-02    0   0.8751   age070_m62            0.0000     4.8140E+02    11.9384   2.6858    84.5579
 20      0.0000     0.0000E+00    0.0000E+00    2.512000E+07  0.02000  4.206E-03    0   0.8099   age090_m62            0.0000     3.3988E+02     9.8150   2.6215    85.6555
 21      0.0000     0.0000E+00    0.0000E+00    4.000000E+07  0.02000  3.373E-03    0   0.7799   age104_m62            0.0000     6.3137E+01     4.3699   2.4332    95.0923
 22      0.0000     0.0000E+00    0.0000E+00    1.015200E+08  0.02000  1.878E-03    0   0.7221   age116_m62            0.0000     1.2928E+02     4.2864   2.2491   103.9483
 23      0.0000     0.0000E+00    0.0000E+00    2.861200E+08  0.02000  8.869E-04    0   0.6700   age125_m62            0.0000     4.0072E+02     8.3354   1.7435   110.9894
 24      0.0000     0.0000E+00    0.0000E+00    6.405400E+08  0.02000  3.657E-04    0   0.6322   age132_m62            0.0000     2.7432E+02     7.8626   1.0656   114.3993
 25      0.0000     0.0000E+00    0.0000E+00    9.047900E+08  0.02000  2.312E-04    0   0.6152   age135_m62            0.0000     1.5715E+02     6.4596   0.6886   113.4660
 26      0.0000     0.0000E+00    0.0000E+00    1.434000E+09  0.02000  1.168E-04    0   0.5865   age139_m62            0.0000     9.1590E+01     4.7843   0.2752   107.2183
 27      0.0000     0.0000E+00    0.0000E+00    2.500000E+09  0.02000  5.505E-05    0   0.5610   age150_m62            0.0000     1.7547E+02     5.9270  -0.0928   104.1098
 28      0.0000     0.0000E+00    0.0000E+00    5.000000E+09  0.02000  2.596E-05    0   0.5353   age161_m62            0.0000     3.3562E+02     7.9946  -0.4207   104.0909
 29      0.0000     0.0000E+00    0.0000E+00    1.100000E+10  0.02000  1.169E-05    0   0.5103   age185_m62            0.0000     5.2068E+02     9.9459  -0.7821   105.5759
 30      0.0000     0.0000E+00    0.0000E+00    1.300000E+10  0.02000  9.691E-06    0   0.5047   age193_m62            0.0000     5.5709E+02    10.2640  -0.8278   105.8028
 31      0.0000     0.0000E+00    0.0000E+00    1.000000E+06  0.05000  2.651E-02    0   0.9998   age020_m72            0.0000     4.2307E+02     9.7318   3.9785    78.5633
 32      0.0000     0.0000E+00    0.0000E+00    3.160000E+06  0.05000  4.817E-02    0   0.9577   age045_m72            0.0000     2.7033E+02     7.9314   3.6901    83.4036
 33      0.0000     0.0000E+00    0.0000E+00    5.010000E+06  0.05000  3.101E-02    0   0.9147   age055_m72            0.0000     2.4163E+02     7.7254   3.3267    86.0336
 34      0.0000     0.0000E+00    0.0000E+00    1.000000E+07  0.05000  8.954E-03    0   0.8524   age070_m72            0.0000     2.6782E+02     7.8655   3.5706    84.4626
 35      0.0000     0.0000E+00    0.0000E+00    2.512000E+07  0.05000  4.207E-03    0   0.7902   age090_m72            0.0000     1.0836E+02     5.1779   3.1343    90.4413
 36      0.0000     0.0000E+00    0.0000E+00    4.000000E+07  0.05000  3.198E-03    0   0.7618   age104_m72            0.0000     5.8718E+01     3.1470   2.6237    99.3603
 37      0.0000     0.0000E+00    0.0000E+00    1.015200E+08  0.05000  1.716E-03    0   0.7092   age116_m72            0.0000     1.7545E+02     5.1549   2.3364   104.2116
 38      0.0000     0.0000E+00    0.0000E+00    2.861200E+08  0.05000  7.047E-04    0   0.6618   age125_m72            0.0000     3.9707E+02     8.6586   1.5366   111.6515
 39      0.0000     0.0000E+00    0.0000E+00    6.405400E+08  0.05000  2.633E-04    0   0.6253   age132_m72            0.0000     2.2263E+02     7.4625   0.6837   114.0941
 40      0.0000     0.0000E+00    0.0000E+00    9.047900E+08  0.05000  1.484E-04    0   0.6088   age135_m72            0.0000     1.4590E+02     6.2206   0.2039   108.6725
 41      0.0000     0.0000E+00    0.0000E+00    1.434000E+09  0.05000  7.827E-05    0   0.5847   age139_m72            0.0000     2.3611E+02     7.1727  -0.1815   104.8977
 42      0.0000     0.0000E+00    0.0000E+00    2.500000E+09  0.05000  3.759E-05    0   0.5583   age150_m72            0.0000     3.6526E+02     8.4643  -0.4992   103.8657
 43      0.0000     0.0000E+00    0.0000E+00    5.000000E+09  0.05000  1.548E-05    0   0.5320   age161_m72            0.0000     5.3499E+02    10.0399  -0.9141   103.6690
 44      0.0000     0.0000E+00    0.0000E+00    1.100000E+10  0.05000  6.532E-06    0   0.5070   age185_m72            0.0000     8.4675E+02    12.9351  -1.0000    95.4048
 45      0.0000     0.0000E+00    0.0000E+00    1.300000E+10  0.05000  5.316E-06    0   0.5018   age193_m72            0.0000     1.0301E+03    14.4091  -1.0000    92.1269


## Synthesis Results - Average & Chains ##

# j      x_j: min, <> & last-chain-values for 1 ...  7 chains
  1      0.0000      0.0049      0.0000      0.0167      0.0000      0.0000      0.0000      0.0000      0.0000
  2      8.0902      6.8214      6.8483      6.8567      6.9209      6.8257      7.0440      7.0617      6.9643
  3      0.0000      0.0348      0.1818      0.0000      0.0538      0.0000      0.0000      0.0000      0.0000
  4     13.8521     13.5881     13.7620     13.6446     13.5571     13.5628     13.5574     13.6744     13.7266
  5      0.0000      0.0359      0.0000      0.0000      0.0000      0.0000      0.0495      0.0000      0.0000
  6      0.0000      0.0226      0.0000      0.0000      0.0223      0.0000      0.0425      0.0000      0.0000
  7     15.2351     15.1339     15.2514     15.3278     15.1256     15.1043     15.3520     15.1187     15.1285
  8      0.0000      0.0729      0.0000      0.0000      0.0149      0.3835      0.0000      0.0525      0.1429
  9      3.4816      3.5074      3.5671      3.6401      3.7895      3.7042      3.5877      3.8081      3.5069
 10     21.7681     20.8089     21.1596     20.8401     20.9782     21.0198     21.0363     20.8688     20.9777
 11      0.0532      1.7446      1.6019      1.5045      1.3434      1.2545      1.4132      1.3416      1.7604
 12     28.6190     27.5448     27.2044     27.7247     27.5772     27.2954     27.6350     27.5341     27.4364
 13     10.4009     10.1912     10.1314     10.2152     10.1128     10.3532      9.8530     10.2546     10.0429
 14      0.0000      0.0116      0.0000      0.0000      0.0000      0.0000      0.0000      0.0000      0.0000
 15      0.0000      0.0087      0.0000      0.0000      0.0000      0.0000      0.0000      0.0000      0.0000
 16      0.0000      0.0038      0.0000      0.0000      0.0000      0.0000      0.0000      0.0000      0.0000
 17      0.0000      0.0044      0.0000      0.0000      0.0000      0.0000      0.0000      0.0000      0.0000
 18      0.0333      0.7616      0.5885      0.8292      0.7984      0.8574      0.8140      0.7608      0.8626
 19      0.0000      0.0128      0.0000      0.0000      0.0000      0.0436      0.0000      0.0000      0.0000
 20      0.0000      0.0073      0.0000      0.0000      0.0000      0.0069      0.0000      0.0000      0.0000
 21      0.0000      0.0200      0.0018      0.0000      0.0000      0.0000      0.0000      0.0000      0.0001
 22      0.0000      0.0349      0.0248      0.0586      0.0012      0.0000      0.0000      0.0811      0.0000
 23      0.0000      0.0279      0.0399      0.0049      0.0000      0.0000      0.0132      0.0235      0.0183
 24      0.0000      0.0147      0.0000      0.0000      0.0000      0.0000      0.0000      0.0000      0.0000
 25      0.0000      0.0430      0.0000      0.0255      0.0000      0.0000      0.0572      0.0523      0.0000
 26      0.0000      0.0903      0.0754      0.0658      0.1542      0.0458      0.0000      0.0000      0.0344
 27      0.0000      0.2655      0.4265      0.2378      0.3269      0.1716      0.3836      0.5248      0.3785
 28      0.0000      0.1085      0.0447      0.0691      0.2346      0.3293      0.0711      0.1064      0.0530
 29      0.0000      0.0217      0.0000      0.0000      0.0000      0.0000      0.0050      0.0000      0.0000
 30      0.0000      0.0395      0.0000      0.0000      0.0000      0.0852      0.0301      0.0082      0.0907
 31      0.0000      0.0051      0.0000      0.0000      0.0000      0.0000      0.0000      0.0000      0.0000
 32      0.0000      0.0062      0.0000      0.0000      0.0000      0.0000      0.0538      0.0000      0.0000
 33      0.0000      0.0148      0.0000      0.0561      0.0000      0.0813      0.0000      0.0048      0.0000
 34      0.0000      0.0059      0.0468      0.0000      0.0000      0.0083      0.0000      0.0000      0.0000
 35      0.0000      0.0084      0.0000      0.0000      0.0000      0.0000      0.0000      0.0000      0.0000
 36      0.0000      0.0171      0.0000      0.0328      0.0273      0.0106      0.0000      0.0000      0.0000
 37      0.0000      0.0561      0.0000      0.0000      0.1660      0.0127      0.0425      0.0000      0.0308
 38      0.0000      0.0263      0.0000      0.0136      0.0000      0.0000      0.0000      0.0000      0.0000
 39      0.0000      0.0491      0.0000      0.0000      0.0000      0.0000      0.1512      0.0000      0.1111
 40      0.0000      0.0703      0.0000      0.0000      0.0000      0.0000      0.0000      0.0000      0.0000
 41      0.0000      0.0463      0.2008      0.1099      0.0000      0.1388      0.1152      0.0000      0.0132
 42      0.0000      0.0966      0.2055      0.0688      0.1791      0.1208      0.1154      0.0750      0.1027
 43      0.0000      0.0166      0.0000      0.0000      0.0195      0.0000      0.0000      0.0371      0.0000
 44      0.0000      0.1203      0.1752      0.1305      0.1336      0.1135      0.1099      0.0790      0.1279
 45      0.0000      0.1363      0.1298      0.1549      0.1417      0.1423      0.1552      0.1728      0.1572

# j      m_j: min, <> & last-chain-values for 1 ...  7 chains
  1  0.0000E+00  1.2552E-04  0.0000E+00  4.2892E-04  0.0000E+00  0.0000E+00  0.0000E+00  0.0000E+00  0.0000E+00
  2  6.1679E-02  4.7676E-02  4.7906E-02  4.8255E-02  4.8274E-02  4.7180E-02  4.9849E-02  4.9527E-02  4.8596E-02
  3  0.0000E+00  3.7129E-04  1.9395E-03  0.0000E+00  5.7237E-04  0.0000E+00  0.0000E+00  0.0000E+00  0.0000E+00
  4  2.9994E-01  2.6973E-01  2.7342E-01  2.7273E-01  2.6857E-01  2.6626E-01  2.7249E-01  2.7239E-01  2.7204E-01
  5  0.0000E+00  1.6479E-03  0.0000E+00  0.0000E+00  0.0000E+00  0.0000E+00  2.3005E-03  0.0000E+00  0.0000E+00
  6  0.0000E+00  1.4409E-03  0.0000E+00  0.0000E+00  1.4171E-03  0.0000E+00  2.7411E-03  0.0000E+00  0.0000E+00
  7  1.5035E+00  1.3691E+00  1.3810E+00  1.3963E+00  1.3656E+00  1.3514E+00  1.4063E+00  1.3725E+00  1.3664E+00
  8  0.0000E+00  1.2722E-02  0.0000E+00  0.0000E+00  2.5952E-03  6.6186E-02  0.0000E+00  9.1862E-03  2.4890E-02
  9  1.3197E+00  1.2189E+00  1.2407E+00  1.2737E+00  1.3142E+00  1.2730E+00  1.2624E+00  1.3279E+00  1.2167E+00
 10  1.1520E+01  1.0096E+01  1.0275E+01  1.0181E+01  1.0157E+01  1.0085E+01  1.0334E+01  1.0160E+01  1.0161E+01
 11  4.9445E-02  1.4865E+00  1.3660E+00  1.2907E+00  1.1423E+00  1.0571E+00  1.2192E+00  1.1470E+00  1.4974E+00
 12  4.9454E+01  4.3635E+01  4.3133E+01  4.4224E+01  4.3598E+01  4.2763E+01  4.4326E+01  4.3770E+01  4.3392E+01
 13  3.5792E+01  3.2151E+01  3.1990E+01  3.2450E+01  3.1839E+01  3.2301E+01  3.1473E+01  3.2463E+01  3.1631E+01
 14  0.0000E+00  7.4537E-02  0.0000E+00  0.0000E+00  0.0000E+00  0.0000E+00  0.0000E+00  0.0000E+00  0.0000E+00
 15  0.0000E+00  6.4940E-02  0.0000E+00  0.0000E+00  0.0000E+00  0.0000E+00  0.0000E+00  0.0000E+00  0.0000E+00
 16  0.0000E+00  5.4528E-05  0.0000E+00  0.0000E+00  0.0000E+00  0.0000E+00  0.0000E+00  0.0000E+00  0.0000E+00
 17  0.0000E+00  3.2592E-05  0.0000E+00  0.0000E+00  0.0000E+00  0.0000E+00  0.0000E+00  0.0000E+00  0.0000E+00
 18  2.9937E-04  6.2768E-03  4.8550E-03  6.8816E-03  6.5675E-03  6.9887E-03  6.7929E-03  6.2919E-03  7.0980E-03
 19  0.0000E+00  3.1526E-04  0.0000E+00  0.0000E+00  0.0000E+00  1.0619E-03  0.0000E+00  0.0000E+00  0.0000E+00
 20  0.0000E+00  4.0056E-04  0.0000E+00  0.0000E+00  0.0000E+00  3.7327E-04  0.0000E+00  0.0000E+00  0.0000E+00
 21  0.0000E+00  1.3198E-03  1.1738E-04  0.0000E+00  0.0000E+00  0.0000E+00  0.0000E+00  0.0000E+00  6.4164E-06
 22  0.0000E+00  3.8249E-03  2.7132E-03  6.4630E-03  1.2617E-04  0.0000E+00  0.0000E+00  8.9091E-03  0.0000E+00
 23  0.0000E+00  6.0001E-03  8.5825E-03  1.0592E-03  0.0000E+00  0.0000E+00  2.8809E-03  5.0792E-03  3.9379E-03
 24  0.0000E+00  7.2177E-03  0.0000E+00  0.0000E+00  0.0000E+00  0.0000E+00  0.0000E+00  0.0000E+00  0.0000E+00
 25  0.0000E+00  3.2550E-02  0.0000E+00  1.9484E-02  0.0000E+00  0.0000E+00  4.3900E-02  3.9794E-02  0.0000E+00
 26  0.0000E+00  1.2914E-01  1.0787E-01  9.4738E-02  2.2005E-01  6.4706E-02  0.0000E+00  0.0000E+00  4.9115E-02
 27  0.0000E+00  7.7018E-01  1.2385E+00  6.9458E-01  9.4647E-01  4.9228E-01  1.1270E+00  1.5280E+00  1.0963E+00
 28  0.0000E+00  6.3683E-01  2.6236E-01  4.0828E-01  1.3743E+00  1.9120E+00  4.2239E-01  6.2684E-01  3.1085E-01
 29  0.0000E+00  2.6999E-01  0.0000E+00  0.0000E+00  0.0000E+00  0.0000E+00  6.3055E-02  0.0000E+00  0.0000E+00
 30  0.0000E+00  5.8522E-01  0.0000E+00  0.0000E+00  0.0000E+00  1.2490E+00  4.5162E-01  1.2229E-01  1.3432E+00
 31  0.0000E+00  5.4249E-05  0.0000E+00  0.0000E+00  0.0000E+00  0.0000E+00  0.0000E+00  0.0000E+00  0.0000E+00
 32  0.0000E+00  3.5284E-05  0.0000E+00  0.0000E+00  0.0000E+00  0.0000E+00  3.0860E-04  0.0000E+00  0.0000E+00
 33  0.0000E+00  1.2412E-04  0.0000E+00  4.7405E-04  0.0000E+00  6.7548E-04  0.0000E+00  4.0819E-05  0.0000E+00
