###################################################################
## OUTPUT of StarlightChains_v04.for    [Cid@UFSC - 01/Apr/2007] ##
###################################################################

## Some input info
NGC5986_a_1.cxt                          [arq_obs]
Base.BC03.N                              [arq_base]
NGC5986_a_1.msk                          [arq_masks]
StCv04.C11.config                        [arq_config]
   45                                    [N_base]
    0                                    [N_YAV_components = # of components with extra extinction!]
    0                                    [i_FitPowerLaw (1/0 = Yes/No)]
-9.99                                    [alpha_PowerLaw]
CCM                                      [red_law_option]
 1.458241                                [q_norm = A(l_norm)/A(V)]

## (Re)Sampling Parameters
 3359.00                                 [l_ini (A)]
 6428.00                                 [l_fin (A)]
    1.00                                 [dl    (A)]     (OBS: dl_cushion =    50.00 A)

## Normalization info
 4020.00                                 [l_norm (A) - for base]
 4010.00                                 [llow_norm (A) - window for f_obs]
 4060.00                                 [lupp_norm (A) - window for f_obs]
1.970425E-14                             [fobs_norm (in input units)]

## S/N
 4730.00                                 [llow_SN (A) - window for S/N]
 4780.00                                 [lupp_SN (A) - window for S/N]
 120.453                                 [S/N in S/N window]
 104.720                                 [S/N in norm. window]
  85.601                                 [S/N_err in S/N window]
  74.420                                 [S/N_err in norm. window]
  1.0000                                 [fscale_chi2]

## etc...
  2147483629                             [idum_orig]
  3069                                   [NOl_eff]
  1592                                   [Nl_eff]
  1477    NSIGMA                         [Ntot_cliped & clip_method]
   901600                                [Nglobal_steps]
   7                                     [N_chains]
  13                                     [NEX0s_base = N_base in EX0s-fits]
 0   0   1       80   2.0   6.651E+02    [Clip-Bug, RC-Crash & Burn-In warning-flags, n_censored_weights, wei_nsig_threshold & wei_limit]
     9      9.883      9.875      0.008  [idt_all, wdt_TotTime, wdt_UsrTime & wdt_SysTime (sec)]

## Synthesis Results - Best model ##

 2.38231E+00                             [chi2/Nl_eff]
     1.74672                             [adev (%)]

   103.08069                             [sum-of-x (%)]
 7.31326E-14                             [Flux_tot (units of input spectrum!)]
 6.86635E-10                             [Mini_tot (???)]
 3.65554E-10                             [Mcor_tot (???)]

 -28.61                                  [v0_min  (km/s)]
 101.15                                  [vd_min  (km/s)]
 0.9538                                  [AV_min  (mag)]
 0.0000                                  [YAV_min (mag)]

# j     x_j(%)      Mini_j(%)     Mcor_j(%)     age_j(yr)     Z_j      (L/M)_j    YAV?  Mstars   component_j        a/Fe...       SSP_chi2r SSP_adev(%)   SSP_AV   SSP_x(%)
  1      0.0000     0.0000E+00    0.0000E+00    1.000000E+06  0.00400  1.114E-02    0   1.0000   age020_m42            0.0000     1.4428E+02     8.3911   4.0000    75.0451
  2      2.6262     6.6623E-03    1.2513E-02    3.160000E+06  0.00400  4.073E-02    0   0.9999   age045_m42            0.0000     3.0211E+01     3.7332   3.1160    88.4948
  3      0.0000     0.0000E+00    0.0000E+00    5.010000E+06  0.00400  2.534E-02    0   0.9488   age055_m42            0.0000     7.2776E+01     6.2030   3.5506    80.7650
  4      8.0977     6.5830E-02    1.0958E-01    1.000000E+07  0.00400  1.271E-02    0   0.8862   age070_m42            0.0000     6.5437E+01     6.8558   2.7392    85.4558
  5      0.7961     1.6224E-02    2.4910E-02    2.512000E+07  0.00400  5.070E-03    0   0.8174   age090_m42            0.0000     6.0015E+01     6.5673   2.6141    86.9150
  6      0.0000     0.0000E+00    0.0000E+00    4.000000E+07  0.00400  3.505E-03    0   0.7851   age104_m42            0.0000     4.0706E+01     5.1800   2.2985    90.1935
  7      7.4720     3.4041E-01    4.6082E-01    1.015200E+08  0.00400  2.268E-03    0   0.7207   age116_m42            0.0000     3.3469E+01     4.4819   2.2099   104.5274
  8      0.0000     0.0000E+00    0.0000E+00    2.861200E+08  0.00400  1.079E-03    0   0.6613   age125_m42            0.0000     3.7956E+01     4.8894   1.7294   106.2437
  9      6.4672     1.3162E+00    1.5320E+00    6.405400E+08  0.00400  5.077E-04    0   0.6197   age132_m42            0.0000     4.3510E+01     5.1170   1.3593   110.7893
 10     43.7267     1.2781E+01    1.4462E+01    9.047900E+08  0.00400  3.535E-04    0   0.6024   age135_m42            0.0000     2.1241E+01     3.9159   1.1368   109.1458
 11      0.0000     0.0000E+00    0.0000E+00    1.434000E+09  0.00400  1.910E-04    0   0.5716   age139_m42            0.0000     7.7051E+00     2.8635   0.6450   106.4635
 12     19.4204     2.0438E+01    2.0972E+01    2.500000E+09  0.00400  9.818E-05    0   0.5463   age150_m42            0.0000     1.2606E+01     3.1604   0.4082    99.9744
 13      9.6031     2.1031E+01    2.0653E+01    5.000000E+09  0.00400  4.718E-05    0   0.5228   age161_m42            0.0000     2.5415E+01     3.9479   0.2585    95.8186
 14      1.8597     8.7145E+00    8.1517E+00    1.100000E+10  0.00400  2.205E-05    0   0.4980   age185_m42            0.0000     4.5426E+01     5.1076   0.0129    93.3017
 15      0.0000     0.0000E+00    0.0000E+00    1.300000E+10  0.00400  1.883E-05    0   0.4927   age193_m42            0.0000     4.8998E+01     5.2908  -0.0009    93.0195
 16      0.0000     0.0000E+00    0.0000E+00    1.000000E+06  0.02000  1.989E-02    0   1.0000   age020_m62            0.0000     1.4133E+02     8.4704   4.0000    74.8531
 17      0.0000     0.0000E+00    0.0000E+00    3.160000E+06  0.02000  3.772E-02    0   0.9858   age045_m62            0.0000     1.2429E+02     8.3429   3.9616    74.7797
 18      0.0000     0.0000E+00    0.0000E+00    5.010000E+06  0.02000  3.227E-02    0   0.9342   age055_m62            0.0000     4.7044E+01     5.1303   3.3851    84.6986
 19      0.0002     2.4798E-06    4.0762E-06    1.000000E+07  0.02000  1.011E-02    0   0.8751   age070_m62            0.0000     1.5857E+02    11.2072   2.7982    79.7644
 20      0.0000     0.0000E+00    0.0000E+00    2.512000E+07  0.02000  4.206E-03    0   0.8099   age090_m62            0.0000     1.2142E+02     9.3866   2.7384    80.7868
 21      0.0000     0.0000E+00    0.0000E+00    4.000000E+07  0.02000  3.373E-03    0   0.7799   age104_m62            0.0000     3.2260E+01     4.8004   2.4990    92.1734
 22      0.0000     0.0000E+00    0.0000E+00    1.015200E+08  0.02000  1.878E-03    0   0.7221   age116_m62            0.0000     2.5300E+01     3.9584   2.2519   103.9732
 23      0.0000     0.0000E+00    0.0000E+00    2.861200E+08  0.02000  8.869E-04    0   0.6700   age125_m62            0.0000     8.2572E+01     6.5791   1.7243   112.4081
 24      0.0000     0.0000E+00    0.0000E+00    6.405400E+08  0.02000  3.657E-04    0   0.6322   age132_m62            0.0000     4.9187E+01     5.6121   1.0742   114.8233
 25      0.0000     0.0000E+00    0.0000E+00    9.047900E+08  0.02000  2.312E-04    0   0.6152   age135_m62            0.0000     2.4372E+01     4.4858   0.7204   112.7662
 26      0.0000     0.0000E+00    0.0000E+00    1.434000E+09  0.02000  1.168E-04    0   0.5865   age139_m62            0.0000     1.4057E+01     3.6044   0.3468   104.5660
 27      0.0000     0.0000E+00    0.0000E+00    2.500000E+09  0.02000  5.505E-05    0   0.5610   age150_m62            0.0000     3.1766E+01     4.8699   0.0010   100.6131
 28      0.0000     0.0000E+00    0.0000E+00    5.000000E+09  0.02000  2.596E-05    0   0.5353   age161_m62            0.0000     5.6422E+01     6.3549  -0.3138   100.1909
 29      1.0644     9.4079E+00    9.0176E+00    1.100000E+10  0.02000  1.169E-05    0   0.5103   age185_m62            0.0000     8.3130E+01     7.6895  -0.6683   101.4979
 30      0.9530     1.0161E+01    9.6326E+00    1.300000E+10  0.02000  9.691E-06    0   0.5047   age193_m62            0.0000     8.8440E+01     7.9054  -0.7137   101.7332
 31      0.0000     0.0000E+00    0.0000E+00    1.000000E+06  0.05000  2.651E-02    0   0.9998   age020_m72            0.0000     1.3306E+02     8.0702   4.0000    75.8115
 32      0.0000     0.0000E+00    0.0000E+00    3.160000E+06  0.05000  4.817E-02    0   0.9577   age045_m72            0.0000     8.8865E+01     6.8235   3.7990    78.7823
 33      0.0000     0.0000E+00    0.0000E+00    5.010000E+06  0.05000  3.101E-02    0   0.9147   age055_m72            0.0000     8.3468E+01     6.8930   3.4258    81.6522
 34      0.0000     0.0000E+00    0.0000E+00    1.000000E+07  0.05000  8.954E-03    0   0.8524   age070_m72            0.0000     9.0358E+01     7.1400   3.6784    79.8014
 35      0.0000     0.0000E+00    0.0000E+00    2.512000E+07  0.05000  4.207E-03    0   0.7902   age090_m72            0.0000     4.6011E+01     5.1936   3.2180    86.6941
 36      0.0000     0.0000E+00    0.0000E+00    4.000000E+07  0.05000  3.198E-03    0   0.7618   age104_m72            0.0000     1.5825E+01     3.3235   2.6497    98.1775
 37      0.0000     0.0000E+00    0.0000E+00    1.015200E+08  0.05000  1.716E-03    0   0.7092   age116_m72            0.0000     3.4895E+01     4.5398   2.3304   104.5754
 38      0.0000     0.0000E+00    0.0000E+00    2.861200E+08  0.05000  7.047E-04    0   0.6618   age125_m72            0.0000     8.1392E+01     6.6276   1.5182   113.1431
 39      0.0000     0.0000E+00    0.0000E+00    6.405400E+08  0.05000  2.633E-04    0   0.6253   age132_m72            0.0000     3.7492E+01     5.1305   0.7024   114.0754
 40      0.0000     0.0000E+00    0.0000E+00    9.047900E+08  0.05000  1.484E-04    0   0.6088   age135_m72            0.0000     2.0924E+01     4.3046   0.2647   106.6786
 41      0.0000     0.0000E+00    0.0000E+00    1.434000E+09  0.05000  7.827E-05    0   0.5847   age139_m72            0.0000     3.9574E+01     5.5625  -0.0910   101.6715
 42      0.0000     0.0000E+00    0.0000E+00    2.500000E+09  0.05000  3.759E-05    0   0.5583   age150_m72            0.0000     6.1411E+01     6.7264  -0.3935   100.0496
 43      0.0000     0.0000E+00    0.0000E+00    5.000000E+09  0.05000  1.548E-05    0   0.5320   age161_m72            0.0000     8.7522E+01     7.9957  -0.8034    99.7751
 44      0.9938     1.5721E+01    1.4971E+01    1.100000E+10  0.05000  6.532E-06    0   0.5070   age185_m72            0.0000     1.2787E+02     9.6726  -1.0000    94.4853
 45      0.0000     0.0000E+00    0.0000E+00    1.300000E+10  0.05000  5.316E-06    0   0.5018   age193_m72            0.0000     1.5903E+02    10.7023  -1.0000    91.0329


## Synthesis Results - Average & Chains ##

# j      x_j: min, <> & last-chain-values for 1 ...  7 chains
  1      0.0000      0.0168      0.0000      0.0000      0.0162      0.0000      0.0000      0.0000      0.0000
  2      2.6262      0.6949      0.6809      0.9148      0.7132      0.7890      0.9980      1.2497      0.6371
  3      0.0000      0.2996      0.4302      0.1504      0.0000      0.2311      0.5427      0.2302      0.2437
  4      8.0977      6.5005      7.0642      6.6843      6.9093      6.9801      6.5375      6.5307      6.9659
  5      0.7961      0.5399      0.6279      0.8759      1.0211      0.8522      0.4069      0.4902      0.5307
  6      0.0000      0.0649      0.0000      0.0000      0.0000      0.2722      0.1053      0.0000      0.0085
  7      7.4720      7.2704      8.0732      7.5412      7.2695      7.2898      7.3056      7.3345      7.2138
  8      0.0000      0.3286      0.0283      0.3801      0.0796      0.0000      0.1721      0.4706      0.4482
  9      6.4672      6.1019      6.0561      6.2557      6.1588      6.5984      5.9715      6.1826      6.3455
 10     43.7267     42.5622     43.1492     43.0453     43.6566     42.6232     43.7509     42.4290     42.7746
 11      0.0000      0.2068      0.1878      0.0000      0.1796      0.0615      0.0000      0.0000      0.0000
 12     19.4204     20.1543     20.1516     19.7034     19.4434     20.2810     19.6551     20.2196     20.6120
 13      9.6031     10.1897     10.4368     10.0507     10.2417      9.9008     10.2887     10.1420     10.1848
 14      1.8597      3.6414      2.5966      3.6339      3.3865      2.8813      2.7212      3.7359      3.4265
 15      0.0000      0.0187      0.0000      0.0000      0.0000      0.0000      0.0000      0.0000      0.0000
 16      0.0000      0.0088      0.0000      0.0000      0.0223      0.0000      0.0000      0.0000      0.0000
 17      0.0000      0.0298      0.0000      0.0055      0.0000      0.0000      0.0000      0.0000      0.0000
 18      0.0000      0.4596      0.3537      0.3917      0.7611      0.3474      0.5798      0.4708      0.4787
 19      0.0002      0.5121      0.5591      0.4929      0.4435      0.4284      0.4391      0.4987      0.5298
 20      0.0000      0.0305      0.0000      0.0000      0.0000      0.0599      0.0000      0.0000      0.0000
 21      0.0000      0.0461      0.0000      0.0282      0.0000      0.0000      0.2628      0.0000      0.0000
 22      0.0000      0.1392      0.0000      0.0000      0.0000      0.0000      0.2689      0.2986      0.0000
 23      0.0000      0.0726      0.0000      0.0000      0.0000      0.5171      0.0000      0.0125      0.0000
 24      0.0000      0.0272      0.0111      0.0000      0.0000      0.0000      0.0000      0.0092      0.0000
 25      0.0000      0.0279      0.0000      0.0000      0.0000      0.0000      0.0000      0.0000      0.0000
 26      0.0000      0.0536      0.0000      0.0000      0.0176      0.0000      0.0618      0.0000      0.0000
 27      0.0000      0.0356      0.0000      0.0000      0.0000      0.0000      0.0000      0.0000      0.0000
 28      0.0000      0.0705      0.0000      0.0000      0.0000      0.0584      0.0000      0.0545      0.0246
 29      1.0644      0.4498      0.5125      0.4429      0.4549      0.5629      0.4270      0.4915      0.3848
 30      0.9530      0.4123      0.6565      0.4363      0.3806      0.2592      0.6995      0.4687      0.3410
 31      0.0000      0.0106      0.0000      0.0000      0.0000      0.0000      0.0000      0.0000      0.1188
 32      0.0000      0.0279      0.0000      0.0000      0.0000      0.0000      0.0000      0.0000      0.0093
 33      0.0000      0.0555      0.0000      0.0000      0.0962      0.0375      0.0220      0.0000      0.0000
 34      0.0000      0.0150      0.0000      0.0737      0.0000      0.0000      0.0000      0.0000      0.0000
 35      0.0000      0.0239      0.0000      0.0000      0.0000      0.0119      0.0000      0.0000      0.0000
 36      0.0000      0.1076      0.0000      0.0000      0.1612      0.0407      0.0000      0.0800      0.0394
 37      0.0000      0.1221      0.0000      0.0831      0.0000      0.0595      0.1759      0.0092      0.0000
 38      0.0000      0.0414      0.0000      0.0000      0.0000      0.0183      0.0000      0.0000      0.0000
 39      0.0000      0.0219      0.0000      0.0000      0.0000      0.0000      0.0000      0.0000      0.0000
 40      0.0000      0.0404      0.0000      0.0000      0.0029      0.0000      0.0000      0.0000      0.0033
 41      0.0000      0.0219      0.0088      0.0000      0.0000      0.0000      0.0000      0.1929      0.0000
 42      0.0000      0.0784      0.0000      0.2634      0.0000      0.2667      0.0000      0.0000      0.1209
 43      0.0000      0.5688      0.4790      0.6282      0.6000      0.6007      0.7346      0.6472      0.4697
 44      0.9938      0.5808      0.6906      0.4930      0.5865      0.6420      0.6145      0.5058      0.6504
 45      0.0000      0.4523      0.4058      0.5654      0.5116      0.5137      0.4462      0.4046      0.5172

# j      m_j: min, <> & last-chain-values for 1 ...  7 chains
  1  0.0000E+00  2.7673E-04  0.0000E+00  0.0000E+00  2.7057E-04  0.0000E+00  0.0000E+00  0.0000E+00  0.0000E+00
  2  1.2513E-02  3.1359E-03  3.1177E-03  4.1084E-03  3.2548E-03  3.6256E-03  4.5338E-03  5.6747E-03  2.8905E-03
  3  0.0000E+00  2.0624E-03  3.0043E-03  1.0305E-03  0.0000E+00  1.6197E-03  3.7602E-03  1.5945E-03  1.6860E-03
  4  1.0958E-01  8.3321E-02  9.1861E-02  8.5262E-02  8.9553E-02  9.1098E-02  8.4347E-02  8.4222E-02  8.9756E-02
  5  2.4910E-02  1.6001E-02  1.8879E-02  2.5834E-02  3.0601E-02  2.5716E-02  1.2140E-02  1.4619E-02  1.5811E-02
  6  0.0000E+00  2.6709E-03  0.0000E+00  0.0000E+00  0.0000E+00  1.1413E-02  4.3627E-03  0.0000E+00  3.5345E-04
  7  4.6082E-01  4.2471E-01  4.7845E-01  4.3839E-01  4.2941E-01  4.3360E-01  4.2957E-01  4.3109E-01  4.2362E-01
  8  0.0000E+00  3.7027E-02  3.2368E-03  4.2618E-02  9.0721E-03  0.0000E+00  1.9516E-02  5.3343E-02  5.0764E-02
  9  1.5320E+00  1.3692E+00  1.3786E+00  1.3969E+00  1.3974E+00  1.5076E+00  1.3487E+00  1.3958E+00  1.4313E+00
 10  1.4462E+01  1.3333E+01  1.3713E+01  1.3419E+01  1.3829E+01  1.3596E+01  1.3796E+01  1.3373E+01  1.3470E+01
 11  0.0000E+00  1.1379E-01  1.0482E-01  0.0000E+00  9.9930E-02  3.4436E-02  0.0000E+00  0.0000E+00  0.0000E+00
 12  2.0972E+01  2.0616E+01  2.0912E+01  2.0057E+01  2.0111E+01  2.1123E+01  2.0237E+01  2.0809E+01  2.1195E+01
 13  2.0653E+01  2.0757E+01  2.1569E+01  2.0374E+01  2.1096E+01  2.0536E+01  2.1096E+01  2.0787E+01  2.0856E+01
 14  8.1517E+00  1.5119E+01  1.0937E+01  1.5014E+01  1.4218E+01  1.2181E+01  1.1372E+01  1.5606E+01  1.4301E+01
 15  0.0000E+00  8.9931E-02  0.0000E+00  0.0000E+00  0.0000E+00  0.0000E+00  0.0000E+00  0.0000E+00  0.0000E+00
 16  0.0000E+00  8.1753E-05  0.0000E+00  0.0000E+00  2.0863E-04  0.0000E+00  0.0000E+00  0.0000E+00  0.0000E+00
 17  0.0000E+00  1.4295E-04  0.0000E+00  2.6248E-05  0.0000E+00  0.0000E+00  0.0000E+00  0.0000E+00  0.0000E+00
 18  0.0000E+00  2.4458E-03  1.9098E-03  2.0746E-03  4.0957E-03  1.8825E-03  3.1057E-03  2.5209E-03  2.5612E-03
 19  4.0762E-06  8.1481E-03  9.0255E-03  7.8056E-03  7.1353E-03  6.9403E-03  7.0333E-03  7.9840E-03  8.4744E-03
 20  0.0000E+00  1.0810E-03  0.0000E+00  0.0000E+00  0.0000E+00  2.1578E-03  0.0000E+00  0.0000E+00  0.0000E+00
 21  0.0000E+00  1.9587E-03  0.0000E+00  1.1946E-03  0.0000E+00  0.0000E+00  1.1246E-02  0.0000E+00  0.0000E+00
 22  0.0000E+00  9.8377E-03  0.0000E+00  0.0000E+00  0.0000E+00  0.0000E+00  1.9132E-02  2.1238E-02  0.0000E+00
 23  0.0000E+00  1.0087E-02  0.0000E+00  0.0000E+00  0.0000E+00  7.3119E-02  0.0000E+00  1.7523E-03  0.0000E+00
 24  0.0000E+00  8.6553E-03  3.5825E-03  0.0000E+00  0.0000E+00  0.0000E+00  0.0000E+00  2.9355E-03  0.0000E+00
 25  0.0000E+00  1.3669E-02  0.0000E+00  0.0000E+00  0.0000E+00  0.0000E+00  0.0000E+00  0.0000E+00  0.0000E+00
 26  0.0000E+00  4.9480E-02  0.0000E+00  0.0000E+00  1.6460E-02  0.0000E+00  5.7438E-02  0.0000E+00  0.0000E+00
 27  0.0000E+00  6.6655E-02  0.0000E+00  0.0000E+00  0.0000E+00  0.0000E+00  0.0000E+00  0.0000E+00  0.0000E+00
 28  0.0000E+00  2.6711E-01  0.0000E+00  0.0000E+00  0.0000E+00  2.2547E-01  0.0000E+00  2.0789E-01  9.3818E-02
 29  9.0176E+00  3.6094E+00  4.1725E+00  3.5367E+00  3.6915E+00  4.5997E+00  3.4492E+00  3.9686E+00  3.1040E+00
 30  9.6326E+00  3.9477E+00  6.3768E+00  4.1568E+00  3.6844E+00  2.5267E+00  6.7407E+00  4.5147E+00  3.2815E+00
 31  0.0000E+00  7.3565E-05  0.0000E+00  0.0000E+00  0.0000E+00  0.0000E+00  0.0000E+00  0.0000E+00  8.2831E-04
 32  0.0000E+00  1.0208E-04  0.0000E+00  0.0000E+00  0.0000E+00  0.0000E+00  0.0000E+00  0.0000E+00  3.4225E-05
 33  0.0000E+00  3.0070E-04  0.0000E+00  0.0000E+00  5.2755E-04  2.0718E-04  1.2000E-04  0.0000E+00  0.0000E+00
