###################################################################
## OUTPUT of StarlightChains_v04.for    [Cid@UFSC - 01/Apr/2007] ##
###################################################################

## Some input info
NGC5904_b_1.cxt                          [arq_obs]
Base.BC03.N                              [arq_base]
NGC5904_b_1.msk                          [arq_masks]
StCv04.C11.config                        [arq_config]
   45                                    [N_base]
    0                                    [N_YAV_components = # of components with extra extinction!]
    0                                    [i_FitPowerLaw (1/0 = Yes/No)]
-9.99                                    [alpha_PowerLaw]
CCM                                      [red_law_option]
 1.458241                                [q_norm = A(l_norm)/A(V)]

## (Re)Sampling Parameters
 3359.00                                 [l_ini (A)]
 6428.00                                 [l_fin (A)]
    1.00                                 [dl    (A)]     (OBS: dl_cushion =    50.00 A)

## Normalization info
 4020.00                                 [l_norm (A) - for base]
 4010.00                                 [llow_norm (A) - window for f_obs]
 4060.00                                 [lupp_norm (A) - window for f_obs]
8.938202E-14                             [fobs_norm (in input units)]

## S/N
 4730.00                                 [llow_SN (A) - window for S/N]
 4780.00                                 [lupp_SN (A) - window for S/N]
  94.706                                 [S/N in S/N window]
  90.136                                 [S/N in norm. window]
 354.791                                 [S/N_err in S/N window]
 337.672                                 [S/N_err in norm. window]
  1.0000                                 [fscale_chi2]

## etc...
  2147483634                             [idum_orig]
  3069                                   [NOl_eff]
   914                                   [Nl_eff]
  2155    NSIGMA                         [Ntot_cliped & clip_method]
  4217220                                [Nglobal_steps]
   7                                     [N_chains]
   6                                     [NEX0s_base = N_base in EX0s-fits]
 0   0   1      257   2.0   7.095E+02    [Clip-Bug, RC-Crash & Burn-In warning-flags, n_censored_weights, wei_nsig_threshold & wei_limit]
    32     31.517     31.517      0.000  [idt_all, wdt_TotTime, wdt_UsrTime & wdt_SysTime (sec)]

## Synthesis Results - Best model ##

 2.92105E+00                             [chi2/Nl_eff]
     0.53904                             [adev (%)]

   101.96700                             [sum-of-x (%)]
 1.43951E-13                             [Flux_tot (units of input spectrum!)]
 9.72189E-10                             [Mini_tot (???)]
 5.33234E-10                             [Mcor_tot (???)]

 -10.09                                  [v0_min  (km/s)]
  94.86                                  [vd_min  (km/s)]
 0.3403                                  [AV_min  (mag)]
 0.0000                                  [YAV_min (mag)]

# j     x_j(%)      Mini_j(%)     Mcor_j(%)     age_j(yr)     Z_j      (L/M)_j    YAV?  Mstars   component_j        a/Fe...       SSP_chi2r SSP_adev(%)   SSP_AV   SSP_x(%)
  1      0.0000     0.0000E+00    0.0000E+00    1.000000E+06  0.00400  1.114E-02    0   1.0000   age020_m42            0.0000     2.1212E+03    10.7301   3.4952    76.1326
  2     13.8511     4.9383E-02    9.0025E-02    3.160000E+06  0.00400  4.073E-02    0   0.9999   age045_m42            0.0000     4.3134E+02     5.1642   2.5086    91.1091
  3      0.0000     0.0000E+00    0.0000E+00    5.010000E+06  0.00400  2.534E-02    0   0.9488   age055_m42            0.0000     1.0614E+03     7.8806   2.9312    84.0585
  4      1.1074     1.2653E-02    2.0443E-02    1.000000E+07  0.00400  1.271E-02    0   0.8862   age070_m42            0.0000     9.0811E+02     7.6843   2.1450    87.6600
  5      0.0000     0.0000E+00    0.0000E+00    2.512000E+07  0.00400  5.070E-03    0   0.8174   age090_m42            0.0000     7.6878E+02     7.1255   2.0111    89.3438
  6      0.0000     0.0000E+00    0.0000E+00    4.000000E+07  0.00400  3.505E-03    0   0.7851   age104_m42            0.0000     4.2835E+02     5.3360   1.6890    92.6314
  7     16.7961     1.0754E+00    1.4131E+00    1.015200E+08  0.00400  2.268E-03    0   0.7207   age116_m42            0.0000     7.2972E+02     4.1940   1.6498   104.4626
  8      0.0000     0.0000E+00    0.0000E+00    2.861200E+08  0.00400  1.079E-03    0   0.6613   age125_m42            0.0000     8.4694E+02     4.8759   1.1506   106.9927
  9      0.0000     0.0000E+00    0.0000E+00    6.405400E+08  0.00400  5.077E-04    0   0.6197   age132_m42            0.0000     1.0064E+03     5.3269   0.7933   110.9115
 10      8.7367     3.5889E+00    3.9417E+00    9.047900E+08  0.00400  3.535E-04    0   0.6024   age135_m42            0.0000     5.7217E+02     4.2162   0.5584   109.7839
 11      0.0000     0.0000E+00    0.0000E+00    1.434000E+09  0.00400  1.910E-04    0   0.5716   age139_m42            0.0000     2.3048E+02     3.4883   0.0299   108.2666
 12     58.7559     8.6903E+01    8.6556E+01    2.500000E+09  0.00400  9.818E-05    0   0.5463   age150_m42            0.0000     1.2904E+02     2.6375  -0.2440   103.2317
 13      2.7197     8.3710E+00    7.9789E+00    5.000000E+09  0.00400  4.718E-05    0   0.5228   age161_m42            0.0000     2.4534E+02     2.9564  -0.4102    99.6412
 14      0.0000     0.0000E+00    0.0000E+00    1.100000E+10  0.00400  2.205E-05    0   0.4980   age185_m42            0.0000     5.5254E+02     4.3491  -0.6785    97.6562
 15      0.0000     0.0000E+00    0.0000E+00    1.300000E+10  0.00400  1.883E-05    0   0.4927   age193_m42            0.0000     6.0529E+02     4.5255  -0.6962    97.4928
 16      0.0000     0.0000E+00    0.0000E+00    1.000000E+06  0.02000  1.989E-02    0   1.0000   age020_m62            0.0000     2.1290E+03    10.6874   3.4596    76.7432
 17      0.0000     0.0000E+00    0.0000E+00    3.160000E+06  0.02000  3.772E-02    0   0.9858   age045_m62            0.0000     1.8718E+03    10.0617   3.3208    78.8559
 18      0.0000     0.0000E+00    0.0000E+00    5.010000E+06  0.02000  3.227E-02    0   0.9342   age055_m62            0.0000     6.8702E+02     6.3256   2.7863    87.1858
 19      0.0000     0.0000E+00    0.0000E+00    1.000000E+07  0.02000  1.011E-02    0   0.8751   age070_m62            0.0000     2.1831E+03    11.7122   2.1751    83.1421
 20      0.0000     0.0000E+00    0.0000E+00    2.512000E+07  0.02000  4.206E-03    0   0.8099   age090_m62            0.0000     1.5726E+03     9.7639   2.1071    84.3828
 21      0.0000     0.0000E+00    0.0000E+00    4.000000E+07  0.02000  3.373E-03    0   0.7799   age104_m62            0.0000     3.6000E+02     4.9439   1.8974    94.4126
 22      0.0000     0.0000E+00    0.0000E+00    1.015200E+08  0.02000  1.878E-03    0   0.7221   age116_m62            0.0000     5.5235E+02     3.6976   1.6836   104.3522
 23      0.0000     0.0000E+00    0.0000E+00    2.861200E+08  0.02000  8.869E-04    0   0.6700   age125_m62            0.0000     1.6572E+03     6.9071   1.1464   112.6773
 24      0.0000     0.0000E+00    0.0000E+00    6.405400E+08  0.02000  3.657E-04    0   0.6322   age132_m62            0.0000     1.1210E+03     6.7876   0.4714   115.8525
 25      0.0000     0.0000E+00    0.0000E+00    9.047900E+08  0.02000  2.312E-04    0   0.6152   age135_m62            0.0000     6.0337E+02     5.5345   0.1040   114.3624
 26      0.0000     0.0000E+00    0.0000E+00    1.434000E+09  0.02000  1.168E-04    0   0.5865   age139_m62            0.0000     2.3493E+02     3.7122  -0.3097   107.8505
 27      0.0000     0.0000E+00    0.0000E+00    2.500000E+09  0.02000  5.505E-05    0   0.5610   age150_m62            0.0000     4.5814E+02     4.6588  -0.6884   104.9120
 28      0.0000     0.0000E+00    0.0000E+00    5.000000E+09  0.02000  2.596E-05    0   0.5353   age161_m62            0.0000     1.0082E+03     6.5160  -1.0000   104.4889
 29      0.0000     0.0000E+00    0.0000E+00    1.100000E+10  0.02000  1.169E-05    0   0.5103   age185_m62            0.0000     2.5647E+03    10.5265  -1.0000    95.4759
 30      0.0000     0.0000E+00    0.0000E+00    1.300000E+10  0.02000  9.691E-06    0   0.5047   age193_m62            0.0000     2.9106E+03    11.2738  -1.0000    94.3034
 31      0.0000     0.0000E+00    0.0000E+00    1.000000E+06  0.05000  2.651E-02    0   0.9998   age020_m72            0.0000     1.9749E+03    10.1236   3.4642    77.6010
 32      0.0000     0.0000E+00    0.0000E+00    3.160000E+06  0.05000  4.817E-02    0   0.9577   age045_m72            0.0000     1.2897E+03     8.2708   3.1781    82.2322
 33      0.0000     0.0000E+00    0.0000E+00    5.010000E+06  0.05000  3.101E-02    0   0.9147   age055_m72            0.0000     1.1812E+03     8.1762   2.8115    84.7970
 34      0.0000     0.0000E+00    0.0000E+00    1.000000E+07  0.05000  8.954E-03    0   0.8524   age070_m72            0.0000     1.2686E+03     8.1510   3.0481    83.5619
 35      0.0000     0.0000E+00    0.0000E+00    2.512000E+07  0.05000  4.207E-03    0   0.7902   age090_m72            0.0000     5.5224E+02     5.5589   2.5995    89.8178
 36      0.0000     0.0000E+00    0.0000E+00    4.000000E+07  0.05000  3.198E-03    0   0.7618   age104_m72            0.0000     2.5208E+02     2.8952   2.0614    99.4727
 37      0.0000     0.0000E+00    0.0000E+00    1.015200E+08  0.05000  1.716E-03    0   0.7092   age116_m72            0.0000     7.1652E+02     4.2975   1.7576   104.9369
 38      0.0000     0.0000E+00    0.0000E+00    2.861200E+08  0.05000  7.047E-04    0   0.6618   age125_m72            0.0000     1.6174E+03     7.2646   0.9327   113.3304
 39      0.0000     0.0000E+00    0.0000E+00    6.405400E+08  0.05000  2.633E-04    0   0.6253   age132_m72            0.0000     8.7385E+02     6.4513   0.0847   115.3695
 40      0.0000     0.0000E+00    0.0000E+00    9.047900E+08  0.05000  1.484E-04    0   0.6088   age135_m72            0.0000     4.3290E+02     5.1623  -0.3959   109.7622
 41      0.0000     0.0000E+00    0.0000E+00    1.434000E+09  0.05000  7.827E-05    0   0.5847   age139_m72            0.0000     6.5561E+02     5.9209  -0.7917   106.1281
 42      0.0000     0.0000E+00    0.0000E+00    2.500000E+09  0.05000  3.759E-05    0   0.5583   age150_m72            0.0000     1.1754E+03     6.9859  -1.0000   102.0653
 43      0.0000     0.0000E+00    0.0000E+00    5.000000E+09  0.05000  1.548E-05    0   0.5320   age161_m72            0.0000     3.2348E+03    12.3703  -1.0000    89.6989
 44      0.0000     0.0000E+00    0.0000E+00    1.100000E+10  0.05000  6.532E-06    0   0.5070   age185_m72            0.0000     6.5282E+03    17.3815  -1.0000    78.5755
 45      0.0000     0.0000E+00    0.0000E+00    1.300000E+10  0.05000  5.316E-06    0   0.5018   age193_m72            0.0000     7.7844E+03    18.7745  -1.0000    75.3134


## Synthesis Results - Average & Chains ##

# j      x_j: min, <> & last-chain-values for 1 ...  7 chains
  1      0.0000      0.0052      0.0170      0.0000      0.0000      0.0000      0.0000      0.0000      0.0006
  2     13.8511     13.0631     12.8240     13.1607     13.1629     13.2046     13.3038     13.2463     13.1283
  3      0.0000      0.0089      0.0000      0.0000      0.0269      0.0000      0.0000      0.0000      0.0000
  4      1.1074      2.0767      1.9190      2.0111      2.0015      2.0306      1.8768      2.0398      2.0732
  5      0.0000      0.0135      0.0056      0.0000      0.0000      0.0000      0.0000      0.0000      0.0000
  6      0.0000      0.0224      0.0034      0.0000      0.0000      0.0098      0.0068      0.0000      0.0000
  7     16.7961     16.0667     17.1177     16.3244     16.1334     16.1382     16.0348     15.8509     16.1037
  8      0.0000      0.0374      0.0119      0.1033      0.0000      0.0000      0.0176      0.0000      0.0357
  9      0.0000      0.0540      0.0127      0.0000      0.0845      0.1020      0.0000      0.0000      0.1190
 10      8.7367      7.9220      8.3874      7.8256      7.8292      7.9566      7.9930      8.1093      7.8566
 11      0.0000      3.1496      0.0801      2.8039      3.0488      2.9932      2.9128      3.4786      3.3467
 12     58.7559     55.8924     58.8871     56.3837     56.1389     55.9862     56.2294     55.5465     56.1259
 13      2.7197      2.9180      2.5365      2.7775      2.9177      2.9174      2.9335      2.9892      2.9089
 14      0.0000      0.0116      0.0000      0.0000      0.0278      0.0000      0.0000      0.0000      0.0000
 15      0.0000      0.0092      0.0090      0.0000      0.0000      0.0619      0.0006      0.0000      0.0000
 16      0.0000      0.0014      0.0000      0.0000      0.0000      0.0000      0.0000      0.0000      0.0000
 17      0.0000      0.0024      0.0015      0.0000      0.0000      0.0000      0.0000      0.0000      0.0000
 18      0.0000      0.0081      0.0135      0.0000      0.0000      0.0200      0.0167      0.0000      0.0000
 19      0.0000      0.0032      0.0012      0.0000      0.0000      0.0000      0.0000      0.0000      0.0003
 20      0.0000      0.0050      0.0000      0.0000      0.0000      0.0000      0.0000      0.0000      0.0000
 21      0.0000      0.0066      0.0044      0.0000      0.0000      0.0000      0.0000      0.0000      0.0000
 22      0.0000      0.0166      0.0000      0.0000      0.1051      0.0000      0.0000      0.0406      0.0000
 23      0.0000      0.0173      0.0049      0.0000      0.0000      0.0291      0.0000      0.0000      0.0000
 24      0.0000      0.0258      0.0000      0.0000      0.0832      0.0000      0.0000      0.0404      0.0000
 25      0.0000      0.0706      0.0003      0.2687      0.0000      0.0000      0.0000      0.0000      0.0082
 26      0.0000      0.0741      0.0000      0.0020      0.0000      0.0258      0.0000      0.1300      0.0606
 27      0.0000      0.0429      0.0068      0.0583      0.0505      0.0000      0.0000      0.0159      0.0415
 28      0.0000      0.0153      0.0000      0.0078      0.0000      0.0165      0.0000      0.0000      0.0000
 29      0.0000      0.0028      0.0008      0.0376      0.0000      0.0000      0.0000      0.0000      0.0000
 30      0.0000      0.0048      0.0010      0.0000      0.0000      0.0000      0.0000      0.0000      0.0000
 31      0.0000      0.0021      0.0000      0.0004      0.0000      0.0000      0.0274      0.0000      0.0000
 32      0.0000      0.0054      0.0000      0.0000      0.0000      0.0000      0.0000      0.0000      0.0000
 33      0.0000      0.0091      0.0000      0.0000      0.0000      0.0000      0.0007      0.0125      0.0000
 34      0.0000      0.0043      0.0041      0.0000      0.0000      0.0000      0.0000      0.0000      0.0000
 35      0.0000      0.0051      0.0000      0.0000      0.0000      0.0000      0.0000      0.0000      0.0000
 36      0.0000      0.0089      0.0007      0.0000      0.0000      0.0000      0.0456      0.0280      0.0000
 37      0.0000      0.0172      0.0100      0.0000      0.0000      0.0000      0.0000      0.0000      0.0013
 38      0.0000      0.0306      0.0231      0.0177      0.0444      0.0000      0.1678      0.0000      0.0294
 39      0.0000      0.1467      0.0000      0.0823      0.0370      0.2273      0.0226      0.1330      0.0000
 40      0.0000      0.1756      0.0119      0.1671      0.2890      0.1614      0.4160      0.3618      0.1592
 41      0.0000      0.0308      0.0514      0.0000      0.0236      0.1123      0.0000      0.0000      0.0000
 42      0.0000      0.0093      0.0000      0.0000      0.0000      0.0000      0.0000      0.0000      0.0000
 43      0.0000      0.0050      0.0000      0.0000      0.0005      0.0017      0.0000      0.0000      0.0000
 44      0.0000      0.0027      0.0000      0.0000      0.0000      0.0000      0.0000      0.0020      0.0000
 45      0.0000      0.0029      0.0036      0.0000      0.0000      0.0000      0.0000      0.0000      0.0000

# j      m_j: min, <> & last-chain-values for 1 ...  7 chains
  1  0.0000E+00  1.2460E-04  4.0508E-04  0.0000E+00  0.0000E+00  0.0000E+00  0.0000E+00  0.0000E+00  1.3707E-05
  2  9.0025E-02  8.5218E-02  8.3415E-02  8.5935E-02  8.6012E-02  8.6147E-02  8.7039E-02  8.6764E-02  8.5918E-02
  3  0.0000E+00  8.8375E-05  0.0000E+00  0.0000E+00  2.6803E-04  0.0000E+00  0.0000E+00  0.0000E+00  0.0000E+00
  4  2.0443E-02  3.8477E-02  3.5452E-02  3.7296E-02  3.7145E-02  3.7626E-02  3.4873E-02  3.7947E-02  3.8536E-02
  5  0.0000E+00  5.7970E-04  2.4108E-04  0.0000E+00  0.0000E+00  0.0000E+00  0.0000E+00  0.0000E+00  0.0000E+00
  6  0.0000E+00  1.3355E-03  2.0017E-04  0.0000E+00  0.0000E+00  5.8398E-04  4.0540E-04  0.0000E+00  0.0000E+00
  7  1.4131E+00  1.3567E+00  1.4412E+00  1.3797E+00  1.3646E+00  1.3628E+00  1.3579E+00  1.3439E+00  1.3642E+00
  8  0.0000E+00  6.0832E-03  1.9402E-03  1.6841E-02  0.0000E+00  0.0000E+00  2.8685E-03  0.0000E+00  5.8368E-03
  9  0.0000E+00  1.7517E-02  4.0953E-03  0.0000E+00  2.7448E-02  3.3096E-02  0.0000E+00  0.0000E+00  3.8737E-02
 10  3.9417E+00  3.5873E+00  3.7870E+00  3.5470E+00  3.5512E+00  3.6032E+00  3.6300E+00  3.6871E+00  3.5691E+00
 11  0.0000E+00  2.5047E+00  6.3545E-02  2.2319E+00  2.4286E+00  2.3805E+00  2.3231E+00  2.7776E+00  2.6700E+00
 12  8.6556E+01  8.2642E+01  8.6817E+01  8.3447E+01  8.3145E+01  8.2786E+01  8.3382E+01  8.2465E+01  8.3253E+01
 13  7.9789E+00  8.5922E+00  7.4471E+00  8.1861E+00  8.6055E+00  8.5909E+00  8.6630E+00  8.8377E+00  8.5929E+00
 14  0.0000E+00  6.9828E-02  0.0000E+00  0.0000E+00  1.6715E-01  0.0000E+00  0.0000E+00  0.0000E+00  0.0000E+00
 15  0.0000E+00  6.3991E-02  6.2188E-02  0.0000E+00  0.0000E+00  4.3045E-01  4.5290E-03  0.0000E+00  0.0000E+00
 16  0.0000E+00  1.8809E-05  0.0000E+00  0.0000E+00  0.0000E+00  0.0000E+00  0.0000E+00  0.0000E+00  0.0000E+00
 17  0.0000E+00  1.6874E-05  1.0275E-05  0.0000E+00  0.0000E+00  0.0000E+00  0.0000E+00  0.0000E+00  0.0000E+00
 18  0.0000E+00  6.2670E-05  1.0374E-04  0.0000E+00  0.0000E+00  1.5400E-04  1.2879E-04  0.0000E+00  0.0000E+00
 19  0.0000E+00  7.3542E-05  2.6403E-05  0.0000E+00  0.0000E+00  0.0000E+00  0.0000E+00  0.0000E+00  7.8522E-06
 20  0.0000E+00  2.5332E-04  0.0000E+00  0.0000E+00  0.0000E+00  0.0000E+00  0.0000E+00  0.0000E+00  0.0000E+00
 21  0.0000E+00  4.0634E-04  2.6958E-04  0.0000E+00  0.0000E+00  0.0000E+00  0.0000E+00  0.0000E+00  0.0000E+00
 22  0.0000E+00  1.6983E-03  0.0000E+00  0.0000E+00  1.0758E-02  0.0000E+00  0.0000E+00  4.1702E-03  0.0000E+00
 23  0.0000E+00  3.4684E-03  9.7758E-04  0.0000E+00  0.0000E+00  5.8469E-03  0.0000E+00  0.0000E+00  0.0000E+00
 24  0.0000E+00  1.1831E-02  0.0000E+00  0.0000E+00  3.8298E-02  0.0000E+00  0.0000E+00  1.8651E-02  0.0000E+00
 25  0.0000E+00  4.9939E-02  2.0012E-04  1.9019E-01  0.0000E+00  0.0000E+00  0.0000E+00  0.0000E+00  5.8004E-03
 26  0.0000E+00  9.8881E-02  0.0000E+00  2.6524E-03  0.0000E+00  3.4393E-02  0.0000E+00  1.7419E-01  8.1119E-02
 27  0.0000E+00  1.1627E-01  1.8470E-02  1.5808E-01  1.3710E-01  0.0000E+00  0.0000E+00  4.3148E-02  1.1275E-01
 28  0.0000E+00  8.3635E-02  0.0000E+00  4.2535E-02  0.0000E+00  9.0240E-02  0.0000E+00  0.0000E+00  0.0000E+00
 29  0.0000E+00  3.2781E-02  9.4250E-03  4.3622E-01  0.0000E+00  0.0000E+00  0.0000E+00  0.0000E+00  0.0000E+00
 30  0.0000E+00  6.5909E-02  1.3786E-02  0.0000E+00  0.0000E+00  0.0000E+00  0.0000E+00  0.0000E+00  0.0000E+00
 31  0.0000E+00  2.1214E-05  0.0000E+00  3.9315E-06  0.0000E+00  0.0000E+00  2.7585E-04  0.0000E+00  0.0000E+00
 32  0.0000E+00  2.8634E-05  0.0000E+00  0.0000E+00  0.0000E+00  0.0000E+00  0.0000E+00  0.0000E+00  0.0000E+00
 33  0.0000E+00  7.0968E-05  0.0000E+00  0.0000E+00  0.0000E+00  0.0000E+00  5.7950E-06  9.8432E-05  0.0000E+00
