###################################################################
## OUTPUT of StarlightChains_v04.for    [Cid@UFSC - 01/Apr/2007] ##
###################################################################

## Some input info
NGC5286_c_1.cxt                          [arq_obs]
Base.BC03.N                              [arq_base]
NGC5286_c_1.msk                          [arq_masks]
StCv04.C11.config                        [arq_config]
   45                                    [N_base]
    0                                    [N_YAV_components = # of components with extra extinction!]
    0                                    [i_FitPowerLaw (1/0 = Yes/No)]
-9.99                                    [alpha_PowerLaw]
CCM                                      [red_law_option]
 1.458241                                [q_norm = A(l_norm)/A(V)]

## (Re)Sampling Parameters
 3359.00                                 [l_ini (A)]
 6428.00                                 [l_fin (A)]
    1.00                                 [dl    (A)]     (OBS: dl_cushion =    50.00 A)

## Normalization info
 4020.00                                 [l_norm (A) - for base]
 4010.00                                 [llow_norm (A) - window for f_obs]
 4060.00                                 [lupp_norm (A) - window for f_obs]
3.906300E-14                             [fobs_norm (in input units)]

## S/N
 4730.00                                 [llow_SN (A) - window for S/N]
 4780.00                                 [lupp_SN (A) - window for S/N]
 103.062                                 [S/N in S/N window]
  88.537                                 [S/N in norm. window]
 171.763                                 [S/N_err in S/N window]
 147.556                                 [S/N_err in norm. window]
  1.0000                                 [fscale_chi2]

## etc...
  2147483636                             [idum_orig]
  3068                                   [NOl_eff]
  1502                                   [Nl_eff]
  1566    NSIGMA                         [Ntot_cliped & clip_method]
   831460                                [Nglobal_steps]
   7                                     [N_chains]
   8                                     [NEX0s_base = N_base in EX0s-fits]
 0   0   1      214   2.0   3.215E+02    [Clip-Bug, RC-Crash & Burn-In warning-flags, n_censored_weights, wei_nsig_threshold & wei_limit]
    11     10.478     10.474      0.004  [idt_all, wdt_TotTime, wdt_UsrTime & wdt_SysTime (sec)]

## Synthesis Results - Best model ##

 2.86297E+00                             [chi2/Nl_eff]
     0.98602                             [adev (%)]

   100.41975                             [sum-of-x (%)]
 2.02607E-13                             [Flux_tot (units of input spectrum!)]
 1.34868E-09                             [Mini_tot (???)]
 7.27649E-10                             [Mcor_tot (???)]

 -16.09                                  [v0_min  (km/s)]
 108.78                                  [vd_min  (km/s)]
 1.2225                                  [AV_min  (mag)]
 0.0000                                  [YAV_min (mag)]

# j     x_j(%)      Mini_j(%)     Mcor_j(%)     age_j(yr)     Z_j      (L/M)_j    YAV?  Mstars   component_j        a/Fe...       SSP_chi2r SSP_adev(%)   SSP_AV   SSP_x(%)
  1      0.0000     0.0000E+00    0.0000E+00    1.000000E+06  0.00400  1.114E-02    0   1.0000   age020_m42            0.0000     3.8186E+02     8.5903   4.0000    77.6760
  2     14.5701     5.3515E-02    9.9179E-02    3.160000E+06  0.00400  4.073E-02    0   0.9999   age045_m42            0.0000     5.6400E+01     3.6264   3.0776    91.4552
  3      0.0000     0.0000E+00    0.0000E+00    5.010000E+06  0.00400  2.534E-02    0   0.9488   age055_m42            0.0000     1.6824E+02     6.0116   3.4811    84.8592
  4     10.4776     1.2332E-01    2.0256E-01    1.000000E+07  0.00400  1.271E-02    0   0.8862   age070_m42            0.0000     1.4350E+02     6.1499   2.6932    88.8904
  5      0.0000     0.0000E+00    0.0000E+00    2.512000E+07  0.00400  5.070E-03    0   0.8174   age090_m42            0.0000     1.2212E+02     5.6965   2.5675    90.3786
  6      0.0000     0.0000E+00    0.0000E+00    4.000000E+07  0.00400  3.505E-03    0   0.7851   age104_m42            0.0000     6.0837E+01     4.0197   2.2564    93.4191
  7     10.3046     6.7969E-01    9.0793E-01    1.015200E+08  0.00400  2.268E-03    0   0.7207   age116_m42            0.0000     1.9754E+02     5.3922   2.2624   103.3929
  8      0.0000     0.0000E+00    0.0000E+00    2.861200E+08  0.00400  1.079E-03    0   0.6613   age125_m42            0.0000     2.2735E+02     6.1445   1.7745   105.2839
  9      5.0551     1.4895E+00    1.7109E+00    6.405400E+08  0.00400  5.077E-04    0   0.6197   age132_m42            0.0000     2.5455E+02     6.4913   1.4160   109.2908
 10     22.8819     9.6834E+00    1.0812E+01    9.047900E+08  0.00400  3.535E-04    0   0.6024   age135_m42            0.0000     1.5063E+02     5.3084   1.1775   108.4003
 11      0.0000     0.0000E+00    0.0000E+00    1.434000E+09  0.00400  1.910E-04    0   0.5716   age139_m42            0.0000     8.1392E+01     4.5269   0.6549   106.9737
 12     15.3626     2.3408E+01    2.3702E+01    2.500000E+09  0.00400  9.818E-05    0   0.5463   age150_m42            0.0000     6.9986E+01     3.8055   0.3827   101.9818
 13     20.3594     6.4556E+01    6.2554E+01    5.000000E+09  0.00400  4.718E-05    0   0.5228   age161_m42            0.0000     1.0255E+02     4.0188   0.2182    98.3949
 14      0.0000     0.0000E+00    0.0000E+00    1.100000E+10  0.00400  2.205E-05    0   0.4980   age185_m42            0.0000     1.9927E+02     5.4061  -0.0369    96.0430
 15      0.0000     0.0000E+00    0.0000E+00    1.300000E+10  0.00400  1.883E-05    0   0.4927   age193_m42            0.0000     2.1397E+02     5.5745  -0.0525    95.8213
 16      0.0000     0.0000E+00    0.0000E+00    1.000000E+06  0.02000  1.989E-02    0   1.0000   age020_m62            0.0000     3.8272E+02     8.7163   4.0000    77.5110
 17      0.0000     0.0000E+00    0.0000E+00    3.160000E+06  0.02000  3.772E-02    0   0.9858   age045_m62            0.0000     3.3162E+02     8.2673   3.8622    79.7611
 18      1.4085     6.5295E-03    1.1306E-02    5.010000E+06  0.02000  3.227E-02    0   0.9342   age055_m62            0.0000     1.0007E+02     4.8243   3.3400    87.9518
 19      0.0000     0.0000E+00    0.0000E+00    1.000000E+07  0.02000  1.011E-02    0   0.8751   age070_m62            0.0000     4.2852E+02    10.6376   2.7132    84.6269
 20      0.0000     0.0000E+00    0.0000E+00    2.512000E+07  0.02000  4.206E-03    0   0.8099   age090_m62            0.0000     2.9008E+02     8.5712   2.6489    85.7076
 21      0.0000     0.0000E+00    0.0000E+00    4.000000E+07  0.02000  3.373E-03    0   0.7799   age104_m62            0.0000     5.1198E+01     3.6530   2.4656    94.9817
 22      0.0000     0.0000E+00    0.0000E+00    1.015200E+08  0.02000  1.878E-03    0   0.7221   age116_m62            0.0000     1.4596E+02     4.3449   2.2875   103.6567
 23      0.0000     0.0000E+00    0.0000E+00    2.861200E+08  0.02000  8.869E-04    0   0.6700   age125_m62            0.0000     4.2071E+02     8.0309   1.7855   110.5809
 24      0.0000     0.0000E+00    0.0000E+00    6.405400E+08  0.02000  3.657E-04    0   0.6322   age132_m62            0.0000     2.9449E+02     7.6691   1.1117   113.8486
 25      0.0000     0.0000E+00    0.0000E+00    9.047900E+08  0.02000  2.312E-04    0   0.6152   age135_m62            0.0000     1.7459E+02     6.3955   0.7385   112.7581
 26      0.0000     0.0000E+00    0.0000E+00    1.434000E+09  0.02000  1.168E-04    0   0.5865   age139_m62            0.0000     9.9568E+01     4.7373   0.3243   106.3802
 27      0.0000     0.0000E+00    0.0000E+00    2.500000E+09  0.02000  5.505E-05    0   0.5610   age150_m62            0.0000     1.7461E+02     5.6427  -0.0412   103.1256
 28      0.0000     0.0000E+00    0.0000E+00    5.000000E+09  0.02000  2.596E-05    0   0.5353   age161_m62            0.0000     3.3205E+02     7.5197  -0.3645   102.8954
 29      0.0000     0.0000E+00    0.0000E+00    1.100000E+10  0.02000  1.169E-05    0   0.5103   age185_m62            0.0000     5.1563E+02     9.2947  -0.7228   104.1957
 30      0.0000     0.0000E+00    0.0000E+00    1.300000E+10  0.02000  9.691E-06    0   0.5047   age193_m62            0.0000     5.5145E+02     9.5790  -0.7670   104.3618
 31      0.0000     0.0000E+00    0.0000E+00    1.000000E+06  0.05000  2.651E-02    0   0.9998   age020_m72            0.0000     3.5523E+02     8.3024   4.0000    78.4480
 32      0.0000     0.0000E+00    0.0000E+00    3.160000E+06  0.05000  4.817E-02    0   0.9577   age045_m72            0.0000     2.2218E+02     6.8121   3.7214    83.1372
 33      0.0000     0.0000E+00    0.0000E+00    5.010000E+06  0.05000  3.101E-02    0   0.9147   age055_m72            0.0000     1.9779E+02     6.5477   3.3541    85.8604
 34      0.0000     0.0000E+00    0.0000E+00    1.000000E+07  0.05000  8.954E-03    0   0.8524   age070_m72            0.0000     2.2538E+02     6.8514   3.5994    84.1659
 35      0.0000     0.0000E+00    0.0000E+00    2.512000E+07  0.05000  4.207E-03    0   0.7902   age090_m72            0.0000     8.7587E+01     4.4953   3.1657    90.1175
 36      0.0000     0.0000E+00    0.0000E+00    4.000000E+07  0.05000  3.198E-03    0   0.7618   age104_m72            0.0000     6.8315E+01     3.1947   2.6570    99.0657
 37      0.0000     0.0000E+00    0.0000E+00    1.015200E+08  0.05000  1.716E-03    0   0.7092   age116_m72            0.0000     1.9318E+02     5.1008   2.3711   103.8962
 38      0.0000     0.0000E+00    0.0000E+00    2.861200E+08  0.05000  7.047E-04    0   0.6618   age125_m72            0.0000     4.1565E+02     8.2908   1.5781   111.1839
 39      0.0000     0.0000E+00    0.0000E+00    6.405400E+08  0.05000  2.633E-04    0   0.6253   age132_m72            0.0000     2.4145E+02     7.2528   0.7334   113.3077
 40      0.0000     0.0000E+00    0.0000E+00    9.047900E+08  0.05000  1.484E-04    0   0.6088   age135_m72            0.0000     1.5910E+02     6.1173   0.2574   107.6428
 41      0.0000     0.0000E+00    0.0000E+00    1.434000E+09  0.05000  7.827E-05    0   0.5847   age139_m72            0.0000     2.3838E+02     6.8095  -0.1270   103.7368
 42      0.0000     0.0000E+00    0.0000E+00    2.500000E+09  0.05000  3.759E-05    0   0.5583   age150_m72            0.0000     3.6088E+02     7.9074  -0.4444   102.6583
 43      0.0000     0.0000E+00    0.0000E+00    5.000000E+09  0.05000  1.548E-05    0   0.5320   age161_m72            0.0000     5.2970E+02     9.3180  -0.8606   102.3574
 44      0.0000     0.0000E+00    0.0000E+00    1.100000E+10  0.05000  6.532E-06    0   0.5070   age185_m72            0.0000     8.0532E+02    11.6361  -1.0000    95.2898
 45      0.0000     0.0000E+00    0.0000E+00    1.300000E+10  0.05000  5.316E-06    0   0.5018   age193_m72            0.0000     9.7035E+02    12.9240  -1.0000    91.9006


## Synthesis Results - Average & Chains ##

# j      x_j: min, <> & last-chain-values for 1 ...  7 chains
  1      0.0000      0.0053      0.0000      0.0000      0.0000      0.0000      0.0000      0.0000      0.0000
  2     14.5701     13.6974     13.8497     13.6892     13.6068     13.8000     13.7591     14.0918     14.0382
  3      0.0000      0.0188      0.0000      0.0000      0.0000      0.0215      0.0000      0.0000      0.0000
  4     10.4776     10.0691     10.0911     10.2970     10.2087     10.1579     10.1384     10.0004     10.0691
  5      0.0000      0.0834      0.1117      0.4173      0.0616      0.1408      0.0237      0.0449      0.0000
  6      0.0000      0.0209      0.0000      0.0000      0.0190      0.0000      0.1000      0.0037      0.0791
  7     10.3046     11.0185     11.1771     10.9844     11.0280     10.9253     11.2367     11.0315     11.0129
  8      0.0000      0.0368      0.0194      0.0000      0.0000      0.0000      0.0000      0.0358      0.0000
  9      5.0551      6.0076      6.0221      6.3016      6.1386      6.3135      6.0440      6.0305      6.1166
 10     22.8819     20.3756     20.5156     20.6748     20.8989     20.4437     20.5138     20.3689     20.4550
 11      0.0000      0.2747      0.0000      0.0674      0.0485      0.0115      0.0000      0.3523      0.0755
 12     15.3626     16.0117     16.2191     15.6182     15.6828     15.9679     16.1043     15.8218     16.0242
 13     20.3594     20.2365     20.2609     19.9904     20.1018     20.1547     20.1380     20.2103     20.3715
 14      0.0000      0.0104      0.0000      0.0000      0.0848      0.0000      0.0000      0.0126      0.0012
 15      0.0000      0.0087      0.0000      0.0000      0.0000      0.0000      0.0000      0.0000      0.0000
 16      0.0000      0.0047      0.0000      0.0000      0.0000      0.0000      0.0000      0.0000      0.0017
 17      0.0000      0.0054      0.0000      0.0000      0.0186      0.0000      0.0000      0.0000      0.0000
 18      1.4085      1.7006      1.6400      1.6620      1.6339      1.7094      1.8159      1.6298      1.6685
 19      0.0000      0.0210      0.0000      0.0000      0.0000      0.0355      0.0000      0.0000      0.0000
 20      0.0000      0.0112      0.0000      0.0000      0.0890      0.0000      0.0000      0.0000      0.0184
 21      0.0000      0.0110      0.0000      0.0000      0.0000      0.0000      0.0000      0.0000      0.0000
 22      0.0000      0.0259      0.0000      0.0000      0.0000      0.0000      0.0000      0.0299      0.0548
 23      0.0000      0.0301      0.0045      0.0000      0.0000      0.0248      0.0000      0.0000      0.0000
 24      0.0000      0.0223      0.0000      0.0000      0.0000      0.0000      0.0000      0.0240      0.0000
 25      0.0000      0.0252      0.0682      0.0000      0.0649      0.0000      0.0000      0.0000      0.0000
 26      0.0000      0.0335      0.0000      0.0000      0.0000      0.0000      0.0112      0.1318      0.0204
 27      0.0000      0.0664      0.0377      0.0555      0.0164      0.0000      0.2272      0.2022      0.1665
 28      0.0000      0.0212      0.0000      0.0000      0.0781      0.0457      0.0000      0.0000      0.0099
 29      0.0000      0.0149      0.0000      0.0000      0.0871      0.0896      0.0000      0.0000      0.0319
 30      0.0000      0.0895      0.1205      0.2163      0.0897      0.0666      0.0797      0.0841      0.0418
 31      0.0000      0.0079      0.0000      0.0000      0.0000      0.0000      0.0000      0.0000      0.0000
 32      0.0000      0.0154      0.0000      0.0000      0.0674      0.0000      0.0130      0.0000      0.0000
 33      0.0000      0.0781      0.1146      0.0056      0.1492      0.0084      0.0307      0.0997      0.0000
 34      0.0000      0.0059      0.0000      0.0000      0.0000      0.0048      0.0000      0.0020      0.0000
 35      0.0000      0.0186      0.0000      0.0000      0.0000      0.0000      0.0000      0.0000      0.0000
 36      0.0000      0.0171      0.0000      0.0000      0.0181      0.0000      0.0099      0.0000      0.0000
 37      0.0000      0.0236      0.0000      0.0000      0.0000      0.0242      0.0000      0.0868      0.0108
 38      0.0000      0.0206      0.0013      0.0000      0.0000      0.0028      0.0149      0.0000      0.0217
 39      0.0000      0.0333      0.0000      0.0000      0.0000      0.0000      0.0000      0.0000      0.0000
 40      0.0000      0.0482      0.0005      0.1082      0.0000      0.1614      0.0000      0.0000      0.0000
 41      0.0000      0.0678      0.0669      0.1373      0.1333      0.1988      0.0329      0.0000      0.0000
 42      0.0000      0.0352      0.0650      0.0000      0.0000      0.0658      0.0000      0.0613      0.0123
 43      0.0000      0.0491      0.0628      0.0854      0.0000      0.0302      0.0000      0.0000      0.0508
 44      0.0000      0.0859      0.0278      0.1577      0.1214      0.0957      0.1695      0.0896      0.0933
 45      0.0000      0.0208      0.0221      0.0000      0.0330      0.0000      0.0035      0.0481      0.0329

# j      m_j: min, <> & last-chain-values for 1 ...  7 chains
  1  0.0000E+00  1.2534E-04  0.0000E+00  0.0000E+00  0.0000E+00  0.0000E+00  0.0000E+00  0.0000E+00  0.0000E+00
  2  9.9179E-02  8.8559E-02  9.0318E-02  8.7363E-02  8.7040E-02  8.9317E-02  8.8875E-02  9.1130E-02  9.0694E-02
  3  0.0000E+00  1.8576E-04  0.0000E+00  0.0000E+00  0.0000E+00  2.1180E-04  0.0000E+00  0.0000E+00  0.0000E+00
  4  2.0256E-01  1.8490E-01  1.8690E-01  1.8664E-01  1.8547E-01  1.8672E-01  1.8600E-01  1.8368E-01  1.8476E-01
  5  0.0000E+00  3.5418E-03  4.7851E-03  1.7489E-02  2.5861E-03  5.9846E-03  1.0049E-03  1.9088E-03  0.0000E+00
  6  0.0000E+00  1.2313E-03  0.0000E+00  0.0000E+00  1.1112E-03  0.0000E+00  5.8941E-03  2.1824E-04  4.6600E-03
  7  9.0793E-01  9.2212E-01  9.4347E-01  9.0738E-01  9.1312E-01  9.1528E-01  9.3950E-01  9.2342E-01  9.2095E-01
  8  0.0000E+00  5.9458E-03  3.1559E-03  0.0000E+00  0.0000E+00  0.0000E+00  0.0000E+00  5.7805E-03  0.0000E+00
  9  1.7109E+00  1.9312E+00  1.9526E+00  1.9995E+00  1.9524E+00  2.0317E+00  1.9411E+00  1.9390E+00  1.9648E+00
 10  1.0812E+01  9.1445E+00  9.2869E+00  9.1588E+00  9.2798E+00  9.1847E+00  9.1979E+00  9.1436E+00  9.1732E+00
 11  0.0000E+00  2.1650E-01  0.0000E+00  5.2436E-02  3.7795E-02  9.0769E-03  0.0000E+00  2.7771E-01  5.9453E-02
 12  2.3702E+01  2.3464E+01  2.3973E+01  2.2591E+01  2.2738E+01  2.3424E+01  2.3578E+01  2.3191E+01  2.3464E+01
 13  6.2554E+01  5.9056E+01  5.9638E+01  5.7584E+01  5.8041E+01  5.8879E+01  5.8714E+01  5.8994E+01  5.9405E+01
 14  0.0000E+00  6.2040E-02  0.0000E+00  0.0000E+00  4.9887E-01  0.0000E+00  0.0000E+00  7.4946E-02  7.0094E-03
 15  0.0000E+00  5.9618E-02  0.0000E+00  0.0000E+00  0.0000E+00  0.0000E+00  0.0000E+00  0.0000E+00  0.0000E+00
 16  0.0000E+00  6.2454E-05  0.0000E+00  0.0000E+00  0.0000E+00  0.0000E+00  0.0000E+00  0.0000E+00  2.2907E-05
 17  0.0000E+00  3.7240E-05  0.0000E+00  0.0000E+00  1.2693E-04  0.0000E+00  0.0000E+00  0.0000E+00  0.0000E+00
 18  1.1306E-02  1.2966E-02  1.2612E-02  1.2508E-02  1.2325E-02  1.3046E-02  1.3832E-02  1.2429E-02  1.2711E-02
 19  0.0000E+00  4.7981E-04  0.0000E+00  0.0000E+00  0.0000E+00  8.1085E-04  0.0000E+00  0.0000E+00  0.0000E+00
 20  0.0000E+00  5.6943E-04  0.0000E+00  0.0000E+00  4.4653E-03  0.0000E+00  0.0000E+00  0.0000E+00  9.3465E-04
 21  0.0000E+00  6.6893E-04  0.0000E+00  0.0000E+00  0.0000E+00  0.0000E+00  0.0000E+00  0.0000E+00  0.0000E+00
 22  0.0000E+00  2.6222E-03  0.0000E+00  0.0000E+00  0.0000E+00  0.0000E+00  0.0000E+00  3.0280E-03  5.5494E-03
 23  0.0000E+00  5.9864E-03  9.0245E-04  0.0000E+00  0.0000E+00  4.9464E-03  0.0000E+00  0.0000E+00  0.0000E+00
 24  0.0000E+00  1.0171E-02  0.0000E+00  0.0000E+00  0.0000E+00  0.0000E+00  0.0000E+00  1.0916E-02  0.0000E+00
 25  0.0000E+00  1.7679E-02  4.8196E-02  0.0000E+00  4.4984E-02  0.0000E+00  0.0000E+00  0.0000E+00  0.0000E+00
 26  0.0000E+00  4.4297E-02  0.0000E+00  0.0000E+00  0.0000E+00  0.0000E+00  1.4782E-02  1.7438E-01  2.7004E-02
 27  0.0000E+00  1.7821E-01  1.0216E-01  1.4713E-01  4.3586E-02  0.0000E+00  6.0933E-01  5.4282E-01  4.4656E-01
 28  0.0000E+00  1.1515E-01  0.0000E+00  0.0000E+00  4.1977E-01  2.4858E-01  0.0000E+00  0.0000E+00  5.3976E-02
 29  0.0000E+00  1.7095E-01  0.0000E+00  0.0000E+00  9.9079E-01  1.0307E+00  0.0000E+00  0.0000E+00  3.6696E-01
 30  0.0000E+00  1.2274E+00  1.6665E+00  2.9289E+00  1.2172E+00  9.1488E-01  1.0926E+00  1.1535E+00  5.7288E-01
 31  0.0000E+00  7.8530E-05  0.0000E+00  0.0000E+00  0.0000E+00  0.0000E+00  0.0000E+00  0.0000E+00  0.0000E+00
 32  0.0000E+00  8.0401E-05  0.0000E+00  0.0000E+00  3.4921E-04  0.0000E+00  6.7811E-05  0.0000E+00  0.0000E+00
 33  0.0000E+00  6.0633E-04  8.9756E-04  4.3312E-05  1.1469E-03  6.5460E-05  2.3860E-04  7.7468E-04  0.0000E+00
