###################################################################
## OUTPUT of StarlightChains_v04.for    [Cid@UFSC - 01/Apr/2007] ##
###################################################################

## Some input info
NGC5927_b_1.cxt                          [arq_obs]
Base.BC03.N                              [arq_base]
NGC5927_b_1.msk                          [arq_masks]
StCv04.C11.config                        [arq_config]
   45                                    [N_base]
    0                                    [N_YAV_components = # of components with extra extinction!]
    0                                    [i_FitPowerLaw (1/0 = Yes/No)]
-9.99                                    [alpha_PowerLaw]
CCM                                      [red_law_option]
 1.458241                                [q_norm = A(l_norm)/A(V)]

## (Re)Sampling Parameters
 3359.00                                 [l_ini (A)]
 6428.00                                 [l_fin (A)]
    1.00                                 [dl    (A)]     (OBS: dl_cushion =    50.00 A)

## Normalization info
 4020.00                                 [l_norm (A) - for base]
 4010.00                                 [llow_norm (A) - window for f_obs]
 4060.00                                 [lupp_norm (A) - window for f_obs]
5.211403E-15                             [fobs_norm (in input units)]

## S/N
 4730.00                                 [llow_SN (A) - window for S/N]
 4780.00                                 [lupp_SN (A) - window for S/N]
  32.308                                 [S/N in S/N window]
  18.819                                 [S/N in norm. window]
 338.726                                 [S/N_err in S/N window]
 197.303                                 [S/N_err in norm. window]
  1.0000                                 [fscale_chi2]

## etc...
  2147483632                             [idum_orig]
  3067                                   [NOl_eff]
  1433                                   [Nl_eff]
  1634    NSIGMA                         [Ntot_cliped & clip_method]
  1181740                                [Nglobal_steps]
   7                                     [N_chains]
  16                                     [NEX0s_base = N_base in EX0s-fits]
 0   0   1      139   2.0   4.522E+02    [Clip-Bug, RC-Crash & Burn-In warning-flags, n_censored_weights, wei_nsig_threshold & wei_limit]
    11     11.118     11.118      0.000  [idt_all, wdt_TotTime, wdt_UsrTime & wdt_SysTime (sec)]

## Synthesis Results - Best model ##

 3.05127E+00                             [chi2/Nl_eff]
     2.30511                             [adev (%)]

    99.80112                             [sum-of-x (%)]
 2.93286E-14                             [Flux_tot (units of input spectrum!)]
 1.67425E-09                             [Mini_tot (???)]
 8.47559E-10                             [Mcor_tot (???)]

  -8.02                                  [v0_min  (km/s)]
  19.37                                  [vd_min  (km/s)]
 1.2879                                  [AV_min  (mag)]
 0.0000                                  [YAV_min (mag)]

# j     x_j(%)      Mini_j(%)     Mcor_j(%)     age_j(yr)     Z_j      (L/M)_j    YAV?  Mstars   component_j        a/Fe...       SSP_chi2r SSP_adev(%)   SSP_AV   SSP_x(%)
  1      5.3266     8.3926E-03    1.6579E-02    1.000000E+06  0.00400  1.114E-02    0   1.0000   age020_m42            0.0000     2.2936E+03    33.7533   4.0000    99.4351
  2      6.4324     2.7720E-03    5.4752E-03    3.160000E+06  0.00400  4.073E-02    0   0.9999   age045_m42            0.0000     5.4573E+02    11.3104   4.0000   102.2524
  3      3.2416     2.2454E-03    4.2083E-03    5.010000E+06  0.00400  2.534E-02    0   0.9488   age055_m42            0.0000     1.0743E+03    20.6424   4.0000   102.2577
  4      4.8212     6.6580E-03    1.1655E-02    1.000000E+07  0.00400  1.271E-02    0   0.8862   age070_m42            0.0000     4.5821E+02    10.6636   4.0000    95.1264
  5      0.0000     0.0000E+00    0.0000E+00    2.512000E+07  0.00400  5.070E-03    0   0.8174   age090_m42            0.0000     4.1068E+02    11.5308   3.9845    94.4292
  6      0.0000     0.0000E+00    0.0000E+00    4.000000E+07  0.00400  3.505E-03    0   0.7851   age104_m42            0.0000     3.3259E+02     9.2199   3.6441    96.9026
  7      0.0000     0.0000E+00    0.0000E+00    1.015200E+08  0.00400  2.268E-03    0   0.7207   age116_m42            0.0000     6.2025E+02     8.3479   3.5647   104.1226
  8      0.0000     0.0000E+00    0.0000E+00    2.861200E+08  0.00400  1.079E-03    0   0.6613   age125_m42            0.0000     6.2001E+02     8.3635   3.0740   105.6444
  9      0.8894     3.0750E-02    3.7642E-02    6.405400E+08  0.00400  5.077E-04    0   0.6197   age132_m42            0.0000     6.2559E+02     8.6666   2.7059   110.0464
 10      1.3005     6.4575E-02    7.6842E-02    9.047900E+08  0.00400  3.535E-04    0   0.6024   age135_m42            0.0000     4.6490E+02     7.7706   2.4560   109.5940
 11      0.0198     1.8239E-03    2.0594E-03    1.434000E+09  0.00400  1.910E-04    0   0.5716   age139_m42            0.0000     2.4510E+02     6.7826   1.9010   108.0365
 12      0.0000     0.0000E+00    0.0000E+00    2.500000E+09  0.00400  9.818E-05    0   0.5463   age150_m42            0.0000     9.6307E+01     5.6032   1.5987   103.8064
 13      3.4091     1.2683E+00    1.3098E+00    5.000000E+09  0.00400  4.718E-05    0   0.5228   age161_m42            0.0000     4.1297E+01     4.5302   1.4324   100.6728
 14     15.6330     1.2444E+01    1.2242E+01    1.100000E+10  0.00400  2.205E-05    0   0.4980   age185_m42            0.0000     2.8436E+01     5.2946   1.1450    98.4304
 15      9.6316     8.9781E+00    8.7381E+00    1.300000E+10  0.00400  1.883E-05    0   0.4927   age193_m42            0.0000     2.9348E+01     5.3090   1.1300    98.2415
 16      0.0000     0.0000E+00    0.0000E+00    1.000000E+06  0.02000  1.989E-02    0   1.0000   age020_m62            0.0000     2.2247E+03    32.8249   4.0000    99.9563
 17      0.0000     0.0000E+00    0.0000E+00    3.160000E+06  0.02000  3.772E-02    0   0.9858   age045_m62            0.0000     1.8973E+03    29.7271   4.0000   101.3911
 18      0.0000     0.0000E+00    0.0000E+00    5.010000E+06  0.02000  3.227E-02    0   0.9342   age055_m62            0.0000     8.5511E+02    17.5160   4.0000   103.0775
 19      0.0000     0.0000E+00    0.0000E+00    1.000000E+07  0.02000  1.011E-02    0   0.8751   age070_m62            0.0000     6.0179E+02    14.4324   4.0000    94.1096
 20      0.0000     0.0000E+00    0.0000E+00    2.512000E+07  0.02000  4.206E-03    0   0.8099   age090_m62            0.0000     4.9090E+02    13.0886   4.0000    92.6387
 21      0.0000     0.0000E+00    0.0000E+00    4.000000E+07  0.02000  3.373E-03    0   0.7799   age104_m62            0.0000     4.1419E+02     8.9461   3.8602    98.0157
 22      0.0000     0.0000E+00    0.0000E+00    1.015200E+08  0.02000  1.878E-03    0   0.7221   age116_m62            0.0000     6.0881E+02     7.9998   3.6231   104.5347
 23      0.0000     0.0000E+00    0.0000E+00    2.861200E+08  0.02000  8.869E-04    0   0.6700   age125_m62            0.0000     8.3940E+02     9.5451   3.0959   109.8523
 24      0.0000     0.0000E+00    0.0000E+00    6.405400E+08  0.02000  3.657E-04    0   0.6322   age132_m62            0.0000     5.8416E+02    10.0586   2.3569   113.0237
 25      0.0000     0.0000E+00    0.0000E+00    9.047900E+08  0.02000  2.312E-04    0   0.6152   age135_m62            0.0000     3.6656E+02     9.2509   1.9563   112.5444
 26      0.0000     0.0000E+00    0.0000E+00    1.434000E+09  0.02000  1.168E-04    0   0.5865   age139_m62            0.0000     1.3210E+02     7.1142   1.5242   107.3150
 27      0.0000     0.0000E+00    0.0000E+00    2.500000E+09  0.02000  5.505E-05    0   0.5610   age150_m62            0.0000     5.6772E+01     7.1220   1.1218   104.6689
 28      6.4357     4.3514E+00    4.6013E+00    5.000000E+09  0.02000  2.596E-05    0   0.5353   age161_m62            0.0000     7.2113E+01     9.1485   0.7531   104.3232
 29     11.8393     1.7777E+01    1.7919E+01    1.100000E+10  0.02000  1.169E-05    0   0.5103   age185_m62            0.0000     1.3973E+02    11.5318   0.3539   105.3693
 30     27.8113     5.0372E+01    5.0219E+01    1.300000E+10  0.02000  9.691E-06    0   0.5047   age193_m62            0.0000     1.5657E+02    11.8702   0.3058   105.4916
 31      0.0000     0.0000E+00    0.0000E+00    1.000000E+06  0.05000  2.651E-02    0   0.9998   age020_m72            0.0000     2.1682E+03    32.7969   4.0000   100.9152
 32      0.0000     0.0000E+00    0.0000E+00    3.160000E+06  0.05000  4.817E-02    0   0.9577   age045_m72            0.0000     1.4925E+03    26.3099   4.0000   103.4582
 33      0.0000     0.0000E+00    0.0000E+00    5.010000E+06  0.05000  3.101E-02    0   0.9147   age055_m72            0.0000     9.7313E+02    17.6449   4.0000   102.3465
 34      0.0000     0.0000E+00    0.0000E+00    1.000000E+07  0.05000  8.954E-03    0   0.8524   age070_m72            0.0000     1.2605E+03    23.3411   4.0000   103.3854
 35      0.0000     0.0000E+00    0.0000E+00    2.512000E+07  0.05000  4.207E-03    0   0.7902   age090_m72            0.0000     6.3608E+02    13.3290   4.0000   102.6935
 36      0.0000     0.0000E+00    0.0000E+00    4.000000E+07  0.05000  3.198E-03    0   0.7618   age104_m72            0.0000     5.1098E+02     7.1612   3.9653   101.0369
 37      0.0000     0.0000E+00    0.0000E+00    1.015200E+08  0.05000  1.716E-03    0   0.7092   age116_m72            0.0000     6.7184E+02     8.0461   3.7055   104.5002
 38      0.0000     0.0000E+00    0.0000E+00    2.861200E+08  0.05000  7.047E-04    0   0.6618   age125_m72            0.0000     7.7706E+02    10.0040   2.8617   110.1917
 39      0.0000     0.0000E+00    0.0000E+00    6.405400E+08  0.05000  2.633E-04    0   0.6253   age132_m72            0.0000     4.2800E+02     9.7662   1.9623   112.3838
 40      0.0000     0.0000E+00    0.0000E+00    9.047900E+08  0.05000  1.484E-04    0   0.6088   age135_m72            0.0000     1.8049E+02     8.7045   1.4465   107.7358
 41      0.0000     0.0000E+00    0.0000E+00    1.434000E+09  0.05000  7.827E-05    0   0.5847   age139_m72            0.0000     8.9599E+01     8.9619   1.0117   104.6430
 42      0.0000     0.0000E+00    0.0000E+00    2.500000E+09  0.05000  3.759E-05    0   0.5583   age150_m72            0.0000     8.8901E+01     9.8189   0.6692   103.8502
 43      2.3961     2.7169E+00    2.8552E+00    5.000000E+09  0.05000  1.548E-05    0   0.5320   age161_m72            0.0000     1.6297E+02    11.2382   0.2571   102.6651
 44      0.0812     2.1821E-01    2.1854E-01    1.100000E+10  0.05000  6.532E-06    0   0.5070   age185_m72            0.0000     3.0260E+02    14.6125  -0.1814   102.0702
 45      0.5322     1.7573E+00    1.7419E+00    1.300000E+10  0.05000  5.316E-06    0   0.5018   age193_m72            0.0000     3.6799E+02    15.9597  -0.3255   102.0735


## Synthesis Results - Average & Chains ##

# j      x_j: min, <> & last-chain-values for 1 ...  7 chains
  1      5.3266      4.6628      4.8432      4.7411      4.6441      4.6688      4.7311      4.7715      4.7009
  2      6.4324      5.5045      5.9944      5.7092      5.6025      5.4754      5.4425      5.5043      5.7577
  3      3.2416      2.9328      2.9715      3.0948      2.9292      2.9300      2.9974      2.9698      3.0164
  4      4.8212      4.7305      4.8826      4.7331      4.6964      4.9661      4.7326      4.8483      4.6620
  5      0.0000      0.0535      0.0000      0.0000      0.0000      0.0000      0.0000      0.0000      0.1605
  6      0.0000      0.0268      0.0000      0.0000      0.1082      0.0000      0.0000      0.0000      0.0000
  7      0.0000      0.0349      0.0000      0.0000      0.0503      0.0000      0.0000      0.0000      0.0000
  8      0.0000      0.0442      0.0000      0.1300      0.0000      0.0182      0.0000      0.0000      0.0000
  9      0.8894      0.3303      0.3685      0.3655      0.4299      0.5972      0.3271      0.7360      0.4480
 10      1.3005      0.2415      0.2160      0.2445      0.6251      0.2343      0.3612      0.5673      0.5697
 11      0.0198      0.1949      0.1859      0.4200      0.0000      0.2530      0.3935      0.6265      0.2819
 12      0.0000      0.1397      0.0933      0.2276      0.0447      0.0000      0.0000      0.0000      0.0000
 13      3.4091      7.7963      7.1903      7.6196      7.2215      7.3118      7.4828      6.0467      7.8843
 14     15.6330     14.9337     16.4005     15.0643     15.5962     14.8416     15.1294     15.1515     15.3784
 15      9.6316      4.9989      4.1933      5.3579      5.6434      6.1337      5.9544      6.5140      5.1357
 16      0.0000      0.4002      0.4149      0.3633      0.3529      0.4608      0.4057      0.3260      0.5041
 17      0.0000      0.1273      0.0000      0.3310      0.3184      0.0000      0.1107      0.4050      0.0811
 18      0.0000      0.0211      0.0000      0.0000      0.0000      0.0000      0.0000      0.0000      0.0000
 19      0.0000      0.4269      0.3657      0.3663      0.5606      0.5619      0.4189      0.3670      0.4058
 20      0.0000      0.0670      0.0000      0.0000      0.0000      0.0000      0.0000      0.0000      0.0000
 21      0.0000      0.0235      0.0000      0.0833      0.0248      0.0000      0.0949      0.0000      0.0000
 22      0.0000      0.0363      0.0000      0.0086      0.0000      0.0000      0.0000      0.0000      0.0000
 23      0.0000      0.0278      0.0000      0.0133      0.1232      0.1936      0.0000      0.0000      0.0134
 24      0.0000      0.0602      0.1252      0.0000      0.1506      0.0000      0.2241      0.0593      0.0052
 25      0.0000      0.0612      0.3570      0.0000      0.0381      0.0000      0.1009      0.0342      0.1091
 26      0.0000      0.0632      0.0000      0.0000      0.0000      0.0000      0.0000      0.0000      0.0000
 27      0.0000      0.0516      0.1001      0.0000      0.0354      0.2961      0.0000      0.0000      0.3501
 28      6.4357     10.0262      9.0336      9.2407      9.2115      9.4286      8.3313      8.7276      7.7891
 29     11.8393     11.6424     11.4008     11.7449     11.4136     11.5744     11.4984     11.6354     11.7588
 30     27.8113     26.2744     27.0204     26.0167     26.3086     26.0681     26.5876     26.8905     26.9836
 31      0.0000      0.2265      0.1084      0.1456      0.2219      0.3062      0.3979      0.1271      0.1521
 32      0.0000      0.0425      0.0000      0.0000      0.0000      0.0000      0.0238      0.0000      0.0000
 33      0.0000      0.0390      0.0000      0.0000      0.0000      0.0000      0.0000      0.0726      0.0000
 34      0.0000      0.0626      0.0000      0.0000      0.0000      0.0000      0.0000      0.0000      0.0248
 35      0.0000      0.0496      0.0554      0.0000      0.0000      0.1231      0.0773      0.1638      0.0000
 36      0.0000      0.0263      0.1143      0.0000      0.0000      0.0000      0.0000      0.0150      0.0000
 37      0.0000      0.0214      0.0000      0.0000      0.0000      0.0000      0.0000      0.0000      0.0000
 38      0.0000      0.0364      0.0000      0.1223      0.0000      0.0000      0.0204      0.0000      0.0000
 39      0.0000      0.0399      0.0511      0.0000      0.0000      0.0000      0.3267      0.0000      0.0307
 40      0.0000      0.0874      0.0000      0.0665      0.0000      0.0000      0.0000      0.0000      0.1264
 41      0.0000      0.0271      0.0000      0.0000      0.0000      0.0000      0.0000      0.0000      0.0000
 42      0.0000      0.0272      0.0000      0.0000      0.0000      0.0000      0.0038      0.0683      0.0000
 43      2.3961      1.3328      1.4042      1.4358      1.5627      1.5162      1.6595      1.4894      1.6354
 44      0.0812      0.7076      0.7438      0.8446      0.6688      0.6010      0.8070      0.5398      0.6695
 45      0.5322      1.2313      1.2329      1.3157      1.2408      1.2730      1.1927      1.1967      1.2297

# j      m_j: min, <> & last-chain-values for 1 ...  7 chains
  1  1.6579E-02  1.4633E-02  1.5103E-02  1.4844E-02  1.4552E-02  1.4659E-02  1.4768E-02  1.4872E-02  1.4650E-02
  2  5.4752E-03  4.7244E-03  5.1121E-03  4.8885E-03  4.8011E-03  4.7015E-03  4.6459E-03  4.6918E-03  4.9072E-03
  3  4.2083E-03  3.8391E-03  3.8651E-03  4.0417E-03  3.8285E-03  3.8371E-03  3.9025E-03  3.8609E-03  3.9210E-03
  4  1.1655E-02  1.1531E-02  1.1826E-02  1.1511E-02  1.1431E-02  1.2111E-02  1.1474E-02  1.1737E-02  1.1285E-02
  5  0.0000E+00  3.0132E-04  0.0000E+00  0.0000E+00  0.0000E+00  0.0000E+00  0.0000E+00  0.0000E+00  8.9857E-04
  6  0.0000E+00  2.1013E-04  0.0000E+00  0.0000E+00  8.4617E-04  0.0000E+00  0.0000E+00  0.0000E+00  0.0000E+00
  7  0.0000E+00  3.8808E-04  0.0000E+00  0.0000E+00  5.5797E-04  0.0000E+00  0.0000E+00  0.0000E+00  0.0000E+00
  8  0.0000E+00  9.4733E-04  0.0000E+00  2.7782E-03  0.0000E+00  3.8942E-04  0.0000E+00  0.0000E+00  0.0000E+00
  9  3.7642E-02  1.4096E-02  1.5625E-02  1.5562E-02  1.8316E-02  2.5495E-02  1.3885E-02  3.1192E-02  1.8985E-02
 10  7.6842E-02  1.4388E-02  1.2789E-02  1.4532E-02  3.7186E-02  1.3966E-02  2.1405E-02  3.3568E-02  3.3706E-02
 11  2.0594E-03  2.0390E-02  1.9331E-02  4.3845E-02  0.0000E+00  2.6482E-02  4.0945E-02  6.5103E-02  2.9288E-02
 12  0.0000E+00  2.7173E-02  1.8027E-02  4.4172E-02  8.6844E-03  0.0000E+00  0.0000E+00  0.0000E+00  0.0000E+00
 13  1.3098E+00  3.0203E+00  2.7678E+00  2.9449E+00  2.7933E+00  2.8338E+00  2.8832E+00  2.3264E+00  3.0331E+00
 14  1.2242E+01  1.1792E+01  1.2867E+01  1.1867E+01  1.2296E+01  1.1724E+01  1.1882E+01  1.1882E+01  1.2058E+01
 15  8.7381E+00  4.5729E+00  3.8115E+00  4.8898E+00  5.1545E+00  5.6134E+00  5.4175E+00  5.9180E+00  4.6652E+00
 16  0.0000E+00  7.0342E-04  7.2471E-04  6.3708E-04  6.1939E-04  8.1031E-04  7.0921E-04  5.6913E-04  8.7996E-04
 17  0.0000E+00  1.1627E-04  0.0000E+00  3.0170E-04  2.9045E-04  0.0000E+00  1.0061E-04  3.6753E-04  7.3549E-05
 18  0.0000E+00  2.1391E-05  0.0000E+00  0.0000E+00  0.0000E+00  0.0000E+00  0.0000E+00  0.0000E+00  0.0000E+00
 19  0.0000E+00  1.2920E-03  1.0996E-03  1.1058E-03  1.6939E-03  1.7012E-03  1.2608E-03  1.1030E-03  1.2195E-03
 20  0.0000E+00  4.5111E-04  0.0000E+00  0.0000E+00  0.0000E+00  0.0000E+00  0.0000E+00  0.0000E+00  0.0000E+00
 21  0.0000E+00  1.8988E-04  0.0000E+00  6.7145E-04  2.0056E-04  0.0000E+00  7.6321E-04  0.0000E+00  0.0000E+00
 22  0.0000E+00  4.8793E-04  0.0000E+00  1.1544E-04  0.0000E+00  0.0000E+00  0.0000E+00  0.0000E+00  0.0000E+00
 23  0.0000E+00  7.3486E-04  0.0000E+00  3.4926E-04  3.2499E-03  5.1143E-03  0.0000E+00  0.0000E+00  3.5100E-04
 24  0.0000E+00  3.6404E-03  7.5214E-03  0.0000E+00  9.0894E-03  0.0000E+00  1.3472E-02  3.5623E-03  3.1445E-04
 25  0.0000E+00  5.6936E-03  3.3001E-02  0.0000E+00  3.5434E-03  0.0000E+00  9.3341E-03  3.1619E-03  1.0076E-02
 26  0.0000E+00  1.1093E-02  0.0000E+00  0.0000E+00  0.0000E+00  0.0000E+00  0.0000E+00  0.0000E+00  0.0000E+00
 27  0.0000E+00  1.8374E-02  3.5452E-02  0.0000E+00  1.2608E-02  1.0555E-01  0.0000E+00  0.0000E+00  1.2385E-01
 28  4.6013E+00  7.2280E+00  6.4709E+00  6.6459E+00  6.6304E+00  6.8001E+00  5.9736E+00  6.2486E+00  5.5760E+00
 29  1.7919E+01  1.7768E+01  1.7289E+01  1.7882E+01  1.7392E+01  1.7672E+01  1.7453E+01  1.7636E+01  1.7820E+01
 30  5.0219E+01  4.7839E+01  4.8884E+01  4.7258E+01  4.7827E+01  4.7484E+01  4.8148E+01  4.8625E+01  4.8787E+01
 31  0.0000E+00  2.9869E-04  1.4208E-04  1.9158E-04  2.9212E-04  4.0386E-04  5.2179E-04  1.6645E-04  1.9920E-04
 32  0.0000E+00  2.9564E-05  0.0000E+00  0.0000E+00  0.0000E+00  0.0000E+00  1.6461E-05  0.0000E+00  0.0000E+00
 33  0.0000E+00  4.0260E-05  0.0000E+00  0.0000E+00  0.0000E+00  0.0000E+00  0.0000E+00  7.4334E-05  0.0000E+00
