###################################################################
## OUTPUT of StarlightChains_v04.for    [Cid@UFSC - 01/Apr/2007] ##
###################################################################

## Some input info
NGC5286_b_1.cxt                          [arq_obs]
Base.BC03.N                              [arq_base]
NGC5286_b_1.msk                          [arq_masks]
StCv04.C11.config                        [arq_config]
   45                                    [N_base]
    0                                    [N_YAV_components = # of components with extra extinction!]
    0                                    [i_FitPowerLaw (1/0 = Yes/No)]
-9.99                                    [alpha_PowerLaw]
CCM                                      [red_law_option]
 1.458241                                [q_norm = A(l_norm)/A(V)]

## (Re)Sampling Parameters
 3359.00                                 [l_ini (A)]
 6428.00                                 [l_fin (A)]
    1.00                                 [dl    (A)]     (OBS: dl_cushion =    50.00 A)

## Normalization info
 4020.00                                 [l_norm (A) - for base]
 4010.00                                 [llow_norm (A) - window for f_obs]
 4060.00                                 [lupp_norm (A) - window for f_obs]
1.497078E-14                             [fobs_norm (in input units)]

## S/N
 4730.00                                 [llow_SN (A) - window for S/N]
 4780.00                                 [lupp_SN (A) - window for S/N]
 111.377                                 [S/N in S/N window]
  94.497                                 [S/N in norm. window]
  66.783                                 [S/N_err in S/N window]
  56.662                                 [S/N_err in norm. window]
  1.0000                                 [fscale_chi2]

## etc...
  2147483637                             [idum_orig]
  3067                                   [NOl_eff]
  2018                                   [Nl_eff]
  1049    NSIGMA                         [Ntot_cliped & clip_method]
   792820                                [Nglobal_steps]
   7                                     [N_chains]
  10                                     [NEX0s_base = N_base in EX0s-fits]
 0   0   1      308   2.0   8.976E+02    [Clip-Bug, RC-Crash & Burn-In warning-flags, n_censored_weights, wei_nsig_threshold & wei_limit]
    10      9.612      9.612      0.000  [idt_all, wdt_TotTime, wdt_UsrTime & wdt_SysTime (sec)]

## Synthesis Results - Best model ##

 2.40937E+00                             [chi2/Nl_eff]
     1.89930                             [adev (%)]

   102.76436                             [sum-of-x (%)]
 5.60292E-14                             [Flux_tot (units of input spectrum!)]
 4.83155E-10                             [Mini_tot (???)]
 2.58629E-10                             [Mcor_tot (???)]

 -13.25                                  [v0_min  (km/s)]
 121.74                                  [vd_min  (km/s)]
 0.9623                                  [AV_min  (mag)]
 0.0000                                  [YAV_min (mag)]

# j     x_j(%)      Mini_j(%)     Mcor_j(%)     age_j(yr)     Z_j      (L/M)_j    YAV?  Mstars   component_j        a/Fe...       SSP_chi2r SSP_adev(%)   SSP_AV   SSP_x(%)
  1      0.0000     0.0000E+00    0.0000E+00    1.000000E+06  0.00400  1.114E-02    0   1.0000   age020_m42            0.0000     2.2263E+02    14.7288   4.0000    68.9366
  2      4.3745     1.2120E-02    2.2640E-02    3.160000E+06  0.00400  4.073E-02    0   0.9999   age045_m42            0.0000     2.9703E+01     4.2122   3.1427    88.9159
  3      0.0000     0.0000E+00    0.0000E+00    5.010000E+06  0.00400  2.534E-02    0   0.9488   age055_m42            0.0000     7.0206E+01     7.5336   3.6766    78.2217
  4     10.3914     9.2260E-02    1.5274E-01    1.000000E+07  0.00400  1.271E-02    0   0.8862   age070_m42            0.0000     5.6187E+01     7.6706   2.8676    82.7270
  5      0.0000     0.0000E+00    0.0000E+00    2.512000E+07  0.00400  5.070E-03    0   0.8174   age090_m42            0.0000     5.1723E+01     7.2055   2.7251    84.7430
  6      0.0000     0.0000E+00    0.0000E+00    4.000000E+07  0.00400  3.505E-03    0   0.7851   age104_m42            0.0000     3.6790E+01     5.3556   2.3547    89.8830
  7     30.5470     1.5199E+00    2.0463E+00    1.015200E+08  0.00400  2.268E-03    0   0.7207   age116_m42            0.0000     1.1790E+02     8.7211   1.8316   121.5616
  8      0.0000     0.0000E+00    0.0000E+00    2.861200E+08  0.00400  1.079E-03    0   0.6613   age125_m42            0.0000     1.1981E+02     9.6484   1.2935   126.2674
  9      0.0000     0.0000E+00    0.0000E+00    6.405400E+08  0.00400  5.077E-04    0   0.6197   age132_m42            0.0000     1.3856E+02    10.3409   0.8912   132.9643
 10      2.0279     6.4736E-01    7.2852E-01    9.047900E+08  0.00400  3.535E-04    0   0.6024   age135_m42            0.0000     7.3177E+01     7.9168   0.7802   125.8963
 11      0.0012     6.9036E-04    7.3719E-04    1.434000E+09  0.00400  1.910E-04    0   0.5716   age139_m42            0.0000     3.0880E+01     5.6978   0.3953   117.8759
 12     29.8682     3.4330E+01    3.5036E+01    2.500000E+09  0.00400  9.818E-05    0   0.5463   age150_m42            0.0000     2.0880E+01     3.8688   0.2889   105.4149
 13     24.2295     5.7952E+01    5.6600E+01    5.000000E+09  0.00400  4.718E-05    0   0.5228   age161_m42            0.0000     3.3613E+01     3.9424   0.2053    98.5669
 14      0.0000     0.0000E+00    0.0000E+00    1.100000E+10  0.00400  2.205E-05    0   0.4980   age185_m42            0.0000     6.6892E+01     5.2401  -0.0223    95.1392
 15      0.0000     0.0000E+00    0.0000E+00    1.300000E+10  0.00400  1.883E-05    0   0.4927   age193_m42            0.0000     7.3381E+01     5.3991  -0.0318    94.6769
 16      0.0000     0.0000E+00    0.0000E+00    1.000000E+06  0.02000  1.989E-02    0   1.0000   age020_m62            0.0000     2.1161E+02    13.9362   4.0000    69.4488
 17      0.0000     0.0000E+00    0.0000E+00    3.160000E+06  0.02000  3.772E-02    0   0.9858   age045_m62            0.0000     1.4260E+02    10.7923   4.0000    71.5835
 18      0.5783     2.0221E-03    3.5291E-03    5.010000E+06  0.02000  3.227E-02    0   0.9342   age055_m62            0.0000     4.2268E+01     5.7522   3.4642    83.5288
 19      0.0000     0.0000E+00    0.0000E+00    1.000000E+07  0.02000  1.011E-02    0   0.8751   age070_m62            0.0000     1.4434E+02    12.6221   3.0303    74.4873
 20      0.0000     0.0000E+00    0.0000E+00    2.512000E+07  0.02000  4.206E-03    0   0.8099   age090_m62            0.0000     1.1920E+02    10.5575   2.9224    76.9771
 21      0.0000     0.0000E+00    0.0000E+00    4.000000E+07  0.02000  3.373E-03    0   0.7799   age104_m62            0.0000     3.3690E+01     4.5243   2.5122    93.6941
 22      0.0000     0.0000E+00    0.0000E+00    1.015200E+08  0.02000  1.878E-03    0   0.7221   age116_m62            0.0000     8.3195E+01     6.9017   1.9490   118.2449
 23      0.0000     0.0000E+00    0.0000E+00    2.861200E+08  0.02000  8.869E-04    0   0.6700   age125_m62            0.0000     2.5328E+02    13.8612   1.0848   143.0410
 24      0.0000     0.0000E+00    0.0000E+00    6.405400E+08  0.02000  3.657E-04    0   0.6322   age132_m62            0.0000     1.4022E+02    11.6584   0.5490   139.9234
 25      0.0000     0.0000E+00    0.0000E+00    9.047900E+08  0.02000  2.312E-04    0   0.6152   age135_m62            0.0000     7.3517E+01     8.6745   0.3480   130.1627
 26      0.0000     0.0000E+00    0.0000E+00    1.434000E+09  0.02000  1.168E-04    0   0.5865   age139_m62            0.0000     3.2995E+01     5.0187   0.1757   112.2801
 27      0.0000     0.0000E+00    0.0000E+00    2.500000E+09  0.02000  5.505E-05    0   0.5610   age150_m62            0.0000     6.2199E+01     5.4656  -0.1118   105.4947
 28      0.0000     0.0000E+00    0.0000E+00    5.000000E+09  0.02000  2.596E-05    0   0.5353   age161_m62            0.0000     1.2286E+02     7.1103  -0.4210   104.4736
 29      0.0000     0.0000E+00    0.0000E+00    1.100000E+10  0.02000  1.169E-05    0   0.5103   age185_m62            0.0000     1.9769E+02     8.7635  -0.7879   106.0010
 30      0.0000     0.0000E+00    0.0000E+00    1.300000E+10  0.02000  9.691E-06    0   0.5047   age193_m62            0.0000     2.1350E+02     9.0082  -0.8316   106.1563
 31      0.0000     0.0000E+00    0.0000E+00    1.000000E+06  0.05000  2.651E-02    0   0.9998   age020_m72            0.0000     2.0244E+02    13.5078   4.0000    70.5316
 32      0.0000     0.0000E+00    0.0000E+00    3.160000E+06  0.05000  4.817E-02    0   0.9577   age045_m72            0.0000     8.7414E+01     8.2056   3.9438    75.7797
 33      0.0000     0.0000E+00    0.0000E+00    5.010000E+06  0.05000  3.101E-02    0   0.9147   age055_m72            0.0000     7.9081E+01     8.1091   3.5743    78.6223
 34      0.0000     0.0000E+00    0.0000E+00    1.000000E+07  0.05000  8.954E-03    0   0.8524   age070_m72            0.0000     9.6594E+01     8.3337   3.8337    76.8081
 35      0.0000     0.0000E+00    0.0000E+00    2.512000E+07  0.05000  4.207E-03    0   0.7902   age090_m72            0.0000     4.7861E+01     5.4379   3.2816    86.4254
 36      0.0000     0.0000E+00    0.0000E+00    4.000000E+07  0.05000  3.198E-03    0   0.7618   age104_m72            0.0000     3.6604E+01     4.4457   2.4730   106.8198
 37      0.0000     0.0000E+00    0.0000E+00    1.015200E+08  0.05000  1.716E-03    0   0.7092   age116_m72            0.0000     1.0907E+02     8.1983   1.9705   121.4078
 38      0.0000     0.0000E+00    0.0000E+00    2.861200E+08  0.05000  7.047E-04    0   0.6618   age125_m72            0.0000     2.5205E+02    14.2617   0.8669   143.9944
 39      0.0000     0.0000E+00    0.0000E+00    6.405400E+08  0.05000  2.633E-04    0   0.6253   age132_m72            0.0000     1.1222E+02    10.4678   0.2446   135.3683
 40      0.0000     0.0000E+00    0.0000E+00    9.047900E+08  0.05000  1.484E-04    0   0.6088   age135_m72            0.0000     5.5968E+01     7.0472   0.0000   117.8756
 41      0.0000     0.0000E+00    0.0000E+00    1.434000E+09  0.05000  7.827E-05    0   0.5847   age139_m72            0.0000     8.5518E+01     6.8511  -0.2563   108.3765
 42      0.0000     0.0000E+00    0.0000E+00    2.500000E+09  0.05000  3.759E-05    0   0.5583   age150_m72            0.0000     1.3526E+02     7.5776  -0.5145   104.7939
 43      0.7462     5.4393E+00    5.4059E+00    5.000000E+09  0.05000  1.548E-05    0   0.5320   age161_m72            0.0000     1.9286E+02     9.0061  -0.9287   104.5404
 44      0.0002     4.1022E-03    3.8854E-03    1.100000E+10  0.05000  6.532E-06    0   0.5070   age185_m72            0.0000     3.4148E+02    14.3730  -1.0000   102.5515
 45      0.0000     0.0000E+00    0.0000E+00    1.300000E+10  0.05000  5.316E-06    0   0.5018   age193_m72            0.0000     4.5246E+02    17.4556  -1.0000   101.4406


## Synthesis Results - Average & Chains ##

# j      x_j: min, <> & last-chain-values for 1 ...  7 chains
  1      0.0000      0.0079      0.0000      0.0000      0.0047      0.0000      0.0000      0.0000      0.0000
  2      4.3745      4.1129      4.3589      4.1707      4.2034      4.3442      4.4194      4.3491      4.7200
  3      0.0000      0.0564      0.0786      0.0000      0.0221      0.1711      0.0000      0.0000      0.0607
  4     10.3914      9.2152      9.5979      9.6013      9.8437      9.4761      9.4608      9.6887      9.8677
  5      0.0000      0.3580      0.4454      0.3104      0.3581      0.2675      0.3973      0.4338      0.0000
  6      0.0000      0.0319      0.0000      0.0000      0.0307      0.0000      0.0000      0.0000      0.0000
  7     30.5470     29.5587     29.8983     30.5153     29.7056     30.9438     29.5627     30.2231     29.8108
  8      0.0000      0.0254      0.2872      0.0009      0.0000      0.0523      0.0000      0.0000      0.0000
  9      0.0000      0.1365      0.0000      0.0000      0.0742      0.2241      0.0310      0.0529      0.1082
 10      2.0279      2.6999      2.6365      2.0122      2.3184      1.6718      2.6854      2.1390      2.9537
 11      0.0012      2.9001      2.6844      1.7722      2.5420      1.2575      2.8230      2.1026      1.7094
 12     29.8682     27.1968     27.1505     27.5731     27.4451     27.6848     27.4400     27.2014     27.4519
 13     24.2295     23.0248     22.9187     23.5350     23.0033     24.0984     22.7896     23.4683     23.1949
 14      0.0000      0.0501      0.0000      0.0000      0.0000      0.0000      0.0014      0.0000      0.0000
 15      0.0000      0.0429      0.0034      0.0983      0.0000      0.0000      0.0220      0.0000      0.0000
 16      0.0000      0.0029      0.0000      0.0000      0.0000      0.0000      0.0000      0.0000      0.0000
 17      0.0000      0.0050      0.0000      0.0000      0.0000      0.0000      0.0000      0.0000      0.0000
 18      0.5783      0.5337      0.4030      0.8504      0.5862      0.4380      0.6444      0.6029      0.4959
 19      0.0000      0.1066      0.0000      0.0000      0.0000      0.0000      0.0359      0.0950      0.0000
 20      0.0000      0.0097      0.0000      0.0000      0.0000      0.0000      0.0000      0.0000      0.0000
 21      0.0000      0.0215      0.0000      0.0036      0.0000      0.0000      0.0000      0.0000      0.0000
 22      0.0000      0.0330      0.0000      0.0000      0.0000      0.0000      0.0000      0.0000      0.0000
 23      0.0000      0.0107      0.0000      0.0000      0.0000      0.0205      0.0000      0.0000      0.0000
 24      0.0000      0.0104      0.0000      0.0000      0.0000      0.0000      0.0000      0.0000      0.0641
 25      0.0000      0.0244      0.0000      0.0000      0.1895      0.0000      0.0000      0.0131      0.0181
 26      0.0000      0.0544      0.0000      0.2511      0.0777      0.0000      0.0000      0.0000      0.0240
 27      0.0000      0.2084      0.3225      0.0000      0.0179      0.1296      0.4112      0.0505      0.0000
 28      0.0000      0.0556      0.0000      0.1948      0.0000      0.0833      0.0000      0.0000      0.0000
 29      0.0000      0.2821      0.2689      0.3111      0.2864      0.1355      0.2051      0.0258      0.2143
 30      0.0000      0.3170      0.2644      0.0092      0.2106      0.0000      0.1018      0.0763      0.1369
 31      0.0000      0.0064      0.0000      0.0000      0.0042      0.0000      0.0000      0.0000      0.0000
 32      0.0000      0.0828      0.1288      0.0373      0.0848      0.0000      0.0536      0.0000      0.0000
 33      0.0000      0.1080      0.1261      0.0000      0.0511      0.0000      0.0000      0.0000      0.1663
 34      0.0000      0.0139      0.0000      0.0000      0.0000      0.0000      0.0000      0.0000      0.0274
 35      0.0000      0.0082      0.0285      0.0000      0.0074      0.0000      0.0011      0.0000      0.0000
 36      0.0000      0.0288      0.0000      0.0000      0.0000      0.0673      0.0000      0.0000      0.0595
 37      0.0000      0.0393      0.0000      0.0000      0.1199      0.0000      0.0000      0.0000      0.0000
 38      0.0000      0.0140      0.0000      0.0008      0.0000      0.0000      0.0000      0.0046      0.0000
 39      0.0000      0.0328      0.0000      0.0618      0.1727      0.0202      0.0000      0.0001      0.0000
 40      0.0000      0.0608      0.0000      0.0000      0.0000      0.0000      0.0000      0.0803      0.0000
 41      0.0000      0.2585      0.2598      0.2007      0.1109      0.3060      0.4228      0.7567      0.3886
 42      0.0000      0.3207      0.0971      0.3090      0.6059      0.3616      0.3608      0.4995      0.3484
 43      0.7462      0.4814      0.3949      0.4907      0.6178      0.3650      0.6419      0.4629      0.5584
 44      0.0002      0.4576      0.5492      0.5059      0.1853      0.7042      0.4694      0.4703      0.5028
 45      0.0000      0.3129      0.3025      0.2475      0.2785      0.3205      0.2317      0.2725      0.1892

# j      m_j: min, <> & last-chain-values for 1 ...  7 chains
  1  0.0000E+00  1.2787E-04  0.0000E+00  0.0000E+00  7.9366E-05  0.0000E+00  0.0000E+00  0.0000E+00  0.0000E+00
  2  2.2640E-02  1.8240E-02  1.9630E-02  1.8921E-02  1.9606E-02  1.9292E-02  2.0224E-02  2.0180E-02  2.1810E-02
  3  0.0000E+00  3.8147E-04  5.3953E-04  0.0000E+00  1.5755E-04  1.1591E-03  0.0000E+00  0.0000E+00  4.2766E-04
  4  1.5274E-01  1.1607E-01  1.2276E-01  1.2371E-01  1.3041E-01  1.1952E-01  1.2296E-01  1.2768E-01  1.2950E-01
  5  0.0000E+00  1.0426E-02  1.3173E-02  9.2466E-03  1.0970E-02  7.8006E-03  1.1940E-02  1.3220E-02  0.0000E+00
  6  0.0000E+00  1.2912E-03  0.0000E+00  0.0000E+00  1.3083E-03  0.0000E+00  0.0000E+00  0.0000E+00  0.0000E+00
  7  2.0463E+00  1.6968E+00  1.7428E+00  1.7920E+00  1.7935E+00  1.7788E+00  1.7511E+00  1.8152E+00  1.7830E+00
  8  0.0000E+00  2.8144E-03  3.2291E-02  1.0430E-04  0.0000E+00  5.7985E-03  0.0000E+00  0.0000E+00  0.0000E+00
  9  0.0000E+00  3.0098E-02  0.0000E+00  0.0000E+00  1.7206E-02  4.9481E-02  7.0619E-03  1.2202E-02  2.4854E-02
 10  7.2852E-01  8.3115E-01  8.2417E-01  6.3367E-01  7.5066E-01  5.1535E-01  8.5304E-01  6.8895E-01  9.4740E-01
 11  7.3719E-04  1.5679E+00  1.4737E+00  9.8007E-01  1.4454E+00  6.8078E-01  1.5748E+00  1.1893E+00  9.6290E-01
 12  3.5036E+01  2.7337E+01  2.7713E+01  2.8353E+01  2.9016E+01  2.7866E+01  2.8461E+01  2.8607E+01  2.8751E+01
 13  5.6600E+01  4.6090E+01  4.6587E+01  4.8194E+01  4.8431E+01  4.8305E+01  4.7073E+01  4.9151E+01  4.8378E+01
 14  0.0000E+00  2.0449E-01  0.0000E+00  0.0000E+00  0.0000E+00  0.0000E+00  5.7755E-03  0.0000E+00  0.0000E+00
 15  0.0000E+00  2.0299E-01  1.6265E-02  4.7515E-01  0.0000E+00  0.0000E+00  1.0727E-01  0.0000E+00  0.0000E+00
 16  0.0000E+00  2.6017E-05  0.0000E+00  0.0000E+00  0.0000E+00  0.0000E+00  0.0000E+00  0.0000E+00  0.0000E+00
 17  0.0000E+00  2.3505E-05  0.0000E+00  0.0000E+00  0.0000E+00  0.0000E+00  0.0000E+00  0.0000E+00  0.0000E+00
 18  3.5291E-03  2.7913E-03  2.1402E-03  4.5497E-03  3.2245E-03  2.2935E-03  3.4776E-03  3.2990E-03  2.7023E-03
 19  0.0000E+00  1.6662E-03  0.0000E+00  0.0000E+00  0.0000E+00  0.0000E+00  5.7861E-04  1.5549E-03  0.0000E+00
 20  0.0000E+00  3.3821E-04  0.0000E+00  0.0000E+00  0.0000E+00  0.0000E+00  0.0000E+00  0.0000E+00  0.0000E+00
 21  0.0000E+00  8.9644E-04  0.0000E+00  1.5305E-04  0.0000E+00  0.0000E+00  0.0000E+00  0.0000E+00  0.0000E+00
 22  0.0000E+00  2.2912E-03  0.0000E+00  0.0000E+00  0.0000E+00  0.0000E+00  0.0000E+00  0.0000E+00  0.0000E+00
 23  0.0000E+00  1.4633E-03  0.0000E+00  0.0000E+00  0.0000E+00  2.8011E-03  0.0000E+00  0.0000E+00  0.0000E+00
 24  0.0000E+00  3.2463E-03  0.0000E+00  0.0000E+00  0.0000E+00  0.0000E+00  0.0000E+00  0.0000E+00  2.0863E-02
 25  0.0000E+00  1.1722E-02  0.0000E+00  0.0000E+00  9.5784E-02  0.0000E+00  0.0000E+00  6.5996E-03  9.0901E-03
 26  0.0000E+00  4.9364E-02  0.0000E+00  2.3299E-01  7.4173E-02  0.0000E+00  0.0000E+00  0.0000E+00  2.2642E-02
 27  0.0000E+00  3.8370E-01  6.0280E-01  0.0000E+00  3.4595E-02  2.3896E-01  7.8115E-01  9.7231E-02  0.0000E+00
 28  0.0000E+00  2.0692E-01  0.0000E+00  7.4223E-01  0.0000E+00  3.1088E-01  0.0000E+00  0.0000E+00  0.0000E+00
 29  0.0000E+00  2.2250E+00  2.1529E+00  2.5096E+00  2.3756E+00  1.0698E+00  1.6689E+00  2.1278E-01  1.7604E+00
 30  0.0000E+00  2.9824E+00  2.5263E+00  8.8554E-02  2.0836E+00  0.0000E+00  9.8784E-01  7.5120E-01  1.3420E+00
 31  0.0000E+00  4.3662E-05  0.0000E+00  0.0000E+00  3.0359E-05  0.0000E+00  0.0000E+00  0.0000E+00  0.0000E+00
 32  0.0000E+00  2.9729E-04  4.6973E-04  1.3688E-04  3.2035E-04  0.0000E+00  1.9855E-04  0.0000E+00  0.0000E+00
 33  0.0000E+00  5.7554E-04  6.8228E-04  0.0000E+00  2.8619E-04  0.0000E+00  0.0000E+00  0.0000E+00  9.2308E-04
