###################################################################
## OUTPUT of StarlightChains_v04.for    [Cid@UFSC - 01/Apr/2007] ##
###################################################################

## Some input info
NGC6637_a_1.cxt                          [arq_obs]
Base.BC03.N                              [arq_base]
NGC6637_a_1.msk                          [arq_masks]
StCv04.C11.config                        [arq_config]
   45                                    [N_base]
    0                                    [N_YAV_components = # of components with extra extinction!]
    0                                    [i_FitPowerLaw (1/0 = Yes/No)]
-9.99                                    [alpha_PowerLaw]
CCM                                      [red_law_option]
 1.458241                                [q_norm = A(l_norm)/A(V)]

## (Re)Sampling Parameters
 3359.00                                 [l_ini (A)]
 6428.00                                 [l_fin (A)]
    1.00                                 [dl    (A)]     (OBS: dl_cushion =    50.00 A)

## Normalization info
 4020.00                                 [l_norm (A) - for base]
 4010.00                                 [llow_norm (A) - window for f_obs]
 4060.00                                 [lupp_norm (A) - window for f_obs]
1.782031E-14                             [fobs_norm (in input units)]

## S/N
 4730.00                                 [llow_SN (A) - window for S/N]
 4780.00                                 [lupp_SN (A) - window for S/N]
  44.619                                 [S/N in S/N window]
  30.665                                 [S/N in norm. window]
  98.004                                 [S/N_err in S/N window]
  67.353                                 [S/N_err in norm. window]
  1.0000                                 [fscale_chi2]

## etc...
  2147483594                             [idum_orig]
  3067                                   [NOl_eff]
  1277                                   [Nl_eff]
  1790    NSIGMA                         [Ntot_cliped & clip_method]
   759220                                [Nglobal_steps]
   7                                     [N_chains]
  10                                     [NEX0s_base = N_base in EX0s-fits]
 0   0   1      151   2.0   8.103E+02    [Clip-Bug, RC-Crash & Burn-In warning-flags, n_censored_weights, wei_nsig_threshold & wei_limit]
    10      9.571      9.571      0.000  [idt_all, wdt_TotTime, wdt_UsrTime & wdt_SysTime (sec)]

## Synthesis Results - Best model ##

 2.59077E+00                             [chi2/Nl_eff]
     1.60899                             [adev (%)]

   100.82639                             [sum-of-x (%)]
 4.12337E-14                             [Flux_tot (units of input spectrum!)]
 1.46311E-09                             [Mini_tot (???)]
 7.35685E-10                             [Mcor_tot (???)]

   5.98                                  [v0_min  (km/s)]
  76.03                                  [vd_min  (km/s)]
 0.6185                                  [AV_min  (mag)]
 0.0000                                  [YAV_min (mag)]

# j     x_j(%)      Mini_j(%)     Mcor_j(%)     age_j(yr)     Z_j      (L/M)_j    YAV?  Mstars   component_j        a/Fe...       SSP_chi2r SSP_adev(%)   SSP_AV   SSP_x(%)
  1      1.5207     3.8156E-03    7.5884E-03    1.000000E+06  0.00400  1.114E-02    0   1.0000   age020_m42            0.0000     6.1865E+02    21.5406   4.0000    81.8715
  2      2.0078     1.3779E-03    2.7401E-03    3.160000E+06  0.00400  4.073E-02    0   0.9999   age045_m42            0.0000     1.1090E+02    10.3448   3.6268    93.9165
  3      0.0000     0.0000E+00    0.0000E+00    5.010000E+06  0.00400  2.534E-02    0   0.9488   age055_m42            0.0000     1.6646E+02    12.4541   4.0000    86.4871
  4      0.9612     2.1139E-03    3.7256E-03    1.000000E+07  0.00400  1.271E-02    0   0.8862   age070_m42            0.0000     1.5161E+02    12.8392   3.2979    89.3661
  5      0.0000     0.0000E+00    0.0000E+00    2.512000E+07  0.00400  5.070E-03    0   0.8174   age090_m42            0.0000     1.4108E+02    12.3179   3.1610    91.1416
  6      0.0000     0.0000E+00    0.0000E+00    4.000000E+07  0.00400  3.505E-03    0   0.7851   age104_m42            0.0000     1.0972E+02    10.6394   2.8123    95.3487
  7      0.0000     0.0000E+00    0.0000E+00    1.015200E+08  0.00400  2.268E-03    0   0.7207   age116_m42            0.0000     2.9696E+02    12.6258   2.5771   114.0670
  8      0.0000     0.0000E+00    0.0000E+00    2.861200E+08  0.00400  1.079E-03    0   0.6613   age125_m42            0.0000     3.0504E+02    12.6651   2.0701   117.0551
  9      0.0000     0.0000E+00    0.0000E+00    6.405400E+08  0.00400  5.077E-04    0   0.6197   age132_m42            0.0000     3.3474E+02    12.8893   1.6859   122.4283
 10      0.0000     0.0000E+00    0.0000E+00    9.047900E+08  0.00400  3.535E-04    0   0.6024   age135_m42            0.0000     2.2541E+02    10.8278   1.4849   119.9396
 11      0.0000     0.0000E+00    0.0000E+00    1.434000E+09  0.00400  1.910E-04    0   0.5716   age139_m42            0.0000     1.1297E+02     7.7341   1.0007   116.6054
 12      0.0041     1.1782E-03    1.2801E-03    2.500000E+09  0.00400  9.818E-05    0   0.5463   age150_m42            0.0000     2.8573E+01     4.0103   0.7929   108.8075
 13     35.8486     2.1238E+01    2.2082E+01    5.000000E+09  0.00400  4.718E-05    0   0.5228   age161_m42            0.0000     6.7583E+00     2.1632   0.6642   103.8034
 14     44.0236     5.5806E+01    5.5270E+01    1.100000E+10  0.00400  2.205E-05    0   0.4980   age185_m42            0.0000     6.0382E+00     2.3642   0.4068   101.3561
 15     14.2935     2.1217E+01    2.0790E+01    1.300000E+10  0.00400  1.883E-05    0   0.4927   age193_m42            0.0000     7.0796E+00     2.5748   0.3932   101.0697
 16      0.0000     0.0000E+00    0.0000E+00    1.000000E+06  0.02000  1.989E-02    0   1.0000   age020_m62            0.0000     5.8639E+02    20.8584   4.0000    82.3870
 17      0.0000     0.0000E+00    0.0000E+00    3.160000E+06  0.02000  3.772E-02    0   0.9858   age045_m62            0.0000     4.3553E+02    18.3762   4.0000    84.1872
 18      0.0000     0.0000E+00    0.0000E+00    5.010000E+06  0.02000  3.227E-02    0   0.9342   age055_m62            0.0000     1.3586E+02    11.9540   3.9187    89.2830
 19      0.0000     0.0000E+00    0.0000E+00    1.000000E+07  0.02000  1.011E-02    0   0.8751   age070_m62            0.0000     2.8342E+02    16.6617   3.3792    82.6830
 20      0.0000     0.0000E+00    0.0000E+00    2.512000E+07  0.02000  4.206E-03    0   0.8099   age090_m62            0.0000     2.2078E+02    14.8226   3.2920    84.5182
 21      0.0000     0.0000E+00    0.0000E+00    4.000000E+07  0.02000  3.373E-03    0   0.7799   age104_m62            0.0000     1.3022E+02    11.2707   2.9905    97.7927
 22      0.0000     0.0000E+00    0.0000E+00    1.015200E+08  0.02000  1.878E-03    0   0.7221   age116_m62            0.0000     2.5538E+02    12.3723   2.6415   112.8881
 23      0.0000     0.0000E+00    0.0000E+00    2.861200E+08  0.02000  8.869E-04    0   0.6700   age125_m62            0.0000     4.9139E+02    15.2030   2.0139   125.1096
 24      0.0000     0.0000E+00    0.0000E+00    6.405400E+08  0.02000  3.657E-04    0   0.6322   age132_m62            0.0000     3.3314E+02    12.7673   1.3488   127.9645
 25      0.0000     0.0000E+00    0.0000E+00    9.047900E+08  0.02000  2.312E-04    0   0.6152   age135_m62            0.0000     1.9895E+02     9.9405   1.0227   124.7363
 26      0.0000     0.0000E+00    0.0000E+00    1.434000E+09  0.02000  1.168E-04    0   0.5865   age139_m62            0.0000     5.6377E+01     5.6217   0.6984   114.4704
 27      0.0000     0.0000E+00    0.0000E+00    2.500000E+09  0.02000  5.505E-05    0   0.5610   age150_m62            0.0000     2.5228E+01     3.9161   0.3539   110.0583
 28      1.6054     1.7286E+00    1.8402E+00    5.000000E+09  0.02000  2.596E-05    0   0.5353   age161_m62            0.0000     3.9773E+01     5.4699   0.0154   110.1423
 29      0.0004     9.6356E-04    9.7788E-04    1.100000E+10  0.02000  1.169E-05    0   0.5103   age185_m62            0.0000     8.0477E+01     7.8606  -0.3789   112.5999
 30      0.0000     0.0000E+00    0.0000E+00    1.300000E+10  0.02000  9.691E-06    0   0.5047   age193_m62            0.0000     8.9419E+01     8.2675  -0.4300   113.0191
 31      0.0000     0.0000E+00    0.0000E+00    1.000000E+06  0.05000  2.651E-02    0   0.9998   age020_m72            0.0000     5.6521E+02    20.4885   4.0000    83.5589
 32      0.0000     0.0000E+00    0.0000E+00    3.160000E+06  0.05000  4.817E-02    0   0.9577   age045_m72            0.0000     2.7179E+02    15.0537   4.0000    87.4068
 33      0.5609     5.0561E-04    9.1976E-04    5.010000E+06  0.05000  3.101E-02    0   0.9147   age055_m72            0.0000     1.7647E+02    13.3602   3.9799    85.7149
 34      0.0000     0.0000E+00    0.0000E+00    1.000000E+07  0.05000  8.954E-03    0   0.8524   age070_m72            0.0000     2.1770E+02    13.4216   4.0000    87.1880
 35      0.0000     0.0000E+00    0.0000E+00    2.512000E+07  0.05000  4.207E-03    0   0.7902   age090_m72            0.0000     1.3059E+02    11.2775   3.7310    91.8122
 36      0.0000     0.0000E+00    0.0000E+00    4.000000E+07  0.05000  3.198E-03    0   0.7618   age104_m72            0.0000     1.6907E+02    10.9468   3.0711   105.7073
 37      0.0000     0.0000E+00    0.0000E+00    1.015200E+08  0.05000  1.716E-03    0   0.7092   age116_m72            0.0000     2.9520E+02    12.9596   2.6977   114.0876
 38      0.0000     0.0000E+00    0.0000E+00    2.861200E+08  0.05000  7.047E-04    0   0.6618   age125_m72            0.0000     4.7684E+02    14.8737   1.7892   126.0859
 39      0.0000     0.0000E+00    0.0000E+00    6.405400E+08  0.05000  2.633E-04    0   0.6253   age132_m72            0.0000     2.5522E+02    11.1939   0.9829   126.5725
 40      0.0000     0.0000E+00    0.0000E+00    9.047900E+08  0.05000  1.484E-04    0   0.6088   age135_m72            0.0000     9.1306E+01     7.1975   0.5843   117.3706
 41      0.0000     0.0000E+00    0.0000E+00    1.434000E+09  0.05000  7.827E-05    0   0.5847   age139_m72            0.0000     4.4135E+01     5.2166   0.2336   111.7342
 42      0.0000     0.0000E+00    0.0000E+00    2.500000E+09  0.05000  3.759E-05    0   0.5583   age150_m72            0.0000     4.5648E+01     5.9611  -0.0767   110.2246
 43      0.0000     0.0000E+00    0.0000E+00    5.000000E+09  0.05000  1.548E-05    0   0.5320   age161_m72            0.0000     7.8454E+01     7.7765  -0.5166   110.6496
 44      0.0000     0.0000E+00    0.0000E+00    1.100000E+10  0.05000  6.532E-06    0   0.5070   age185_m72            0.0000     1.4827E+02    10.3522  -0.9613   112.6288
 45      0.0000     0.0000E+00    0.0000E+00    1.300000E+10  0.05000  5.316E-06    0   0.5018   age193_m72            0.0000     1.8839E+02    10.8569  -1.0000   111.3445


## Synthesis Results - Average & Chains ##

# j      x_j: min, <> & last-chain-values for 1 ...  7 chains
  1      1.5207      1.2771      1.1514      1.2970      1.3231      1.5793      1.2124      1.3629      1.2396
  2      2.0078      0.5904      1.1014      0.7373      0.7402      0.4833      0.7895      0.8366      0.6422
  3      0.0000      0.1813      0.2286      0.0858      0.0000      0.2170      0.2370      0.1425      0.5332
  4      0.9612      0.3245      0.4453      0.2995      0.7397      0.6114      0.6061      0.3413      0.3057
  5      0.0000      0.1401      0.2621      0.2266      0.0000      0.0000      0.0812      0.0991      0.0000
  6      0.0000      0.0311      0.0000      0.0970      0.0000      0.1625      0.3084      0.0041      0.0205
  7      0.0000      0.0198      0.0000      0.0000      0.0000      0.0000      0.0000      0.0000      0.0176
  8      0.0000      0.0189      0.0000      0.0742      0.0000      0.0000      0.0000      0.0000      0.0000
  9      0.0000      0.0199      0.0000      0.0000      0.0000      0.0000      0.0000      0.0000      0.0000
 10      0.0000      0.0295      0.0000      0.0000      0.0000      0.0000      0.0000      0.0000      0.0412
 11      0.0000      0.0828      0.0000      0.0021      0.0000      0.0340      0.0000      0.0000      0.0000
 12      0.0041      0.2786      0.0000      0.1830      0.3955      0.4941      0.7429      0.0833      0.3437
 13     35.8486     37.4188     37.4672     37.7520     37.4038     38.7116     37.5499     38.6585     38.5144
 14     44.0236     38.2128     38.4206     38.4279     38.4656     38.3325     38.3781     36.9082     38.9271
 15     14.2935     17.9463     18.1101     18.2497     17.4875     17.3148     17.6117     18.3678     17.7058
 16      0.0000      0.5671      0.4946      0.6121      0.5943      0.5666      0.4605      0.4770      0.5980
 17      0.0000      0.1673      0.5061      0.1290      0.1273      0.1193      0.0000      0.3989      0.1332
 18      0.0000      0.1243      0.0393      0.0932      0.0000      0.0769      0.0000      0.0320      0.0000
 19      0.0000      0.1153      0.0000      0.0404      0.1278      0.0099      0.0329      0.0000      0.0000
 20      0.0000      0.0149      0.0000      0.0000      0.0000      0.0000      0.0000      0.0000      0.0021
 21      0.0000      0.0301      0.0000      0.0231      0.0000      0.0000      0.0000      0.0000      0.0000
 22      0.0000      0.0056      0.0000      0.0000      0.0000      0.0000      0.0000      0.0000      0.0000
 23      0.0000      0.0062      0.0000      0.0000      0.0000      0.0000      0.0000      0.0000      0.0000
 24      0.0000      0.0106      0.0000      0.0000      0.0000      0.0000      0.0000      0.0000      0.0000
 25      0.0000      0.0156      0.0000      0.0000      0.0000      0.0000      0.0000      0.0000      0.0000
 26      0.0000      0.0537      0.0213      0.0000      0.0409      0.1615      0.0283      0.0000      0.0000
 27      0.0000      0.1472      0.0000      0.0000      0.5515      0.0000      0.1612      0.0000      0.0000
 28      1.6054      0.6051      1.1262      0.7672      1.0455      0.6345      0.7378      0.0000      0.3750
 29      0.0004      0.9427      0.6947      0.9756      0.3876      0.6094      0.7399      0.9881      1.0976
 30      0.0000      0.4822      0.4100      0.0000      0.1718      0.4840      0.3906      1.2119      0.0183
 31      0.0000      0.2011      0.0000      0.0000      0.0000      0.0000      0.2232      0.0000      0.1998
 32      0.0000      0.0518      0.0000      0.0000      0.0000      0.1303      0.0000      0.0000      0.0890
 33      0.5609      0.1646      0.1381      0.5259      0.5695      0.0090      0.5791      0.4803      0.0513
 34      0.0000      0.0215      0.0000      0.0000      0.0000      0.0917      0.0000      0.0114      0.0000
 35      0.0000      0.0099      0.0000      0.0000      0.0000      0.0000      0.0000      0.0000      0.0000
 36      0.0000      0.0177      0.0000      0.0275      0.0000      0.0000      0.0753      0.0000      0.0000
 37      0.0000      0.0131      0.0000      0.0000      0.0000      0.0971      0.0000      0.0000      0.0000
 38      0.0000      0.0072      0.0000      0.0000      0.0000      0.0000      0.0001      0.0000      0.0000
 39      0.0000      0.0152      0.0309      0.0000      0.0000      0.0000      0.0000      0.0000      0.0000
 40      0.0000      0.0396      0.0000      0.0000      0.0000      0.0000      0.0000      0.0000      0.0000
 41      0.0000      0.0797      0.0385      0.0000      0.0806      0.0000      0.0000      0.0000      0.0000
 42      0.0000      0.2657      0.1994      0.3011      0.5440      0.0000      0.0000      0.5132      0.0771
 43      0.0000      0.1306      0.0142      0.0000      0.1877      0.0000      0.0000      0.0000      0.0000
 44      0.0000      0.0887      0.0089      0.0000      0.0000      0.0000      0.0167      0.0000      0.0000
 45      0.0000      0.0559      0.0368      0.0000      0.0000      0.0000      0.0000      0.0000      0.0000

# j      m_j: min, <> & last-chain-values for 1 ...  7 chains
  1  7.5884E-03  6.1920E-03  5.6175E-03  6.3691E-03  6.5562E-03  7.8037E-03  5.9831E-03  6.5879E-03  6.0833E-03
  2  2.7401E-03  7.8286E-04  1.4695E-03  9.9016E-04  1.0030E-03  6.5312E-04  1.0655E-03  1.1059E-03  8.6189E-04
  3  0.0000E+00  3.6659E-04  4.6514E-04  1.7584E-04  0.0000E+00  4.4735E-04  4.8778E-04  2.8725E-04  1.0915E-03
  4  3.7256E-03  1.2222E-03  1.6874E-03  1.1423E-03  2.8471E-03  2.3466E-03  2.3232E-03  1.2812E-03  1.1653E-03
  5  0.0000E+00  1.2201E-03  2.2961E-03  1.9983E-03  0.0000E+00  0.0000E+00  7.1961E-04  8.6050E-04  0.0000E+00
  6  0.0000E+00  3.7673E-04  0.0000E+00  1.1884E-03  0.0000E+00  2.0033E-03  3.7969E-03  4.9771E-05  2.5164E-04
  7  0.0000E+00  3.3944E-04  0.0000E+00  0.0000E+00  0.0000E+00  0.0000E+00  0.0000E+00  0.0000E+00  3.0520E-04
  8  0.0000E+00  6.2462E-04  0.0000E+00  2.4880E-03  0.0000E+00  0.0000E+00  0.0000E+00  0.0000E+00  0.0000E+00
  9  0.0000E+00  1.3149E-03  0.0000E+00  0.0000E+00  0.0000E+00  0.0000E+00  0.0000E+00  0.0000E+00  0.0000E+00
 10  0.0000E+00  2.7176E-03  0.0000E+00  0.0000E+00  0.0000E+00  0.0000E+00  0.0000E+00  0.0000E+00  3.8340E-03
 11  0.0000E+00  1.3392E-02  0.0000E+00  3.4490E-04  0.0000E+00  5.5981E-03  0.0000E+00  0.0000E+00  0.0000E+00
 12  1.2801E-03  8.3736E-02  0.0000E+00  5.5702E-02  1.2147E-01  1.5134E-01  2.2724E-01  2.4963E-02  1.0456E-01
 13  2.2082E+01  2.2396E+01  2.2564E+01  2.2885E+01  2.2878E+01  2.3613E+01  2.2874E+01  2.3066E+01  2.3332E+01
 14  5.5270E+01  4.6616E+01  4.7159E+01  4.7478E+01  4.7954E+01  4.7656E+01  4.7649E+01  4.4885E+01  4.8064E+01
 15  2.0790E+01  2.5364E+01  2.5753E+01  2.6123E+01  2.5258E+01  2.4939E+01  2.5333E+01  2.5879E+01  2.5327E+01
 16  0.0000E+00  1.5399E-03  1.3515E-03  1.6835E-03  1.6492E-03  1.5681E-03  1.2728E-03  1.2913E-03  1.6436E-03
 17  0.0000E+00  2.3622E-04  7.1885E-04  1.8441E-04  1.8366E-04  1.7164E-04  0.0000E+00  5.6141E-04  1.9031E-04
 18  0.0000E+00  1.9435E-04  6.1882E-05  1.4765E-04  0.0000E+00  1.2255E-04  0.0000E+00  4.9812E-05  0.0000E+00
 19  0.0000E+00  5.3900E-04  0.0000E+00  1.9114E-04  6.1083E-04  4.7346E-05  1.5644E-04  0.0000E+00  0.0000E+00
 20  0.0000E+00  1.5545E-04  0.0000E+00  0.0000E+00  0.0000E+00  0.0000E+00  0.0000E+00  0.0000E+00  2.1683E-05
 21  0.0000E+00  3.7543E-04  0.0000E+00  2.9205E-04  0.0000E+00  0.0000E+00  0.0000E+00  0.0000E+00  0.0000E+00
 22  0.0000E+00  1.1576E-04  0.0000E+00  0.0000E+00  0.0000E+00  0.0000E+00  0.0000E+00  0.0000E+00  0.0000E+00
 23  0.0000E+00  2.5377E-04  0.0000E+00  0.0000E+00  0.0000E+00  0.0000E+00  0.0000E+00  0.0000E+00  0.0000E+00
 24  0.0000E+00  9.8603E-04  0.0000E+00  0.0000E+00  0.0000E+00  0.0000E+00  0.0000E+00  0.0000E+00  0.0000E+00
 25  0.0000E+00  2.2444E-03  0.0000E+00  0.0000E+00  0.0000E+00  0.0000E+00  0.0000E+00  0.0000E+00  0.0000E+00
 26  0.0000E+00  1.4555E-02  5.8031E-03  0.0000E+00  1.1341E-02  4.4628E-02  7.8034E-03  0.0000E+00  0.0000E+00
 27  0.0000E+00  8.1024E-02  0.0000E+00  0.0000E+00  3.1020E-01  0.0000E+00  9.0283E-02  0.0000E+00  0.0000E+00
 28  1.8402E+00  6.7398E-01  1.2621E+00  8.6547E-01  1.1900E+00  7.2025E-01  8.3628E-01  0.0000E+00  4.2279E-01
 29  9.7788E-04  2.2227E+00  1.6481E+00  2.3298E+00  9.3387E-01  1.4643E+00  1.7755E+00  2.3225E+00  2.6194E+00
 30  0.0000E+00  1.3564E+00  1.1605E+00  0.0000E+00  4.9378E-01  1.3875E+00  1.1182E+00  3.3986E+00  5.2138E-02
 31  0.0000E+00  4.0958E-04  0.0000E+00  0.0000E+00  0.0000E+00  0.0000E+00  4.6280E-04  0.0000E+00  4.1201E-04
 32  0.0000E+00  5.5579E-05  0.0000E+00  0.0000E+00  0.0000E+00  1.4262E-04  0.0000E+00  0.0000E+00  9.6713E-05
 33  9.1976E-04  2.6228E-04  2.2138E-04  8.4861E-04  9.2722E-04  1.4533E-05  9.3897E-04  7.6282E-04  8.2789E-05
