###################################################################
## OUTPUT of StarlightChains_v04.for    [Cid@UFSC - 01/Apr/2007] ##
###################################################################

## Some input info
NGC6544_a_1.cxt                          [arq_obs]
Base.BC03.N                              [arq_base]
NGC6544_a_1.msk                          [arq_masks]
StCv04.C11.config                        [arq_config]
   45                                    [N_base]
    0                                    [N_YAV_components = # of components with extra extinction!]
    0                                    [i_FitPowerLaw (1/0 = Yes/No)]
-9.99                                    [alpha_PowerLaw]
CCM                                      [red_law_option]
 1.458241                                [q_norm = A(l_norm)/A(V)]

## (Re)Sampling Parameters
 3359.00                                 [l_ini (A)]
 6428.00                                 [l_fin (A)]
    1.00                                 [dl    (A)]     (OBS: dl_cushion =    50.00 A)

## Normalization info
 4020.00                                 [l_norm (A) - for base]
 4010.00                                 [llow_norm (A) - window for f_obs]
 4060.00                                 [lupp_norm (A) - window for f_obs]
2.994762E-15                             [fobs_norm (in input units)]

## S/N
 4730.00                                 [llow_SN (A) - window for S/N]
 4780.00                                 [lupp_SN (A) - window for S/N]
  55.157                                 [S/N in S/N window]
  29.824                                 [S/N in norm. window]
 209.596                                 [S/N_err in S/N window]
 113.332                                 [S/N_err in norm. window]
  1.0000                                 [fscale_chi2]

## etc...
  2147483600                             [idum_orig]
  3067                                   [NOl_eff]
  1470                                   [Nl_eff]
  1597    NSIGMA                         [Ntot_cliped & clip_method]
  1432480                                [Nglobal_steps]
   7                                     [N_chains]
  13                                     [NEX0s_base = N_base in EX0s-fits]
 0   1   1       75   2.0   2.769E+02    [Clip-Bug, RC-Crash & Burn-In warning-flags, n_censored_weights, wei_nsig_threshold & wei_limit]
    25     25.177     25.169      0.008  [idt_all, wdt_TotTime, wdt_UsrTime & wdt_SysTime (sec)]

## Synthesis Results - Best model ##

 3.03285E+00                             [chi2/Nl_eff]
     2.42372                             [adev (%)]

    96.02317                             [sum-of-x (%)]
 4.13902E-13                             [Flux_tot (units of input spectrum!)]
 6.66965E-09                             [Mini_tot (???)]
 3.39041E-09                             [Mcor_tot (???)]

 -25.03                                  [v0_min  (km/s)]
  52.01                                  [vd_min  (km/s)]
 3.6999                                  [AV_min  (mag)]
 0.0000                                  [YAV_min (mag)]

# j     x_j(%)      Mini_j(%)     Mcor_j(%)     age_j(yr)     Z_j      (L/M)_j    YAV?  Mstars   component_j        a/Fe...       SSP_chi2r SSP_adev(%)   SSP_AV   SSP_x(%)
  1      5.8221     3.3777E-02    6.6446E-02    1.000000E+06  0.00400  1.114E-02    0   1.0000   age020_m42            0.0000     2.5734E+03    42.4112   4.0000   112.6028
  2     11.2256     1.7812E-02    3.5036E-02    3.160000E+06  0.00400  4.073E-02    0   0.9999   age045_m42            0.0000     6.9690E+02    23.5280   4.0000   117.9193
  3     15.9813     4.0759E-02    7.6076E-02    5.010000E+06  0.00400  2.534E-02    0   0.9488   age055_m42            0.0000     1.3361E+03    31.7878   4.0000   117.2297
  4     15.5208     7.8920E-02    1.3758E-01    1.000000E+07  0.00400  1.271E-02    0   0.8862   age070_m42            0.0000     3.4019E+02    16.2483   4.0000   109.8231
  5      4.5875     5.8477E-02    9.4031E-02    2.512000E+07  0.00400  5.070E-03    0   0.8174   age090_m42            0.0000     2.2753E+02    13.5133   4.0000   108.9711
  6      0.0000     0.0000E+00    0.0000E+00    4.000000E+07  0.00400  3.505E-03    0   0.7851   age104_m42            0.0000     8.0089E+01     8.3612   4.0000   104.6258
  7      0.0000     0.0000E+00    0.0000E+00    1.015200E+08  0.00400  2.268E-03    0   0.7207   age116_m42            0.0000     3.6321E+02    16.0428   4.0000   111.4003
  8      0.0000     0.0000E+00    0.0000E+00    2.861200E+08  0.00400  1.079E-03    0   0.6613   age125_m42            0.0000     3.7224E+02    14.4415   3.7716   106.2431
  9      0.0000     0.0000E+00    0.0000E+00    6.405400E+08  0.00400  5.077E-04    0   0.6197   age132_m42            0.0000     3.8620E+02    14.5397   3.4094   110.8163
 10      0.0000     0.0000E+00    0.0000E+00    9.047900E+08  0.00400  3.535E-04    0   0.6024   age135_m42            0.0000     3.0988E+02    13.7721   3.1562   110.4512
 11      0.0000     0.0000E+00    0.0000E+00    1.434000E+09  0.00400  1.910E-04    0   0.5716   age139_m42            0.0000     2.6613E+02    13.8643   2.6091   108.8526
 12      4.4259     2.9134E+00    3.1310E+00    2.500000E+09  0.00400  9.818E-05    0   0.5463   age150_m42            0.0000     2.1280E+02    13.4268   2.2957   104.8448
 13     13.7389     1.8820E+01    1.9355E+01    5.000000E+09  0.00400  4.718E-05    0   0.5228   age161_m42            0.0000     2.0093E+02    13.0938   2.1108   101.8887
 14      2.0539     6.0198E+00    5.8974E+00    1.100000E+10  0.00400  2.205E-05    0   0.4980   age185_m42            0.0000     2.7052E+02    14.5188   1.8299    99.3955
 15      1.0953     3.7592E+00    3.6436E+00    1.300000E+10  0.00400  1.883E-05    0   0.4927   age193_m42            0.0000     2.8075E+02    14.6397   1.8110    99.2294
 16      1.0919     3.5479E-03    6.9795E-03    1.000000E+06  0.02000  1.989E-02    0   1.0000   age020_m62            0.0000     2.5062E+03    41.7385   4.0000   113.4328
 17      0.0000     0.0000E+00    0.0000E+00    3.160000E+06  0.02000  3.772E-02    0   0.9858   age045_m62            0.0000     2.2000E+03    39.3922   4.0000   115.4115
 18      0.0000     0.0000E+00    0.0000E+00    5.010000E+06  0.02000  3.227E-02    0   0.9342   age055_m62            0.0000     1.0895E+03    28.8703   4.0000   118.7844
 19     14.6701     9.3778E-02    1.6144E-01    1.000000E+07  0.02000  1.011E-02    0   0.8751   age070_m62            0.0000     4.1239E+02    16.6483   4.0000   108.0477
 20      0.0000     0.0000E+00    0.0000E+00    2.512000E+07  0.02000  4.206E-03    0   0.8099   age090_m62            0.0000     2.9567E+02    15.2096   4.0000   106.9203
 21      0.0000     0.0000E+00    0.0000E+00    4.000000E+07  0.02000  3.373E-03    0   0.7799   age104_m62            0.0000     1.9867E+02    12.0942   4.0000   110.8421
 22      0.0000     0.0000E+00    0.0000E+00    1.015200E+08  0.02000  1.878E-03    0   0.7221   age116_m62            0.0000     3.3084E+02    15.2231   4.0000   113.2854
 23      0.0000     0.0000E+00    0.0000E+00    2.861200E+08  0.02000  8.869E-04    0   0.6700   age125_m62            0.0000     5.1631E+02    15.8537   3.8109   110.5192
 24      0.0000     0.0000E+00    0.0000E+00    6.405400E+08  0.02000  3.657E-04    0   0.6322   age132_m62            0.0000     4.6169E+02    16.5382   3.1018   113.7114
 25      0.0000     0.0000E+00    0.0000E+00    9.047900E+08  0.02000  2.312E-04    0   0.6152   age135_m62            0.0000     3.6874E+02    15.6625   2.7146   113.0173
 26      0.0000     0.0000E+00    0.0000E+00    1.434000E+09  0.02000  1.168E-04    0   0.5865   age139_m62            0.0000     2.6622E+02    14.6475   2.2469   108.1770
 27      0.0000     0.0000E+00    0.0000E+00    2.500000E+09  0.02000  5.505E-05    0   0.5610   age150_m62            0.0000     2.9002E+02    15.3471   1.8426   105.5523
 28      0.0000     0.0000E+00    0.0000E+00    5.000000E+09  0.02000  2.596E-05    0   0.5353   age161_m62            0.0000     4.1731E+02    17.4183   1.4914   104.9633
 29      0.0000     0.0000E+00    0.0000E+00    1.100000E+10  0.02000  1.169E-05    0   0.5103   age185_m62            0.0000     5.8044E+02    19.5372   1.1204   105.4068
 30      0.0000     0.0000E+00    0.0000E+00    1.300000E+10  0.02000  9.691E-06    0   0.5047   age193_m62            0.0000     6.1318E+02    19.8685   1.0770   105.3672
 31      0.0000     0.0000E+00    0.0000E+00    1.000000E+06  0.05000  2.651E-02    0   0.9998   age020_m72            0.0000     2.4752E+03    41.6934   4.0000   114.7144
 32      0.0000     0.0000E+00    0.0000E+00    3.160000E+06  0.05000  4.817E-02    0   0.9577   age045_m72            0.0000     1.8020E+03    36.4025   4.0000   118.3505
 33      0.0000     0.0000E+00    0.0000E+00    5.010000E+06  0.05000  3.101E-02    0   0.9147   age055_m72            0.0000     1.1345E+03    29.4775   4.0000   117.5739
 34      0.0000     0.0000E+00    0.0000E+00    1.000000E+07  0.05000  8.954E-03    0   0.8524   age070_m72            0.0000     1.5143E+03    33.7999   4.0000   118.8907
 35      0.0000     0.0000E+00    0.0000E+00    2.512000E+07  0.05000  4.207E-03    0   0.7902   age090_m72            0.0000     7.6984E+02    24.8649   4.0000   119.0995
 36      0.0000     0.0000E+00    0.0000E+00    4.000000E+07  0.05000  3.198E-03    0   0.7618   age104_m72            0.0000     3.9910E+02    17.5512   4.0000   117.3487
 37      0.0000     0.0000E+00    0.0000E+00    1.015200E+08  0.05000  1.716E-03    0   0.7092   age116_m72            0.0000     3.9250E+02    16.8526   4.0000   115.1616
 38      0.0000     0.0000E+00    0.0000E+00    2.861200E+08  0.05000  7.047E-04    0   0.6618   age125_m72            0.0000     5.1959E+02    16.3829   3.5980   110.5352
 39      0.0000     0.0000E+00    0.0000E+00    6.405400E+08  0.05000  2.633E-04    0   0.6253   age132_m72            0.0000     4.2721E+02    16.4964   2.7214   112.5272
 40      0.0000     0.0000E+00    0.0000E+00    9.047900E+08  0.05000  1.484E-04    0   0.6088   age135_m72            0.0000     3.4477E+02    16.2668   2.1893   108.1617
 41      0.0000     0.0000E+00    0.0000E+00    1.434000E+09  0.05000  7.827E-05    0   0.5847   age139_m72            0.0000     3.6396E+02    17.0312   1.7480   105.2404
 42      0.0000     0.0000E+00    0.0000E+00    2.500000E+09  0.05000  3.759E-05    0   0.5583   age150_m72            0.0000     4.3923E+02    17.9614   1.3991   104.6779
 43      0.0000     0.0000E+00    0.0000E+00    5.000000E+09  0.05000  1.548E-05    0   0.5320   age161_m72            0.0000     5.9052E+02    19.7339   0.9765   103.3428
 44      1.0919     1.0804E+01    1.0775E+01    1.100000E+10  0.05000  6.532E-06    0   0.5070   age185_m72            0.0000     8.0743E+02    22.3823   0.6151   101.1273
 45      4.7180     5.7357E+01    5.6620E+01    1.300000E+10  0.05000  5.316E-06    0   0.5018   age193_m72            0.0000     8.9505E+02    23.3656   0.5070   100.3991


## Synthesis Results - Average & Chains ##

# j      x_j: min, <> & last-chain-values for 1 ...  7 chains
  1      5.8221      6.7417      6.6364      6.6755      6.2537      6.6026      6.7700      6.7294      6.6432
  2     11.2256     11.2822     11.1748     11.5060     10.9608     11.3596     10.9667     11.3438     11.2979
  3     15.9813     16.1051     15.9119     16.0559     16.0967     16.2938     15.9624     15.6986     15.7923
  4     15.5208     14.0981     14.2757     14.7980     14.0059     14.7343     14.5804     14.3740     13.9871
  5      4.5875      3.6991      4.4043      3.7356      3.9820      3.5794      3.4612      3.6704      3.4458
  6      0.0000      0.0793      0.0000      0.0000      0.0000      0.2711      0.0000      0.0000      0.0000
  7      0.0000      0.0882      0.1208      0.0000      0.1257      0.0000      0.0000      0.0000      0.2255
  8      0.0000      0.0423      0.0000      0.0000      0.0000      0.0918      0.0000      0.0000      0.0314
  9      0.0000      0.1202      0.0397      0.0344      0.0000      0.0033      0.1347      0.7669      0.0667
 10      0.0000      0.1059      0.1410      0.1003      0.3611      0.6725      0.3176      0.0000      0.0848
 11      0.0000      0.0324      0.0080      0.0000      0.0000      0.0000      0.0000      0.0210      0.0126
 12      4.4259      5.4691      5.2386      5.3647      5.4935      4.5838      5.4238      5.3009      5.3016
 13     13.7389     13.4931     13.3962     13.3236     13.5087     13.4915     13.4969     13.4770     13.6926
 14      2.0539      1.9490      1.9385      1.9677      1.8913      1.9891      1.9392      1.9922      1.9049
 15      1.0953      0.9078      1.1045      1.0394      0.8889      1.0628      0.8799      0.8533      0.9155
 16      1.0919      1.9330      1.9433      1.8907      1.7926      1.5872      1.9151      1.9007      1.9368
 17      0.0000      0.3223      0.3109      0.1806      0.3801      0.5184      0.1953      0.3941      0.4104
 18      0.0000      0.3769      0.2204      0.3755      0.6028      0.0000      0.5399      0.2874      0.8559
 19     14.6701     12.5156     12.7437     12.4367     13.2792     12.8746     12.8940     12.9065     12.8383
 20      0.0000      0.0788      0.0000      0.0000      0.0399      0.0000      0.0343      0.0000      0.0000
 21      0.0000      0.1190      0.0000      0.1858      0.1311      0.0447      0.2330      0.1010      0.3308
 22      0.0000      0.1243      0.1461      0.1528      0.1842      0.0863      0.2573      0.0000      0.3002
 23      0.0000      0.0417      0.0000      0.1932      0.0000      0.0436      0.0000      0.0000      0.0000
 24      0.0000      0.0120      0.0000      0.0027      0.0000      0.0000      0.0000      0.0000      0.0000
 25      0.0000      0.0115      0.0000      0.0000      0.0000      0.0020      0.0000      0.0000      0.0000
 26      0.0000      0.0065      0.0000      0.0000      0.0000      0.0104      0.0000      0.0000      0.0000
 27      0.0000      0.0061      0.0000      0.0000      0.0000      0.0000      0.0000      0.0000      0.0000
 28      0.0000      0.0061      0.0000      0.0000      0.0000      0.0000      0.0000      0.0000      0.0000
 29      0.0000      0.0054      0.0048      0.0000      0.0000      0.0000      0.0240      0.0147      0.0000
 30      0.0000      0.0084      0.0000      0.0000      0.0000      0.0967      0.0246      0.0000      0.0059
 31      0.0000      0.0223      0.0000      0.0000      0.0000      0.0000      0.0122      0.0000      0.0000
 32      0.0000      0.0388      0.0000      0.0523      0.0000      0.0000      0.0000      0.0000      0.0000
 33      0.0000      0.0417      0.0939      0.0000      0.1628      0.0201      0.0000      0.2335      0.0000
 34      0.0000      0.0190      0.0000      0.0000      0.0000      0.0000      0.0000      0.0000      0.0000
 35      0.0000      0.0191      0.0000      0.0000      0.0000      0.0020      0.0000      0.0000      0.0000
 36      0.0000      0.0492      0.0166      0.0000      0.0000      0.0000      0.0000      0.0000      0.0000
 37      0.0000      0.0950      0.1909      0.0496      0.0000      0.0210      0.0655      0.0217      0.0000
 38      0.0000      0.0163      0.0429      0.0000      0.0000      0.0000      0.0000      0.0131      0.0000
 39      0.0000      0.0091      0.0000      0.0000      0.0000      0.0000      0.0000      0.0000      0.0000
 40      0.0000      0.0061      0.0000      0.0000      0.0000      0.0000      0.0000      0.0000      0.0000
 41      0.0000      0.0037      0.0000      0.0000      0.0535      0.0000      0.0000      0.0000      0.0000
 42      0.0000      0.0046      0.0000      0.0000      0.0000      0.0000      0.0000      0.0000      0.0000
 43      0.0000      0.0059      0.0000      0.0000      0.0000      0.0000      0.0000      0.0000      0.0000
 44      1.0919      1.1881      1.2012      1.1715      1.1756      1.2197      1.1798      1.1924      1.2484
 45      4.7180      4.7428      4.7258      4.7416      4.7095      4.7703      4.7297      4.7718      4.7164

# j      m_j: min, <> & last-chain-values for 1 ...  7 chains
  1  6.6446E-02  7.6230E-02  7.4960E-02  7.5620E-02  7.1285E-02  7.3770E-02  7.6723E-02  7.5972E-02  7.4973E-02
  2  3.5036E-02  3.4888E-02  3.4519E-02  3.5646E-02  3.4169E-02  3.4710E-02  3.3989E-02  3.5024E-02  3.4870E-02
  3  7.6076E-02  7.5958E-02  7.4967E-02  7.5866E-02  7.6533E-02  7.5934E-02  7.5455E-02  7.3925E-02  7.4341E-02
  4  1.3758E-01  1.2382E-01  1.2525E-01  1.3021E-01  1.2401E-01  1.2787E-01  1.2834E-01  1.2605E-01  1.2261E-01
  5  9.4031E-02  7.5123E-02  8.9348E-02  7.6003E-02  8.1522E-02  7.1826E-02  7.0449E-02  7.4423E-02  6.9844E-02
  6  0.0000E+00  2.2387E-03  0.0000E+00  0.0000E+00  0.0000E+00  7.5570E-03  0.0000E+00  0.0000E+00  0.0000E+00
  7  0.0000E+00  3.5296E-03  4.8282E-03  0.0000E+00  5.0703E-03  0.0000E+00  0.0000E+00  0.0000E+00  9.0084E-03
  8  0.0000E+00  3.2673E-03  0.0000E+00  0.0000E+00  0.0000E+00  6.9996E-03  0.0000E+00  0.0000E+00  2.4223E-03
  9  0.0000E+00  1.8482E-02  6.0969E-03  5.2956E-03  0.0000E+00  4.9697E-04  2.0757E-02  1.1772E-01  1.0231E-02
 10  0.0000E+00  2.2729E-02  3.0236E-02  2.1559E-02  7.8137E-02  1.4264E-01  6.8335E-02  0.0000E+00  1.8159E-02
 11  0.0000E+00  1.2203E-02  2.9985E-03  0.0000E+00  0.0000E+00  0.0000E+00  0.0000E+00  7.8965E-03  4.7342E-03
 12  3.1310E+00  3.8333E+00  3.6678E+00  3.7670E+00  3.8815E+00  3.1745E+00  3.8101E+00  3.7096E+00  3.7088E+00
 13  1.9355E+01  1.8834E+01  1.8678E+01  1.8631E+01  1.9008E+01  1.8607E+01  1.8881E+01  1.8782E+01  1.9076E+01
 14  5.8974E+00  5.5446E+00  5.5088E+00  5.6082E+00  5.4240E+00  5.5915E+00  5.5292E+00  5.6588E+00  5.4089E+00
 15  3.6436E+00  2.9920E+00  3.6365E+00  3.4320E+00  2.9534E+00  3.4611E+00  2.9065E+00  2.8080E+00  3.0116E+00
 16  6.9795E-03  1.2242E-02  1.2293E-02  1.1996E-02  1.1444E-02  9.9320E-03  1.2156E-02  1.2018E-02  1.2242E-02
 17  0.0000E+00  1.0609E-03  1.0223E-03  5.9567E-04  1.2613E-03  1.6863E-03  6.4443E-04  1.2952E-03  1.3484E-03
 18  0.0000E+00  1.3743E-03  8.0295E-04  1.3720E-03  2.2161E-03  0.0000E+00  1.9731E-03  1.0463E-03  3.1151E-03
 19  1.6144E-01  1.3646E-01  1.3880E-01  1.3585E-01  1.4596E-01  1.3870E-01  1.4090E-01  1.4050E-01  1.3971E-01
 20  0.0000E+00  1.9113E-03  0.0000E+00  0.0000E+00  9.7644E-04  0.0000E+00  8.3287E-04  0.0000E+00  0.0000E+00
 21  0.0000E+00  3.4656E-03  0.0000E+00  5.4207E-03  3.8478E-03  1.2856E-03  6.8006E-03  2.9367E-03  9.6155E-03
 22  0.0000E+00  6.0196E-03  7.0702E-03  7.4160E-03  8.9948E-03  4.1309E-03  1.2492E-02  0.0000E+00  1.4512E-02
 23  0.0000E+00  3.9653E-03  0.0000E+00  1.8419E-02  0.0000E+00  4.0951E-03  0.0000E+00  0.0000E+00  0.0000E+00
 24  0.0000E+00  2.6110E-03  0.0000E+00  5.9337E-04  0.0000E+00  0.0000E+00  0.0000E+00  0.0000E+00  0.0000E+00
 25  0.0000E+00  3.8515E-03  0.0000E+00  0.0000E+00  0.0000E+00  6.6066E-04  0.0000E+00  0.0000E+00  0.0000E+00
 26  0.0000E+00  4.1032E-03  0.0000E+00  0.0000E+00  0.0000E+00  6.5162E-03  0.0000E+00  0.0000E+00  0.0000E+00
 27  0.0000E+00  7.8236E-03  0.0000E+00  0.0000E+00  0.0000E+00  0.0000E+00  0.0000E+00  0.0000E+00  0.0000E+00
 28  0.0000E+00  1.5932E-02  0.0000E+00  0.0000E+00  0.0000E+00  0.0000E+00  0.0000E+00  0.0000E+00  0.0000E+00
 29  0.0000E+00  2.9915E-02  2.6587E-02  0.0000E+00  0.0000E+00  0.0000E+00  1.3252E-01  8.0962E-02  0.0000E+00
 30  0.0000E+00  5.5417E-02  0.0000E+00  0.0000E+00  0.0000E+00  6.2660E-01  1.6199E-01  0.0000E+00  3.8653E-02
 31  0.0000E+00  1.0581E-04  0.0000E+00  0.0000E+00  0.0000E+00  0.0000E+00  5.8290E-05  0.0000E+00  0.0000E+00
 32  0.0000E+00  9.7154E-05  0.0000E+00  1.3118E-04  0.0000E+00  0.0000E+00  0.0000E+00  0.0000E+00  0.0000E+00
 33  0.0000E+00  1.5494E-04  3.4838E-04  0.0000E+00  6.0972E-04  7.3641E-05  0.0000E+00  8.6614E-04  0.0000E+00
