###################################################################
## OUTPUT of StarlightChains_v04.for    [Cid@UFSC - 01/Apr/2007] ##
###################################################################

## Some input info
NGC6441_a_2.cxt                          [arq_obs]
Base.BC03.N                              [arq_base]
NGC6441_a_2.msk                          [arq_masks]
StCv04.C11.config                        [arq_config]
   45                                    [N_base]
    0                                    [N_YAV_components = # of components with extra extinction!]
    0                                    [i_FitPowerLaw (1/0 = Yes/No)]
-9.99                                    [alpha_PowerLaw]
CCM                                      [red_law_option]
 1.458241                                [q_norm = A(l_norm)/A(V)]

## (Re)Sampling Parameters
 3359.00                                 [l_ini (A)]
 6428.00                                 [l_fin (A)]
    1.00                                 [dl    (A)]     (OBS: dl_cushion =    50.00 A)

## Normalization info
 4020.00                                 [l_norm (A) - for base]
 4010.00                                 [llow_norm (A) - window for f_obs]
 4060.00                                 [lupp_norm (A) - window for f_obs]
3.752896E-14                             [fobs_norm (in input units)]

## S/N
 4730.00                                 [llow_SN (A) - window for S/N]
 4780.00                                 [lupp_SN (A) - window for S/N]
  36.122                                 [S/N in S/N window]
  21.548                                 [S/N in norm. window]
 237.783                                 [S/N_err in S/N window]
 141.847                                 [S/N_err in norm. window]
  1.0000                                 [fscale_chi2]

## etc...
  2147483608                             [idum_orig]
  3067                                   [NOl_eff]
   689                                   [Nl_eff]
  2378    NSIGMA                         [Ntot_cliped & clip_method]
  1180480                                [Nglobal_steps]
   7                                     [N_chains]
  13                                     [NEX0s_base = N_base in EX0s-fits]
 0   0   1      159   2.0   3.244E+02    [Clip-Bug, RC-Crash & Burn-In warning-flags, n_censored_weights, wei_nsig_threshold & wei_limit]
    11     11.321     11.321      0.000  [idt_all, wdt_TotTime, wdt_UsrTime & wdt_SysTime (sec)]

## Synthesis Results - Best model ##

 2.44247E+00                             [chi2/Nl_eff]
     1.70305                             [adev (%)]

   100.22361                             [sum-of-x (%)]
 2.32578E-13                             [Flux_tot (units of input spectrum!)]
 1.03541E-08                             [Mini_tot (???)]
 5.29219E-09                             [Mcor_tot (???)]

 -12.14                                  [v0_min  (km/s)]
  35.99                                  [vd_min  (km/s)]
 1.3565                                  [AV_min  (mag)]
 0.0000                                  [YAV_min (mag)]

# j     x_j(%)      Mini_j(%)     Mcor_j(%)     age_j(yr)     Z_j      (L/M)_j    YAV?  Mstars   component_j        a/Fe...       SSP_chi2r SSP_adev(%)   SSP_AV   SSP_x(%)
  1      0.0000     0.0000E+00    0.0000E+00    1.000000E+06  0.00400  1.114E-02    0   1.0000   age020_m42            0.0000     4.3054E+03    43.6638   4.0000   101.4918
  2      2.3648     1.3012E-03    2.5456E-03    3.160000E+06  0.00400  4.073E-02    0   0.9999   age045_m42            0.0000     5.7212E+02    16.9447   4.0000   101.0553
  3      0.0000     0.0000E+00    0.0000E+00    5.010000E+06  0.00400  2.534E-02    0   0.9488   age055_m42            0.0000     1.6054E+03    28.8109   4.0000   102.9026
  4      7.0019     1.2347E-02    2.1407E-02    1.000000E+07  0.00400  1.271E-02    0   0.8862   age070_m42            0.0000     4.6901E+02    15.6061   3.9461    91.2631
  5      0.5389     2.3822E-03    3.8097E-03    2.512000E+07  0.00400  5.070E-03    0   0.8174   age090_m42            0.0000     4.2675E+02    14.9760   3.8182    92.9143
  6      0.0000     0.0000E+00    0.0000E+00    4.000000E+07  0.00400  3.505E-03    0   0.7851   age104_m42            0.0000     3.2354E+02    13.0572   3.5085    95.7890
  7      0.0000     0.0000E+00    0.0000E+00    1.015200E+08  0.00400  2.268E-03    0   0.7207   age116_m42            0.0000     5.9429E+02    13.1860   3.5373   103.6464
  8      0.0000     0.0000E+00    0.0000E+00    2.861200E+08  0.00400  1.079E-03    0   0.6613   age125_m42            0.0000     6.0343E+02    13.2637   3.0462   105.6161
  9      0.0000     0.0000E+00    0.0000E+00    6.405400E+08  0.00400  5.077E-04    0   0.6197   age132_m42            0.0000     6.0890E+02    13.5950   2.6771   110.0861
 10      0.0000     0.0000E+00    0.0000E+00    9.047900E+08  0.00400  3.535E-04    0   0.6024   age135_m42            0.0000     4.2795E+02    11.1382   2.4428   109.1484
 11      0.7999     9.3864E-02    1.0497E-01    1.434000E+09  0.00400  1.910E-04    0   0.5716   age139_m42            0.0000     2.0260E+02     7.4203   1.9431   107.1038
 12     17.3931     3.9705E+00    4.2437E+00    2.500000E+09  0.00400  9.818E-05    0   0.5463   age150_m42            0.0000     6.0775E+01     3.7866   1.6777   102.0339
 13     29.6480     1.4084E+01    1.4406E+01    5.000000E+09  0.00400  4.718E-05    0   0.5228   age161_m42            0.0000     2.0341E+01     2.5978   1.5160    98.7040
 14      2.4535     2.4938E+00    2.4298E+00    1.100000E+10  0.00400  2.205E-05    0   0.4980   age185_m42            0.0000     2.3876E+01     3.2828   1.2698    96.2717
 15      0.0000     0.0000E+00    0.0000E+00    1.300000E+10  0.00400  1.883E-05    0   0.4927   age193_m42            0.0000     2.7464E+01     3.5582   1.2534    96.1282
 16      0.0000     0.0000E+00    0.0000E+00    1.000000E+06  0.02000  1.989E-02    0   1.0000   age020_m62            0.0000     4.1143E+03    42.5698   4.0000   102.0249
 17      0.0000     0.0000E+00    0.0000E+00    3.160000E+06  0.02000  3.772E-02    0   0.9858   age045_m62            0.0000     3.3754E+03    39.6923   4.0000   103.3245
 18      2.9196     2.0278E-03    3.7062E-03    5.010000E+06  0.02000  3.227E-02    0   0.9342   age055_m62            0.0000     1.1582E+03    24.6258   4.0000   103.6012
 19      0.0000     0.0000E+00    0.0000E+00    1.000000E+07  0.02000  1.011E-02    0   0.8751   age070_m62            0.0000     7.4994E+02    19.9574   3.9918    88.1526
 20      0.0000     0.0000E+00    0.0000E+00    2.512000E+07  0.02000  4.206E-03    0   0.8099   age090_m62            0.0000     5.7866E+02    18.0133   3.9173    88.9627
 21      0.0000     0.0000E+00    0.0000E+00    4.000000E+07  0.02000  3.373E-03    0   0.7799   age104_m62            0.0000     3.5794E+02    12.9373   3.7383    97.0832
 22      0.0000     0.0000E+00    0.0000E+00    1.015200E+08  0.02000  1.878E-03    0   0.7221   age116_m62            0.0000     5.4904E+02    12.4520   3.5587   104.6250
 23      0.0000     0.0000E+00    0.0000E+00    2.861200E+08  0.02000  8.869E-04    0   0.6700   age125_m62            0.0000     8.5897E+02    16.3101   3.0587   110.9841
 24      0.2045     1.2532E-02    1.5501E-02    6.405400E+08  0.02000  3.657E-04    0   0.6322   age132_m62            0.0000     5.7481E+02    12.7074   2.3990   113.3623
 25      0.0000     0.0000E+00    0.0000E+00    9.047900E+08  0.02000  2.312E-04    0   0.6152   age135_m62            0.0000     3.3764E+02     9.3095   2.0399   111.8629
 26      0.0000     0.0000E+00    0.0000E+00    1.434000E+09  0.02000  1.168E-04    0   0.5865   age139_m62            0.0000     9.5501E+01     4.8864   1.6385   105.7732
 27      0.0000     0.0000E+00    0.0000E+00    2.500000E+09  0.02000  5.505E-05    0   0.5610   age150_m62            0.0000     4.1017E+01     3.9506   1.2839   102.5092
 28      0.0000     0.0000E+00    0.0000E+00    5.000000E+09  0.02000  2.596E-05    0   0.5353   age161_m62            0.0000     8.0495E+01     5.7497   0.9765   101.7249
 29     20.9674     4.0199E+01    4.0135E+01    1.100000E+10  0.02000  1.169E-05    0   0.5103   age185_m62            0.0000     1.8162E+02     8.2460   0.6337   102.6054
 30     14.3664     3.3225E+01    3.2808E+01    1.300000E+10  0.02000  9.691E-06    0   0.5047   age193_m62            0.0000     2.0456E+02     8.6921   0.5909   102.7672
 31      0.0000     0.0000E+00    0.0000E+00    1.000000E+06  0.05000  2.651E-02    0   0.9998   age020_m72            0.0000     4.0463E+03    42.1272   4.0000   103.2512
 32      0.0000     0.0000E+00    0.0000E+00    3.160000E+06  0.05000  4.817E-02    0   0.9577   age045_m72            0.0000     2.5246E+03    34.8719   4.0000   105.3056
 33      0.0000     0.0000E+00    0.0000E+00    5.010000E+06  0.05000  3.101E-02    0   0.9147   age055_m72            0.0000     1.3241E+03    26.9665   4.0000   102.3410
 34      0.0000     0.0000E+00    0.0000E+00    1.000000E+07  0.05000  8.954E-03    0   0.8524   age070_m72            0.0000     2.0678E+03    31.8920   4.0000   105.1211
 35      0.0000     0.0000E+00    0.0000E+00    2.512000E+07  0.05000  4.207E-03    0   0.7902   age090_m72            0.0000     7.5323E+02    20.2009   4.0000   102.9383
 36      0.0000     0.0000E+00    0.0000E+00    4.000000E+07  0.05000  3.198E-03    0   0.7618   age104_m72            0.0000     4.3521E+02    11.2975   3.9521    99.9374
 37      0.0000     0.0000E+00    0.0000E+00    1.015200E+08  0.05000  1.716E-03    0   0.7092   age116_m72            0.0000     6.1791E+02    13.2532   3.6784   104.1747
 38      0.0000     0.0000E+00    0.0000E+00    2.861200E+08  0.05000  7.047E-04    0   0.6618   age125_m72            0.0000     8.0977E+02    15.6692   2.8818   110.7620
 39      0.0000     0.0000E+00    0.0000E+00    6.405400E+08  0.05000  2.633E-04    0   0.6253   age132_m72            0.0000     4.1869E+02    10.6843   2.0554   111.9185
 40      0.0000     0.0000E+00    0.0000E+00    9.047900E+08  0.05000  1.484E-04    0   0.6088   age135_m72            0.0000     1.5670E+02     6.5877   1.5868   106.2680
 41      0.0000     0.0000E+00    0.0000E+00    1.434000E+09  0.05000  7.827E-05    0   0.5847   age139_m72            0.0000     8.6184E+01     5.4942   1.2195   102.2238
 42      0.0000     0.0000E+00    0.0000E+00    2.500000E+09  0.05000  3.759E-05    0   0.5583   age150_m72            0.0000     1.0715E+02     6.4828   0.9140   101.1288
 43      0.0000     0.0000E+00    0.0000E+00    5.000000E+09  0.05000  1.548E-05    0   0.5320   age161_m72            0.0000     2.1780E+02     8.6171   0.5465   100.0902
 44      0.8889     3.0499E+00    3.0253E+00    1.100000E+10  0.05000  6.532E-06    0   0.5070   age185_m72            0.0000     4.0825E+02    11.3855   0.1929    99.4126
 45      0.6767     2.8529E+00    2.8009E+00    1.300000E+10  0.05000  5.316E-06    0   0.5018   age193_m72            0.0000     4.9887E+02    12.5681   0.0838    99.2951


## Synthesis Results - Average & Chains ##

# j      x_j: min, <> & last-chain-values for 1 ...  7 chains
  1      0.0000      0.0463      0.0455      0.0000      0.0208      0.2664      0.0000      0.0000      0.0000
  2      2.3648      2.1426      2.1729      2.1962      2.3508      2.2570      2.0843      2.2025      2.0786
  3      0.0000      0.0250      0.1499      0.0000      0.0000      0.0000      0.0302      0.0000      0.0000
  4      7.0019      6.4865      6.6459      6.7847      6.4834      6.4677      6.5400      6.6018      6.6003
  5      0.5389      0.3803      0.3653      0.3254      0.3509      0.3469      0.4186      0.4100      0.2969
  6      0.0000      0.0649      0.0145      0.1737      0.0000      0.0000      0.1825      0.0000      0.0000
  7      0.0000      0.0445      0.0000      0.0000      0.0000      0.0875      0.0000      0.1350      0.0000
  8      0.0000      0.0410      0.1605      0.0000      0.0000      0.0000      0.0000      0.0000      0.0000
  9      0.0000      0.0616      0.0000      0.1542      0.0965      0.0000      0.3557      0.0016      0.0000
 10      0.0000      0.3389      0.3012      0.2750      0.4159      0.5253      0.2879      0.3918      0.6480
 11      0.7999      0.4245      0.8748      0.2301      0.0000      0.4605      0.6624      0.6086      0.4924
 12     17.3931     17.0686     17.4871     17.2161     17.6438     17.9587     17.1107     16.8511     16.9695
 13     29.6480     27.4989     27.3453     28.2549     28.8953     27.5869     27.6484     27.4244     27.8146
 14      2.4535      3.8450      3.4360      3.8155      2.5594      3.3884      3.8590      4.0676      3.8548
 15      0.0000      0.3308      0.2840      0.0000      0.3361      0.2723      0.1994      0.2791      0.2996
 16      0.0000      0.0101      0.0000      0.0000      0.0000      0.0000      0.0410      0.0488      0.0000
 17      0.0000      0.0176      0.0000      0.0000      0.0000      0.0000      0.0000      0.0353      0.1920
 18      2.9196      3.0018      2.9186      2.9813      3.1707      2.8555      2.9117      2.9877      2.9717
 19      0.0000      0.1928      0.2300      0.0000      0.2233      0.3468      0.2752      0.2482      0.2838
 20      0.0000      0.0152      0.1761      0.0000      0.0000      0.0000      0.0051      0.0000      0.0753
 21      0.0000      0.0383      0.0000      0.0000      0.0444      0.0114      0.0770      0.0000      0.0000
 22      0.0000      0.0621      0.0000      0.1385      0.0000      0.0000      0.0141      0.0409      0.0000
 23      0.0000      0.0692      0.0000      0.0540      0.0000      0.0000      0.0000      0.0000      0.2557
 24      0.2045      0.0540      0.0588      0.0000      0.0350      0.0000      0.0000      0.4233      0.0221
 25      0.0000      0.0556      0.0000      0.1842      0.0350      0.0000      0.0000      0.2573      0.1128
 26      0.0000      0.1178      0.1951      0.0000      0.0000      0.1507      0.0000      0.0000      0.2369
 27      0.0000      0.1103      0.0000      0.0000      0.0000      0.0000      0.0328      0.0070      0.0000
 28      0.0000      0.1003      0.0000      0.0000      0.0000      0.2058      0.0000      0.0000      0.0161
 29     20.9674     21.5364     21.4686     21.6358     21.2235     21.0719     21.7197     21.0364     21.2012
 30     14.3664     14.6389     14.7007     14.5821     14.9740     14.6479     14.7297     14.7873     14.7564
 31      0.0000      0.0191      0.0082      0.0000      0.0000      0.0000      0.0000      0.0000      0.0000
 32      0.0000      0.0517      0.0000      0.1655      0.0000      0.0000      0.0000      0.0000      0.0415
 33      0.0000      0.0449      0.0000      0.0000      0.0396      0.0000      0.0649      0.0000      0.0000
 34      0.0000      0.0225      0.0000      0.0818      0.0000      0.0000      0.0526      0.1405      0.0000
 35      0.0000      0.0299      0.0000      0.0000      0.0000      0.0000      0.0000      0.0000      0.0000
 36      0.0000      0.0139      0.0000      0.0000      0.0000      0.0000      0.0000      0.0000      0.0000
 37      0.0000      0.0392      0.0000      0.0000      0.1000      0.0000      0.0000      0.0000      0.0000
 38      0.0000      0.0474      0.0597      0.0294      0.0777      0.0229      0.0000      0.0000      0.0000
 39      0.0000      0.0450      0.0201      0.0953      0.0000      0.0742      0.1316      0.0000      0.0000
 40      0.0000      0.0928      0.0000      0.0000      0.1004      0.0000      0.0000      0.0497      0.0000
 41      0.0000      0.0791      0.0000      0.0000      0.0000      0.0000      0.0000      0.0000      0.0000
 42      0.0000      0.0556      0.1672      0.0000      0.0000      0.0919      0.0000      0.0000      0.0000
 43      0.0000      0.0796      0.0000      0.0000      0.0000      0.0809      0.0516      0.0389      0.0000
 44      0.8889      0.4968      0.5919      0.5065      0.7458      0.5309      0.4900      0.6631      0.6093
 45      0.6767      0.3268      0.3755      0.3682      0.3573      0.5340      0.3067      0.5366      0.4289

# j      m_j: min, <> & last-chain-values for 1 ...  7 chains
  1  0.0000E+00  1.8242E-04  1.7924E-04  0.0000E+00  8.1546E-05  1.0507E-03  0.0000E+00  0.0000E+00  0.0000E+00
  2  2.5456E-03  2.3084E-03  2.3425E-03  2.3689E-03  2.5255E-03  2.4346E-03  2.2420E-03  2.3574E-03  2.2336E-03
  3  0.0000E+00  4.1006E-05  2.4645E-04  0.0000E+00  0.0000E+00  0.0000E+00  4.9520E-05  0.0000E+00  0.0000E+00
  4  2.1407E-02  1.9849E-02  2.0350E-02  2.0785E-02  1.9783E-02  1.9814E-02  1.9980E-02  2.0069E-02  2.0143E-02
  5  3.8097E-03  2.6905E-03  2.5863E-03  2.3051E-03  2.4760E-03  2.4574E-03  2.9571E-03  2.8817E-03  2.0950E-03
  6  0.0000E+00  6.3840E-04  1.4231E-04  1.7098E-03  0.0000E+00  0.0000E+00  1.7916E-03  0.0000E+00  0.0000E+00
  7  0.0000E+00  6.2119E-04  0.0000E+00  0.0000E+00  0.0000E+00  1.2222E-03  0.0000E+00  1.8700E-03  0.0000E+00
  8  0.0000E+00  1.1029E-03  4.3195E-03  0.0000E+00  0.0000E+00  0.0000E+00  0.0000E+00  0.0000E+00  0.0000E+00
  9  0.0000E+00  3.2979E-03  0.0000E+00  8.2704E-03  5.1535E-03  0.0000E+00  1.9024E-02  8.4085E-05  0.0000E+00
 10  0.0000E+00  2.5342E-02  2.2544E-02  2.0589E-02  3.1019E-02  3.9333E-02  2.1500E-02  2.9111E-02  4.8337E-02
 11  1.0497E-01  5.5751E-02  1.1497E-01  3.0254E-02  0.0000E+00  6.0552E-02  8.6855E-02  7.9406E-02  6.4495E-02
 12  4.2437E+00  4.1681E+00  4.2731E+00  4.2091E+00  4.2964E+00  4.3906E+00  4.1717E+00  4.0880E+00  4.1330E+00
 13  1.4406E+01  1.3373E+01  1.3307E+01  1.3757E+01  1.4012E+01  1.3431E+01  1.3424E+01  1.3249E+01  1.3491E+01
 14  2.4298E+00  3.8111E+00  3.4079E+00  3.7863E+00  2.5296E+00  3.3625E+00  3.8188E+00  4.0053E+00  3.8107E+00
 15  0.0000E+00  3.7986E-01  3.2630E-01  0.0000E+00  3.8491E-01  3.1301E-01  2.2860E-01  3.1839E-01  3.4309E-01
 16  0.0000E+00  2.2358E-05  0.0000E+00  0.0000E+00  0.0000E+00  0.0000E+00  9.0303E-05  1.0706E-04  0.0000E+00
 17  0.0000E+00  2.0185E-05  0.0000E+00  0.0000E+00  0.0000E+00  0.0000E+00  0.0000E+00  4.0168E-05  2.1964E-04
 18  3.7062E-03  3.8138E-03  3.7105E-03  3.7922E-03  4.0169E-03  3.6321E-03  3.6933E-03  3.7710E-03  3.7655E-03
 19  0.0000E+00  7.3244E-04  8.7430E-04  0.0000E+00  8.4592E-04  1.3188E-03  1.0436E-03  9.3661E-04  1.0752E-03
 20  0.0000E+00  1.2853E-04  1.4889E-03  0.0000E+00  0.0000E+00  0.0000E+00  4.2730E-05  0.0000E+00  6.3438E-04
 21  0.0000E+00  3.8831E-04  0.0000E+00  0.0000E+00  4.4915E-04  1.1588E-04  7.7982E-04  0.0000E+00  0.0000E+00
 22  0.0000E+00  1.0475E-03  0.0000E+00  2.3407E-03  0.0000E+00  0.0000E+00  2.3727E-04  6.8568E-04  0.0000E+00
 23  0.0000E+00  2.2928E-03  0.0000E+00  1.7923E-03  0.0000E+00  0.0000E+00  0.0000E+00  0.0000E+00  8.4548E-03
 24  1.5501E-02  4.0993E-03  4.4641E-03  0.0000E+00  2.6505E-03  0.0000E+00  0.0000E+00  3.1903E-02  1.6752E-03
 25  0.0000E+00  6.4888E-03  0.0000E+00  2.1535E-02  4.0701E-03  0.0000E+00  0.0000E+00  2.9853E-02  1.3137E-02
 26  0.0000E+00  2.5957E-02  4.3033E-02  0.0000E+00  0.0000E+00  3.3240E-02  0.0000E+00  0.0000E+00  5.2076E-02
 27  0.0000E+00  4.9314E-02  0.0000E+00  0.0000E+00  0.0000E+00  0.0000E+00  1.4668E-02  3.0882E-03  0.0000E+00
 28  0.0000E+00  9.0808E-02  0.0000E+00  0.0000E+00  0.0000E+00  1.8642E-01  0.0000E+00  0.0000E+00  1.4570E-02
 29  4.0135E+01  4.1259E+01  4.1156E+01  4.1498E+01  4.0544E+01  4.0416E+01  4.1543E+01  4.0037E+01  4.0509E+01
 30  3.2808E+01  3.3459E+01  3.3621E+01  3.3368E+01  3.4127E+01  3.3518E+01  3.3612E+01  3.3576E+01  3.3638E+01
 31  0.0000E+00  3.1566E-05  1.3561E-05  0.0000E+00  0.0000E+00  0.0000E+00  0.0000E+00  0.0000E+00  0.0000E+00
 32  0.0000E+00  4.5124E-05  0.0000E+00  1.4462E-04  0.0000E+00  0.0000E+00  0.0000E+00  0.0000E+00  3.6095E-05
 33  0.0000E+00  5.8099E-05  0.0000E+00  0.0000E+00  5.1075E-05  0.0000E+00  8.3861E-05  0.0000E+00  0.0000E+00
