###################################################################
## OUTPUT of StarlightChains_v04.for    [Cid@UFSC - 01/Apr/2007] ##
###################################################################

## Some input info
NGC6528_a_1.cxt                          [arq_obs]
Base.BC03.N                              [arq_base]
NGC6528_a_1.msk                          [arq_masks]
StCv04.C11.config                        [arq_config]
   45                                    [N_base]
    0                                    [N_YAV_components = # of components with extra extinction!]
    0                                    [i_FitPowerLaw (1/0 = Yes/No)]
-9.99                                    [alpha_PowerLaw]
CCM                                      [red_law_option]
 1.458241                                [q_norm = A(l_norm)/A(V)]

## (Re)Sampling Parameters
 3359.00                                 [l_ini (A)]
 6428.00                                 [l_fin (A)]
    1.00                                 [dl    (A)]     (OBS: dl_cushion =    50.00 A)

## Normalization info
 4020.00                                 [l_norm (A) - for base]
 4010.00                                 [llow_norm (A) - window for f_obs]
 4060.00                                 [lupp_norm (A) - window for f_obs]
3.287291E-15                             [fobs_norm (in input units)]

## S/N
 4730.00                                 [llow_SN (A) - window for S/N]
 4780.00                                 [lupp_SN (A) - window for S/N]
  27.037                                 [S/N in S/N window]
  13.551                                 [S/N in norm. window]
 247.699                                 [S/N_err in S/N window]
 124.147                                 [S/N_err in norm. window]
  1.0000                                 [fscale_chi2]

## etc...
  2147483606                             [idum_orig]
  3069                                   [NOl_eff]
   677                                   [Nl_eff]
  2392    NSIGMA                         [Ntot_cliped & clip_method]
   960540                                [Nglobal_steps]
   7                                     [N_chains]
  12                                     [NEX0s_base = N_base in EX0s-fits]
 0   0   1      104   2.0   2.944E+02    [Clip-Bug, RC-Crash & Burn-In warning-flags, n_censored_weights, wei_nsig_threshold & wei_limit]
    10      9.991      9.979      0.012  [idt_all, wdt_TotTime, wdt_UsrTime & wdt_SysTime (sec)]

## Synthesis Results - Best model ##

 2.76964E+00                             [chi2/Nl_eff]
     2.40966                             [adev (%)]

   104.35464                             [sum-of-x (%)]
 2.18535E-14                             [Flux_tot (units of input spectrum!)]
 1.46392E-09                             [Mini_tot (???)]
 7.48570E-10                             [Mcor_tot (???)]

  -5.21                                  [v0_min  (km/s)]
 107.76                                  [vd_min  (km/s)]
 1.3787                                  [AV_min  (mag)]
 0.0000                                  [YAV_min (mag)]

# j     x_j(%)      Mini_j(%)     Mcor_j(%)     age_j(yr)     Z_j      (L/M)_j    YAV?  Mstars   component_j        a/Fe...       SSP_chi2r SSP_adev(%)   SSP_AV   SSP_x(%)
  1      4.5005     5.7792E-03    1.1302E-02    1.000000E+06  0.00400  1.114E-02    0   1.0000   age020_m42            0.0000     4.1023E+03    52.3931   4.0000   100.7036
  2      0.0000     0.0000E+00    0.0000E+00    3.160000E+06  0.00400  4.073E-02    0   0.9999   age045_m42            0.0000     1.4388E+03    29.3461   4.0000   110.0505
  3      0.0000     0.0000E+00    0.0000E+00    5.010000E+06  0.00400  2.534E-02    0   0.9488   age055_m42            0.0000     2.4276E+03    40.3739   4.0000   107.1501
  4      0.0000     0.0000E+00    0.0000E+00    1.000000E+07  0.00400  1.271E-02    0   0.8862   age070_m42            0.0000     1.1510E+03    25.9777   4.0000   104.1493
  5      0.0000     0.0000E+00    0.0000E+00    2.512000E+07  0.00400  5.070E-03    0   0.8174   age090_m42            0.0000     9.2843E+02    23.3911   4.0000   104.1733
  6      0.0000     0.0000E+00    0.0000E+00    4.000000E+07  0.00400  3.505E-03    0   0.7851   age104_m42            0.0000     5.5818E+02    18.0541   4.0000   102.0547
  7      0.0000     0.0000E+00    0.0000E+00    1.015200E+08  0.00400  2.268E-03    0   0.7207   age116_m42            0.0000     7.9000E+02    18.3750   4.0000   108.2202
  8      0.0000     0.0000E+00    0.0000E+00    2.861200E+08  0.00400  1.079E-03    0   0.6613   age125_m42            0.0000     7.1927E+02    18.4716   3.7465   105.8463
  9      0.0000     0.0000E+00    0.0000E+00    6.405400E+08  0.00400  5.077E-04    0   0.6197   age132_m42            0.0000     7.1712E+02    18.8834   3.3961   109.8180
 10      0.0000     0.0000E+00    0.0000E+00    9.047900E+08  0.00400  3.535E-04    0   0.6024   age135_m42            0.0000     5.4923E+02    16.3977   3.1391   109.4226
 11      0.0000     0.0000E+00    0.0000E+00    1.434000E+09  0.00400  1.910E-04    0   0.5716   age139_m42            0.0000     2.9569E+02    11.8227   2.5351   108.5272
 12      3.2946     4.8004E-01    5.1285E-01    2.500000E+09  0.00400  9.818E-05    0   0.5463   age150_m42            0.0000     1.2910E+02     7.2109   2.2017   104.8240
 13      6.7426     2.0444E+00    2.0902E+00    5.000000E+09  0.00400  4.718E-05    0   0.5228   age161_m42            0.0000     7.0372E+01     5.2859   2.0207   101.8474
 14      1.9507     1.2655E+00    1.2325E+00    1.100000E+10  0.00400  2.205E-05    0   0.4980   age185_m42            0.0000     2.8555E+01     3.7204   1.6904   100.1582
 15      0.0000     0.0000E+00    0.0000E+00    1.300000E+10  0.00400  1.883E-05    0   0.4927   age193_m42            0.0000     2.5897E+01     3.6608   1.6690   100.0637
 16      1.4611     1.0508E-03    2.0550E-03    1.000000E+06  0.02000  1.989E-02    0   1.0000   age020_m62            0.0000     3.9983E+03    51.5026   4.0000   101.6722
 17      1.1608     4.4023E-04    8.4869E-04    3.160000E+06  0.02000  3.772E-02    0   0.9858   age045_m62            0.0000     3.5950E+03    49.3153   4.0000   103.8855
 18      0.0000     0.0000E+00    0.0000E+00    5.010000E+06  0.02000  3.227E-02    0   0.9342   age055_m62            0.0000     2.0533E+03    36.5011   4.0000   109.0348
 19      0.0000     0.0000E+00    0.0000E+00    1.000000E+07  0.02000  1.011E-02    0   0.8751   age070_m62            0.0000     1.4607E+03    31.1346   4.0000   102.4451
 20      0.0000     0.0000E+00    0.0000E+00    2.512000E+07  0.02000  4.206E-03    0   0.8099   age090_m62            0.0000     1.1503E+03    28.0811   4.0000   101.9836
 21      0.0000     0.0000E+00    0.0000E+00    4.000000E+07  0.02000  3.373E-03    0   0.7799   age104_m62            0.0000     7.8933E+02    19.9799   4.0000   106.6178
 22      0.0000     0.0000E+00    0.0000E+00    1.015200E+08  0.02000  1.878E-03    0   0.7221   age116_m62            0.0000     8.1842E+02    18.0260   4.0000   109.7759
 23      0.0000     0.0000E+00    0.0000E+00    2.861200E+08  0.02000  8.869E-04    0   0.6700   age125_m62            0.0000     9.4916E+02    21.2818   3.7547   110.3049
 24      0.0000     0.0000E+00    0.0000E+00    6.405400E+08  0.02000  3.657E-04    0   0.6322   age132_m62            0.0000     6.0831E+02    16.2261   2.9571   114.7785
 25      0.0000     0.0000E+00    0.0000E+00    9.047900E+08  0.02000  2.312E-04    0   0.6152   age135_m62            0.0000     3.7744E+02    12.5616   2.5588   114.0629
 26      0.0000     0.0000E+00    0.0000E+00    1.434000E+09  0.02000  1.168E-04    0   0.5865   age139_m62            0.0000     1.4794E+02     7.4982   2.1130   108.9049
 27      0.0098     2.5570E-03    2.8053E-03    2.500000E+09  0.02000  5.505E-05    0   0.5610   age150_m62            0.0000     4.8542E+01     4.8930   1.6777   106.6477
 28     15.7887     8.7003E+00    9.1079E+00    5.000000E+09  0.02000  2.596E-05    0   0.5353   age161_m62            0.0000     1.7999E+01     4.7408   1.2579   107.2031
 29     50.2481     6.1489E+01    6.1363E+01    1.100000E+10  0.02000  1.169E-05    0   0.5103   age185_m62            0.0000     4.4316E+01     7.2841   0.8116   109.0763
 30     17.2143     2.5410E+01    2.5080E+01    1.300000E+10  0.02000  9.691E-06    0   0.5047   age193_m62            0.0000     5.4926E+01     7.8144   0.7540   109.3682
 31      1.7095     9.2247E-04    1.8036E-03    1.000000E+06  0.05000  2.651E-02    0   0.9998   age020_m72            0.0000     3.9057E+03    51.1295   4.0000   102.9277
 32      0.0000     0.0000E+00    0.0000E+00    3.160000E+06  0.05000  4.817E-02    0   0.9577   age045_m72            0.0000     3.0266E+03    45.4118   4.0000   107.0531
 33      0.0000     0.0000E+00    0.0000E+00    5.010000E+06  0.05000  3.101E-02    0   0.9147   age055_m72            0.0000     2.2448E+03    38.9732   4.0000   108.0026
 34      0.0000     0.0000E+00    0.0000E+00    1.000000E+07  0.05000  8.954E-03    0   0.8524   age070_m72            0.0000     2.6417E+03    42.6190   4.0000   108.2860
 35      0.0000     0.0000E+00    0.0000E+00    2.512000E+07  0.05000  4.207E-03    0   0.7902   age090_m72            0.0000     1.5600E+03    31.8200   4.0000   110.6153
 36      0.0000     0.0000E+00    0.0000E+00    4.000000E+07  0.05000  3.198E-03    0   0.7618   age104_m72            0.0000     9.1893E+02    18.8319   4.0000   111.4429
 37      0.0000     0.0000E+00    0.0000E+00    1.015200E+08  0.05000  1.716E-03    0   0.7092   age116_m72            0.0000     9.0952E+02    18.7659   4.0000   111.2144
 38      0.0000     0.0000E+00    0.0000E+00    2.861200E+08  0.05000  7.047E-04    0   0.6618   age125_m72            0.0000     8.6489E+02    19.9004   3.4952   111.0495
 39      0.0000     0.0000E+00    0.0000E+00    6.405400E+08  0.05000  2.633E-04    0   0.6253   age132_m72            0.0000     4.3757E+02    13.5935   2.5410   114.3087
 40      0.0000     0.0000E+00    0.0000E+00    9.047900E+08  0.05000  1.484E-04    0   0.6088   age135_m72            0.0000     1.6763E+02     8.5117   1.9956   110.0867
 41      0.0000     0.0000E+00    0.0000E+00    1.434000E+09  0.05000  7.827E-05    0   0.5847   age139_m72            0.0000     4.9075E+01     5.5520   1.5196   107.5467
 42      0.0000     0.0000E+00    0.0000E+00    2.500000E+09  0.05000  3.759E-05    0   0.5583   age150_m72            0.0000     2.1655E+01     5.1982   1.1414   107.3297
 43      0.0000     0.0000E+00    0.0000E+00    5.000000E+09  0.05000  1.548E-05    0   0.5320   age161_m72            0.0000     5.9551E+01     7.5405   0.6826   106.9061
 44      0.2738     5.9972E-01    5.9463E-01    1.100000E+10  0.05000  6.532E-06    0   0.5070   age185_m72            0.0000     1.4585E+02    10.5736   0.1715   107.4792
 45      0.0000     0.0000E+00    0.0000E+00    1.300000E+10  0.05000  5.316E-06    0   0.5018   age193_m72            0.0000     1.8834E+02    11.7752  -0.0004   107.9796


## Synthesis Results - Average & Chains ##

# j      x_j: min, <> & last-chain-values for 1 ...  7 chains
  1      4.5005      4.1789      4.2848      4.1720      4.5094      4.3379      4.0648      4.1751      4.2655
  2      0.0000      0.0663      0.1200      0.2210      0.0000      0.0182      0.0000      0.0000      0.2306
  3      0.0000      0.0465      0.0000      0.0000      0.0373      0.0000      0.0000      0.0000      0.0414
  4      0.0000      0.0489      0.0000      0.0343      0.0000      0.0000      0.0272      0.0000      0.2462
  5      0.0000      0.1166      0.1724      0.2001      0.0976      0.1826      0.0000      0.2920      0.0000
  6      0.0000      0.0743      0.0000      0.0629      0.0000      0.0000      0.1468      0.3109      0.0000
  7      0.0000      0.0425      0.3719      0.1425      0.0000      0.0000      0.0000      0.0000      0.0000
  8      0.0000      0.0818      0.0000      0.0000      0.3058      0.1607      0.0000      0.0000      0.0503
  9      0.0000      0.0464      0.0000      0.0000      0.0000      0.0571      0.0000      0.0000      0.1610
 10      0.0000      0.1142      0.3807      0.3879      0.0000      0.0000      0.0459      0.2007      0.0000
 11      0.0000      0.1256      0.0000      0.0341      0.6415      0.0696      0.0513      0.1199      0.0119
 12      3.2946      0.3132      0.0000      0.2716      0.5531      0.0000      0.1802      0.2869      1.0965
 13      6.7426      3.0561      4.3051      3.2263      3.3111      4.1048      3.2150      3.0811      3.0847
 14      1.9507      3.3590      2.5953      3.7050      3.2760      3.4255      3.5116      3.9297      3.8197
 15      0.0000      0.5083      1.0165      0.0000      0.7499      0.0000      0.8802      0.5287      0.0000
 16      1.4611      2.0699      2.0552      1.9991      1.6740      2.0546      2.0902      2.1069      2.2202
 17      1.1608      0.9377      0.9417      0.7402      1.0204      0.9437      0.7886      1.0619      0.9919
 18      0.0000      0.0739      0.0000      0.0000      0.2708      0.0928      0.3836      0.0557      0.0000
 19      0.0000      0.2347      0.4019      0.2401      0.4442      0.1942      0.2403      0.2912      0.3754
 20      0.0000      0.0439      0.0000      0.1168      0.0000      0.0000      0.2344      0.0000      0.0000
 21      0.0000      0.0314      0.1493      0.1613      0.0000      0.0194      0.0000      0.0000      0.0000
 22      0.0000      0.0538      0.1443      0.0000      0.0000      0.0000      0.0000      0.0000      0.2863
 23      0.0000      0.0479      0.0000      0.0000      0.0004      0.1984      0.1629      0.0662      0.0000
 24      0.0000      0.0727      0.0000      0.0983      0.1785      0.0000      0.1490      0.0000      0.0000
 25      0.0000      0.0834      0.0000      0.2868      0.0000      0.2025      0.2278      0.2364      0.0427
 26      0.0000      0.2102      0.0000      0.0000      0.0000      0.0000      0.3367      0.6626      0.2352
 27      0.0098      0.3411      0.0000      0.4041      0.2239      0.1914      0.0000      0.0000      0.3824
 28     15.7887     21.3491     20.2854     20.6118     20.7875     19.8909     20.2674     20.7636     18.9752
 29     50.2481     51.2657     51.9381     51.1260     51.3138     51.8142     51.0620     51.7924     52.2891
 30     17.2143     12.7793     13.3551     13.7877     12.5519     13.7443     13.7972     12.9437     13.8902
 31      1.7095      1.1075      1.1110      1.1612      1.0144      1.1580      1.1772      1.1204      0.9821
 32      0.0000      0.0274      0.0000      0.1173      0.0000      0.0000      0.1162      0.0000      0.0000
 33      0.0000      0.0676      0.0000      0.0000      0.0000      0.0230      0.1467      0.0000      0.0000
 34      0.0000      0.1303      0.0000      0.3525      0.2167      0.2454      0.0521      0.0000      0.0000
 35      0.0000      0.0268      0.0000      0.0224      0.0000      0.0000      0.0000      0.0000      0.0000
 36      0.0000      0.0280      0.0000      0.0000      0.0000      0.1320      0.0000      0.0624      0.0000
 37      0.0000      0.0701      0.0000      0.0000      0.0000      0.0561      0.0000      0.0000      0.0625
 38      0.0000      0.0415      0.0888      0.0395      0.1228      0.0183      0.1528      0.0170      0.0000
 39      0.0000      0.0658      0.0000      0.0000      0.0000      0.3837      0.0000      0.0072      0.1474
 40      0.0000      0.1055      0.1679      0.0196      0.0000      0.0000      0.3510      0.0000      0.0000
 41      0.0000      0.1410      0.0000      0.0679      0.0709      0.5664      0.0000      0.0000      0.0000
 42      0.0000      0.1890      0.0000      0.0000      0.0000      0.0000      0.0000      0.0000      0.0000
 43      0.0000      0.2090      0.4587      0.0836      0.0181      0.0250      0.0000      0.0000      0.0000
 44      0.2738      0.2539      0.0822      0.4137      0.6506      0.1541      0.4739      0.0629      0.5216
 45      0.0000      0.2246      0.0000      0.1389      0.3478      0.0000      0.0902      0.2198      0.0000

# j      m_j: min, <> & last-chain-values for 1 ...  7 chains
  1  1.1302E-02  1.0635E-02  1.0870E-02  1.0546E-02  1.1417E-02  1.1024E-02  1.0264E-02  1.0610E-02  1.0723E-02
  2  0.0000E+00  4.6150E-05  8.3288E-05  1.5276E-04  0.0000E+00  1.2651E-05  0.0000E+00  0.0000E+00  1.5852E-04
  3  0.0000E+00  4.9311E-05  0.0000E+00  0.0000E+00  3.9350E-05  0.0000E+00  0.0000E+00  0.0000E+00  4.3370E-05
  4  0.0000E+00  9.6606E-05  0.0000E+00  6.7399E-05  0.0000E+00  0.0000E+00  5.3353E-05  0.0000E+00  4.8076E-04
  5  0.0000E+00  5.3276E-04  7.8558E-04  9.0854E-04  4.4402E-04  8.3349E-04  0.0000E+00  1.3326E-03  0.0000E+00
  6  0.0000E+00  4.7200E-04  0.0000E+00  3.9661E-04  0.0000E+00  0.0000E+00  9.2489E-04  1.9717E-03  0.0000E+00
  7  0.0000E+00  3.8278E-04  3.3397E-03  1.2754E-03  0.0000E+00  0.0000E+00  0.0000E+00  0.0000E+00  0.0000E+00
  8  0.0000E+00  1.4218E-03  0.0000E+00  0.0000E+00  5.2864E-03  2.7886E-03  0.0000E+00  0.0000E+00  8.6282E-04
  9  0.0000E+00  1.6045E-03  0.0000E+00  0.0000E+00  0.0000E+00  1.9748E-03  0.0000E+00  0.0000E+00  5.5046E-03
 10  0.0000E+00  5.5163E-03  1.8337E-02  1.8615E-02  0.0000E+00  0.0000E+00  2.2011E-03  9.6834E-03  0.0000E+00
 11  0.0000E+00  1.0657E-02  0.0000E+00  2.8770E-03  5.4145E-02  5.8931E-03  4.3194E-03  1.0159E-02  9.9985E-04
 12  5.1285E-01  4.9399E-02  0.0000E+00  4.2556E-02  8.6794E-02  0.0000E+00  2.8200E-02  4.5198E-02  1.7086E-01
 13  2.0902E+00  9.6008E-01  1.3482E+00  1.0068E+00  1.0348E+00  1.2877E+00  1.0022E+00  9.6650E-01  9.5725E-01
 14  1.2325E+00  2.1507E+00  1.6566E+00  2.3564E+00  2.0868E+00  2.1902E+00  2.2310E+00  2.5125E+00  2.4159E+00
 15  0.0000E+00  3.7704E-01  7.5168E-01  0.0000E+00  5.5341E-01  0.0000E+00  6.4786E-01  3.9161E-01  0.0000E+00
 16  2.0550E-03  2.9504E-03  2.9202E-03  2.8303E-03  2.3737E-03  2.9244E-03  2.9562E-03  2.9987E-03  3.1261E-03
 17  8.4869E-04  6.9480E-04  6.9555E-04  5.4479E-04  7.5216E-04  6.9823E-04  5.7975E-04  7.8566E-04  7.2598E-04
 18  0.0000E+00  6.0690E-05  0.0000E+00  0.0000E+00  2.2112E-04  7.6015E-05  3.1240E-04  4.5658E-05  0.0000E+00
 19  0.0000E+00  5.7594E-04  9.8318E-04  5.8529E-04  1.0845E-03  4.7591E-04  5.8501E-04  7.1364E-04  9.0994E-04
 20  0.0000E+00  2.3989E-04  0.0000E+00  6.3355E-04  0.0000E+00  0.0000E+00  1.2697E-03  0.0000E+00  0.0000E+00
 21  0.0000E+00  2.0590E-04  9.7592E-04  1.0503E-03  0.0000E+00  1.2727E-04  0.0000E+00  0.0000E+00  0.0000E+00
 22  0.0000E+00  5.8636E-04  1.5684E-03  0.0000E+00  0.0000E+00  0.0000E+00  0.0000E+00  0.0000E+00  3.0830E-03
 23  0.0000E+00  1.0262E-03  0.0000E+00  0.0000E+00  8.4456E-06  4.2438E-03  3.4611E-03  1.4152E-03  0.0000E+00
 24  0.0000E+00  3.5619E-03  0.0000E+00  4.7843E-03  8.7018E-03  0.0000E+00  7.2455E-03  0.0000E+00  0.0000E+00
 25  0.0000E+00  6.2893E-03  0.0000E+00  2.1494E-02  0.0000E+00  1.5254E-02  1.7052E-02  1.7804E-02  3.1837E-03
 26  0.0000E+00  2.9920E-02  0.0000E+00  0.0000E+00  0.0000E+00  0.0000E+00  4.7555E-02  9.4191E-02  3.3072E-02
 27  2.8053E-03  9.8546E-02  0.0000E+00  1.1597E-01  6.4351E-02  5.5208E-02  0.0000E+00  0.0000E+00  1.0914E-01
 28  9.1079E+00  1.2480E+01  1.1822E+01  1.1969E+01  1.2089E+01  1.1611E+01  1.1756E+01  1.2120E+01  1.0958E+01
 29  6.1363E+01  6.3445E+01  6.4076E+01  6.2848E+01  6.3176E+01  6.4033E+01  6.2702E+01  6.4002E+01  6.3923E+01
 30  2.5080E+01  1.8868E+01  1.9657E+01  2.0221E+01  1.8437E+01  2.0264E+01  2.0213E+01  1.9083E+01  2.0258E+01
 31  1.8036E-03  1.1841E-03  1.1842E-03  1.2333E-03  1.0790E-03  1.2364E-03  1.2490E-03  1.1962E-03  1.0372E-03
 32  0.0000E+00  1.5448E-05  0.0000E+00  6.5666E-05  0.0000E+00  0.0000E+00  6.4967E-05  0.0000E+00  0.0000E+00
 33  0.0000E+00  5.6555E-05  0.0000E+00  0.0000E+00  0.0000E+00  1.9216E-05  1.2171E-04  0.0000E+00  0.0000E+00
