###################################################################
## OUTPUT of StarlightChains_v04.for    [Cid@UFSC - 01/Apr/2007] ##
###################################################################

## Some input info
NGC6752_a_1.cxt                          [arq_obs]
Base.BC03.N                              [arq_base]
NGC6752_a_1.msk                          [arq_masks]
StCv04.C11.config                        [arq_config]
   45                                    [N_base]
    0                                    [N_YAV_components = # of components with extra extinction!]
    0                                    [i_FitPowerLaw (1/0 = Yes/No)]
-9.99                                    [alpha_PowerLaw]
CCM                                      [red_law_option]
 1.458241                                [q_norm = A(l_norm)/A(V)]

## (Re)Sampling Parameters
 3359.00                                 [l_ini (A)]
 6428.00                                 [l_fin (A)]
    1.00                                 [dl    (A)]     (OBS: dl_cushion =    50.00 A)

## Normalization info
 4020.00                                 [l_norm (A) - for base]
 4010.00                                 [llow_norm (A) - window for f_obs]
 4060.00                                 [lupp_norm (A) - window for f_obs]
7.975786E-14                             [fobs_norm (in input units)]

## S/N
 4730.00                                 [llow_SN (A) - window for S/N]
 4780.00                                 [lupp_SN (A) - window for S/N]
 127.889                                 [S/N in S/N window]
 126.487                                 [S/N in norm. window]
 304.987                                 [S/N_err in S/N window]
 301.644                                 [S/N_err in norm. window]
  1.0000                                 [fscale_chi2]

## etc...
  2147483589                             [idum_orig]
  3069                                   [NOl_eff]
   847                                   [Nl_eff]
  2222    NSIGMA                         [Ntot_cliped & clip_method]
   767480                                [Nglobal_steps]
   7                                     [N_chains]
   7                                     [NEX0s_base = N_base in EX0s-fits]
 0   0   1      258   2.0   6.334E+02    [Clip-Bug, RC-Crash & Burn-In warning-flags, n_censored_weights, wei_nsig_threshold & wei_limit]
    11     10.157     10.153      0.004  [idt_all, wdt_TotTime, wdt_UsrTime & wdt_SysTime (sec)]

## Synthesis Results - Best model ##

 2.94206E+00                             [chi2/Nl_eff]
     0.59355                             [adev (%)]

   102.29115                             [sum-of-x (%)]
 1.39696E-13                             [Flux_tot (units of input spectrum!)]
 7.31012E-10                             [Mini_tot (???)]
 4.05654E-10                             [Mcor_tot (???)]

 -10.52                                  [v0_min  (km/s)]
 108.06                                  [vd_min  (km/s)]
 0.4004                                  [AV_min  (mag)]
 0.0000                                  [YAV_min (mag)]

# j     x_j(%)      Mini_j(%)     Mcor_j(%)     age_j(yr)     Z_j      (L/M)_j    YAV?  Mstars   component_j        a/Fe...       SSP_chi2r SSP_adev(%)   SSP_AV   SSP_x(%)
  1      0.0000     0.0000E+00    0.0000E+00    1.000000E+06  0.00400  1.114E-02    0   1.0000   age020_m42            0.0000     1.6562E+03    10.7120   3.3422    78.0700
  2     10.9062     5.0024E-02    9.0138E-02    3.160000E+06  0.00400  4.073E-02    0   0.9999   age045_m42            0.0000     2.9620E+02     4.7829   2.3482    93.0400
  3      0.0000     0.0000E+00    0.0000E+00    5.010000E+06  0.00400  2.534E-02    0   0.9488   age055_m42            0.0000     8.0194E+02     7.6862   2.7708    86.1850
  4      8.1211     1.1937E-01    1.9063E-01    1.000000E+07  0.00400  1.271E-02    0   0.8862   age070_m42            0.0000     6.4534E+02     7.4644   1.9778    89.9710
  5      0.0000     0.0000E+00    0.0000E+00    2.512000E+07  0.00400  5.070E-03    0   0.8174   age090_m42            0.0000     5.5583E+02     6.8979   1.8522    91.3173
  6      0.0000     0.0000E+00    0.0000E+00    4.000000E+07  0.00400  3.505E-03    0   0.7851   age104_m42            0.0000     3.1002E+02     5.0629   1.5388    94.1156
  7     16.5019     1.3593E+00    1.7654E+00    1.015200E+08  0.00400  2.268E-03    0   0.7207   age116_m42            0.0000     4.5822E+02     3.8733   1.5264   104.4374
  8      0.0000     0.0000E+00    0.0000E+00    2.861200E+08  0.00400  1.079E-03    0   0.6613   age125_m42            0.0000     5.2680E+02     4.6108   1.0479   106.0379
  9      0.0000     0.0000E+00    0.0000E+00    6.405400E+08  0.00400  5.077E-04    0   0.6197   age132_m42            0.0000     6.3410E+02     5.0030   0.6950   109.6884
 10     17.1683     9.0732E+00    9.8495E+00    9.047900E+08  0.00400  3.535E-04    0   0.6024   age135_m42            0.0000     3.5005E+02     3.9895   0.4567   108.6876
 11     10.0701     9.8497E+00    1.0146E+01    1.434000E+09  0.00400  1.910E-04    0   0.5716   age139_m42            0.0000     1.5985E+02     3.6008  -0.0732   107.0131
 12     37.4124     7.1189E+01    7.0083E+01    2.500000E+09  0.00400  9.818E-05    0   0.5463   age150_m42            0.0000     1.3945E+02     3.0865  -0.3508   102.1833
 13      2.1111     8.3593E+00    7.8754E+00    5.000000E+09  0.00400  4.718E-05    0   0.5228   age161_m42            0.0000     2.5472E+02     3.4416  -0.5171    98.6798
 14      0.0000     0.0000E+00    0.0000E+00    1.100000E+10  0.00400  2.205E-05    0   0.4980   age185_m42            0.0000     5.1533E+02     4.8330  -0.7771    96.3111
 15      0.0000     0.0000E+00    0.0000E+00    1.300000E+10  0.00400  1.883E-05    0   0.4927   age193_m42            0.0000     5.5544E+02     4.9784  -0.7933    96.0918
 16      0.0000     0.0000E+00    0.0000E+00    1.000000E+06  0.02000  1.989E-02    0   1.0000   age020_m62            0.0000     1.6577E+03    10.6766   3.3089    78.6805
 17      0.0000     0.0000E+00    0.0000E+00    3.160000E+06  0.02000  3.772E-02    0   0.9858   age045_m62            0.0000     1.4645E+03    10.0591   3.1657    80.9081
 18      0.0000     0.0000E+00    0.0000E+00    5.010000E+06  0.02000  3.227E-02    0   0.9342   age055_m62            0.0000     4.8235E+02     5.9763   2.6246    89.3419
 19      0.0000     0.0000E+00    0.0000E+00    1.000000E+07  0.02000  1.011E-02    0   0.8751   age070_m62            0.0000     1.6305E+03    11.6612   2.0207    85.3964
 20      0.0000     0.0000E+00    0.0000E+00    2.512000E+07  0.02000  4.206E-03    0   0.8099   age090_m62            0.0000     1.1799E+03     9.6006   1.9609    86.2005
 21      0.0000     0.0000E+00    0.0000E+00    4.000000E+07  0.02000  3.373E-03    0   0.7799   age104_m62            0.0000     2.2723E+02     4.4577   1.7581    95.5782
 22      0.0000     0.0000E+00    0.0000E+00    1.015200E+08  0.02000  1.878E-03    0   0.7221   age116_m62            0.0000     3.1748E+02     3.1436   1.5611   104.3368
 23      0.0000     0.0000E+00    0.0000E+00    2.861200E+08  0.02000  8.869E-04    0   0.6700   age125_m62            0.0000     1.0761E+03     6.5372   1.0527   111.0118
 24      0.0000     0.0000E+00    0.0000E+00    6.405400E+08  0.02000  3.657E-04    0   0.6322   age132_m62            0.0000     7.5972E+02     6.6010   0.3827   113.6140
 25      0.0000     0.0000E+00    0.0000E+00    9.047900E+08  0.02000  2.312E-04    0   0.6152   age135_m62            0.0000     4.2501E+02     5.5891   0.0067   112.4506
 26      0.0000     0.0000E+00    0.0000E+00    1.434000E+09  0.02000  1.168E-04    0   0.5865   age139_m62            0.0000     2.0622E+02     4.0956  -0.4133   106.3790
 27      0.0000     0.0000E+00    0.0000E+00    2.500000E+09  0.02000  5.505E-05    0   0.5610   age150_m62            0.0000     4.0565E+02     5.0458  -0.7871   103.1763
 28      0.0000     0.0000E+00    0.0000E+00    5.000000E+09  0.02000  2.596E-05    0   0.5353   age161_m62            0.0000     8.7021E+02     6.6132  -1.0000    99.8658
 29      0.0000     0.0000E+00    0.0000E+00    1.100000E+10  0.02000  1.169E-05    0   0.5103   age185_m62            0.0000     2.1237E+03    11.0615  -1.0000    91.0597
 30      0.0000     0.0000E+00    0.0000E+00    1.300000E+10  0.02000  9.691E-06    0   0.5047   age193_m62            0.0000     2.3725E+03    11.7434  -1.0000    89.9312
 31      0.0000     0.0000E+00    0.0000E+00    1.000000E+06  0.05000  2.651E-02    0   0.9998   age020_m72            0.0000     1.5431E+03    10.0955   3.3148    79.4872
 32      0.0000     0.0000E+00    0.0000E+00    3.160000E+06  0.05000  4.817E-02    0   0.9577   age045_m72            0.0000     1.0005E+03     8.1037   3.0193    84.4092
 33      0.0000     0.0000E+00    0.0000E+00    5.010000E+06  0.05000  3.101E-02    0   0.9147   age055_m72            0.0000     9.0315E+02     8.0282   2.6570    86.9897
 34      0.0000     0.0000E+00    0.0000E+00    1.000000E+07  0.05000  8.954E-03    0   0.8524   age070_m72            0.0000     9.7241E+02     8.0199   2.9092    85.2836
 35      0.0000     0.0000E+00    0.0000E+00    2.512000E+07  0.05000  4.207E-03    0   0.7902   age090_m72            0.0000     4.0657E+02     5.2827   2.4656    91.1068
 36      0.0000     0.0000E+00    0.0000E+00    4.000000E+07  0.05000  3.198E-03    0   0.7618   age104_m72            0.0000     1.3282E+02     2.3496   1.9358    99.8538
 37      0.0000     0.0000E+00    0.0000E+00    1.015200E+08  0.05000  1.716E-03    0   0.7092   age116_m72            0.0000     4.3900E+02     3.8027   1.6444   104.7048
 38      0.0000     0.0000E+00    0.0000E+00    2.861200E+08  0.05000  7.047E-04    0   0.6618   age125_m72            0.0000     1.0817E+03     7.0164   0.8395   111.5586
 39      0.0000     0.0000E+00    0.0000E+00    6.405400E+08  0.05000  2.633E-04    0   0.6253   age132_m72            0.0000     6.0323E+02     6.4161  -0.0083   113.1877
 40      0.0000     0.0000E+00    0.0000E+00    9.047900E+08  0.05000  1.484E-04    0   0.6088   age135_m72            0.0000     3.3818E+02     5.4347  -0.4908   107.6846
 41      0.0000     0.0000E+00    0.0000E+00    1.434000E+09  0.05000  7.827E-05    0   0.5847   age139_m72            0.0000     5.4801E+02     6.2650  -0.8840   103.9555
 42      0.0000     0.0000E+00    0.0000E+00    2.500000E+09  0.05000  3.759E-05    0   0.5583   age150_m72            0.0000     1.0295E+03     7.4591  -1.0000    97.5093
 43      0.0000     0.0000E+00    0.0000E+00    5.000000E+09  0.05000  1.548E-05    0   0.5320   age161_m72            0.0000     2.6626E+03    12.8066  -1.0000    85.7532
 44      0.0000     0.0000E+00    0.0000E+00    1.100000E+10  0.05000  6.532E-06    0   0.5070   age185_m72            0.0000     5.0906E+03    17.5065  -1.0000    75.1849
 45      0.0000     0.0000E+00    0.0000E+00    1.300000E+10  0.05000  5.316E-06    0   0.5018   age193_m72            0.0000     5.9926E+03    18.8080  -1.0000    72.0928


## Synthesis Results - Average & Chains ##

# j      x_j: min, <> & last-chain-values for 1 ...  7 chains
  1      0.0000      0.0024      0.0000      0.0000      0.0000      0.0000      0.0000      0.0000      0.0000
  2     10.9062     10.4317     10.4843     10.5499     10.4975     10.4856     10.4357     10.4669     10.5580
  3      0.0000      0.0061      0.0000      0.0000      0.0000      0.0000      0.0176      0.0000      0.0000
  4      8.1211      8.7794      8.7711      8.7348      8.8065      8.8151      8.7593      8.8194      8.7449
  5      0.0000      0.0223      0.0000      0.0000      0.0000      0.0000      0.0107      0.0000      0.0000
  6      0.0000      0.0471      0.0731      0.0293      0.0000      0.0000      0.0000      0.0000      0.0000
  7     16.5019     15.9408     16.0761     16.0365     16.1237     16.1055     16.1472     16.0319     15.8716
  8      0.0000      0.0989      0.0000      0.0000      0.1749      0.0000      0.0000      0.2384      0.0000
  9      0.0000      0.0700      0.1716      0.2696      0.1183      0.0000      0.2167      0.1462      0.1300
 10     17.1683     16.7648     16.7497     16.8636     16.7569     16.9622     16.5749     16.7186     17.0861
 11     10.0701     11.8643     11.9458     11.4629     11.8391     12.0013     11.9375     11.5317     11.5884
 12     37.4124     35.3703     35.4171     35.3570     35.4857     35.4887     35.4950     35.9834     35.8691
 13      2.1111      2.0568      2.0636      2.1340      2.0868      2.0241      2.0427      1.9960      1.9763
 14      0.0000      0.0277      0.0000      0.0000      0.0000      0.0273      0.0000      0.0000      0.0000
 15      0.0000      0.0183      0.0352      0.0851      0.0067      0.0000      0.0000      0.0000      0.0097
 16      0.0000      0.0044      0.0096      0.0000      0.0000      0.0000      0.0000      0.0000      0.0000
 17      0.0000      0.0040      0.0000      0.0000      0.0000      0.0000      0.0000      0.0000      0.0000
 18      0.0000      0.0095      0.0000      0.0000      0.0000      0.0000      0.0000      0.0000      0.0000
 19      0.0000      0.0047      0.0000      0.0000      0.0000      0.0000      0.0000      0.0000      0.0000
 20      0.0000      0.0051      0.0000      0.0000      0.0000      0.0000      0.0000      0.0000      0.0000
 21      0.0000      0.0145      0.0000      0.0000      0.0082      0.0000      0.0046      0.0000      0.0000
 22      0.0000      0.0206      0.0062      0.0000      0.0082      0.0000      0.0112      0.0198      0.0000
 23      0.0000      0.0268      0.0073      0.0000      0.0000      0.0000      0.0000      0.0000      0.0000
 24      0.0000      0.0454      0.0000      0.0000      0.0000      0.0009      0.1100      0.0168      0.0000
 25      0.0000      0.0543      0.0000      0.0000      0.0000      0.0000      0.0000      0.0000      0.0000
 26      0.0000      0.0547      0.0000      0.0000      0.1328      0.0000      0.0625      0.0435      0.0171
 27      0.0000      0.0124      0.0387      0.0117      0.0000      0.0000      0.0034      0.0000      0.0000
 28      0.0000      0.0069      0.0000      0.0000      0.0610      0.0000      0.0000      0.0000      0.0002
 29      0.0000      0.0094      0.0000      0.0000      0.0000      0.0000      0.0069      0.0000      0.0307
 30      0.0000      0.0093      0.0000      0.0000      0.0000      0.0202      0.0000      0.0000      0.0000
 31      0.0000      0.0025      0.0000      0.0000      0.0000      0.0000      0.0000      0.0000      0.0000
 32      0.0000      0.0055      0.0000      0.0000      0.0000      0.0000      0.0000      0.0000      0.0000
 33      0.0000      0.0052      0.0000      0.0000      0.0000      0.0000      0.0413      0.0000      0.0000
 34      0.0000      0.0035      0.0000      0.0000      0.0000      0.0000      0.0000      0.0000      0.0000
 35      0.0000      0.0128      0.0000      0.0757      0.0000      0.0000      0.0000      0.0000      0.0000
 36      0.0000      0.0134      0.0000      0.0000      0.0000      0.0784      0.0000      0.0000      0.0000
 37      0.0000      0.0287      0.0504      0.0000      0.0166      0.0000      0.0000      0.0052      0.0298
 38      0.0000      0.0408      0.0000      0.0000      0.0000      0.0000      0.0000      0.0000      0.0000
 39      0.0000      0.1564      0.0249      0.2006      0.0000      0.0000      0.0631      0.0690      0.1876
 40      0.0000      0.2194      0.3142      0.4968      0.1900      0.2654      0.3562      0.1782      0.1557
 41      0.0000      0.0295      0.0691      0.0000      0.0000      0.0000      0.0361      0.0389      0.0567
 42      0.0000      0.0197      0.0000      0.0101      0.0000      0.0529      0.0000      0.0000      0.0000
 43      0.0000      0.0024      0.0000      0.0000      0.0000      0.0000      0.0000      0.0000      0.0000
 44      0.0000      0.0037      0.0000      0.0000      0.0000      0.0000      0.0000      0.0000      0.0000
 45      0.0000      0.0016      0.0000      0.0166      0.0000      0.0000      0.0000      0.0000      0.0000

# j      m_j: min, <> & last-chain-values for 1 ...  7 chains
  1  0.0000E+00  7.3395E-05  0.0000E+00  0.0000E+00  0.0000E+00  0.0000E+00  0.0000E+00  0.0000E+00  0.0000E+00
  2  9.0138E-02  8.6831E-02  8.7652E-02  8.7406E-02  8.7745E-02  8.7476E-02  8.7406E-02  8.7677E-02  8.7994E-02
  3  0.0000E+00  7.7947E-05  0.0000E+00  0.0000E+00  0.0000E+00  0.0000E+00  2.2520E-04  0.0000E+00  0.0000E+00
  4  1.9063E-01  2.0755E-01  2.0827E-01  2.0554E-01  2.0907E-01  2.0887E-01  2.0837E-01  2.0982E-01  2.0700E-01
  5  0.0000E+00  1.2200E-03  0.0000E+00  0.0000E+00  0.0000E+00  0.0000E+00  5.9066E-04  0.0000E+00  0.0000E+00
  6  0.0000E+00  3.5747E-03  5.5777E-03  2.2168E-03  0.0000E+00  0.0000E+00  0.0000E+00  0.0000E+00  0.0000E+00
  7  1.7654E+00  1.7175E+00  1.7397E+00  1.7198E+00  1.7445E+00  1.7392E+00  1.7506E+00  1.7383E+00  1.7122E+00
  8  0.0000E+00  2.0546E-02  0.0000E+00  0.0000E+00  3.6492E-02  0.0000E+00  0.0000E+00  4.9848E-02  0.0000E+00
  9  0.0000E+00  2.8982E-02  7.1315E-02  1.1106E-01  4.9179E-02  0.0000E+00  9.0249E-02  6.0906E-02  5.3857E-02
 10  9.8495E+00  9.6866E+00  9.7204E+00  9.6982E+00  9.7226E+00  9.8227E+00  9.6367E+00  9.7212E+00  9.8848E+00
 11  1.0146E+01  1.2039E+01  1.2175E+01  1.1577E+01  1.2063E+01  1.2205E+01  1.2189E+01  1.1775E+01  1.1774E+01
 12  7.0083E+01  6.6731E+01  6.7112E+01  6.6395E+01  6.7229E+01  6.7104E+01  6.7384E+01  6.8318E+01  6.7757E+01
 13  7.8754E+00  7.7278E+00  7.7873E+00  7.9803E+00  7.8734E+00  7.6220E+00  7.7227E+00  7.5468E+00  7.4346E+00
 14  0.0000E+00  2.1200E-01  0.0000E+00  0.0000E+00  0.0000E+00  2.0973E-01  0.0000E+00  0.0000E+00  0.0000E+00
 15  0.0000E+00  1.6214E-01  3.1389E-01  7.5161E-01  5.9793E-02  0.0000E+00  0.0000E+00  0.0000E+00  8.6574E-02
 16  0.0000E+00  7.5285E-05  1.6460E-04  0.0000E+00  0.0000E+00  0.0000E+00  0.0000E+00  0.0000E+00  0.0000E+00
 17  0.0000E+00  3.5592E-05  0.0000E+00  0.0000E+00  0.0000E+00  0.0000E+00  0.0000E+00  0.0000E+00  0.0000E+00
 18  0.0000E+00  9.2882E-05  0.0000E+00  0.0000E+00  0.0000E+00  0.0000E+00  0.0000E+00  0.0000E+00  0.0000E+00
 19  0.0000E+00  1.3807E-04  0.0000E+00  0.0000E+00  0.0000E+00  0.0000E+00  0.0000E+00  0.0000E+00  0.0000E+00
 20  0.0000E+00  3.2975E-04  0.0000E+00  0.0000E+00  0.0000E+00  0.0000E+00  0.0000E+00  0.0000E+00  0.0000E+00
 21  0.0000E+00  1.1363E-03  0.0000E+00  0.0000E+00  6.4471E-04  0.0000E+00  3.6003E-04  0.0000E+00  0.0000E+00
 22  0.0000E+00  2.6899E-03  8.1421E-04  0.0000E+00  1.0792E-03  0.0000E+00  1.4639E-03  2.5921E-03  0.0000E+00
 23  0.0000E+00  6.8659E-03  1.8753E-03  0.0000E+00  0.0000E+00  0.0000E+00  0.0000E+00  0.0000E+00  0.0000E+00
 24  0.0000E+00  2.6633E-02  0.0000E+00  0.0000E+00  0.0000E+00  5.4836E-04  6.4884E-02  9.9367E-03  0.0000E+00
 25  0.0000E+00  4.9015E-02  0.0000E+00  0.0000E+00  0.0000E+00  0.0000E+00  0.0000E+00  0.0000E+00  0.0000E+00
 26  0.0000E+00  9.3150E-02  0.0000E+00  0.0000E+00  2.2710E-01  0.0000E+00  1.0701E-01  7.4506E-02  2.9200E-02
 27  0.0000E+00  4.2793E-02  1.3417E-01  4.0310E-02  0.0000E+00  0.0000E+00  1.1829E-02  0.0000E+00  0.0000E+00
 28  0.0000E+00  4.8022E-02  0.0000E+00  0.0000E+00  4.2856E-01  0.0000E+00  0.0000E+00  0.0000E+00  1.2213E-03
 29  0.0000E+00  1.3963E-01  0.0000E+00  0.0000E+00  0.0000E+00  0.0000E+00  1.0324E-01  0.0000E+00  4.5545E-01
 30  0.0000E+00  1.6441E-01  0.0000E+00  0.0000E+00  0.0000E+00  3.5672E-01  0.0000E+00  0.0000E+00  0.0000E+00
 31  0.0000E+00  3.1899E-05  0.0000E+00  0.0000E+00  0.0000E+00  0.0000E+00  0.0000E+00  0.0000E+00  0.0000E+00
 32  0.0000E+00  3.6840E-05  0.0000E+00  0.0000E+00  0.0000E+00  0.0000E+00  0.0000E+00  0.0000E+00  0.0000E+00
 33  0.0000E+00  5.2211E-05  0.0000E+00  0.0000E+00  0.0000E+00  0.0000E+00  4.1514E-04  0.0000E+00  0.0000E+00
