###################################################################
## OUTPUT of StarlightChains_v04.for    [Cid@UFSC - 01/Apr/2007] ##
###################################################################

## Some input info
NGC6652_a_1.cxt                          [arq_obs]
Base.BC03.N                              [arq_base]
NGC6652_a_1.msk                          [arq_masks]
StCv04.C11.config                        [arq_config]
   45                                    [N_base]
    0                                    [N_YAV_components = # of components with extra extinction!]
    0                                    [i_FitPowerLaw (1/0 = Yes/No)]
-9.99                                    [alpha_PowerLaw]
CCM                                      [red_law_option]
 1.458241                                [q_norm = A(l_norm)/A(V)]

## (Re)Sampling Parameters
 3359.00                                 [l_ini (A)]
 6428.00                                 [l_fin (A)]
    1.00                                 [dl    (A)]     (OBS: dl_cushion =    50.00 A)

## Normalization info
 4020.00                                 [l_norm (A) - for base]
 4010.00                                 [llow_norm (A) - window for f_obs]
 4060.00                                 [lupp_norm (A) - window for f_obs]
1.310531E-14                             [fobs_norm (in input units)]

## S/N
 4730.00                                 [llow_SN (A) - window for S/N]
 4780.00                                 [lupp_SN (A) - window for S/N]
  53.684                                 [S/N in S/N window]
  42.801                                 [S/N in norm. window]
  62.234                                 [S/N_err in S/N window]
  49.617                                 [S/N_err in norm. window]
  1.0000                                 [fscale_chi2]

## etc...
  2147483592                             [idum_orig]
  3067                                   [NOl_eff]
  2092                                   [Nl_eff]
   975    NSIGMA                         [Ntot_cliped & clip_method]
   601020                                [Nglobal_steps]
   7                                     [N_chains]
   8                                     [NEX0s_base = N_base in EX0s-fits]
 0   0   1      386   2.0   9.034E+02    [Clip-Bug, RC-Crash & Burn-In warning-flags, n_censored_weights, wei_nsig_threshold & wei_limit]
     8      8.413      8.413      0.000  [idt_all, wdt_TotTime, wdt_UsrTime & wdt_SysTime (sec)]

## Synthesis Results - Best model ##

 2.48182E+00                             [chi2/Nl_eff]
     2.07172                             [adev (%)]

   102.19021                             [sum-of-x (%)]
 1.57717E-14                             [Flux_tot (units of input spectrum!)]
 3.32003E-10                             [Mini_tot (???)]
 1.75598E-10                             [Mcor_tot (???)]

 -12.39                                  [v0_min  (km/s)]
  75.99                                  [vd_min  (km/s)]
 0.1218                                  [AV_min  (mag)]
 0.0000                                  [YAV_min (mag)]

# j     x_j(%)      Mini_j(%)     Mcor_j(%)     age_j(yr)     Z_j      (L/M)_j    YAV?  Mstars   component_j        a/Fe...       SSP_chi2r SSP_adev(%)   SSP_AV   SSP_x(%)
  1      0.0000     0.0000E+00    0.0000E+00    1.000000E+06  0.00400  1.114E-02    0   1.0000   age020_m42            0.0000     2.6042E+02    14.9315   4.0000    70.7774
  2      2.3939     2.7322E-03    5.1652E-03    3.160000E+06  0.00400  4.073E-02    0   0.9999   age045_m42            0.0000     1.2784E+02     7.8237   3.2059    86.3691
  3      0.0000     0.0000E+00    0.0000E+00    5.010000E+06  0.00400  2.534E-02    0   0.9488   age055_m42            0.0000     1.3809E+02    10.4468   3.6843    78.4959
  4      0.0000     0.0000E+00    0.0000E+00    1.000000E+07  0.00400  1.271E-02    0   0.8862   age070_m42            0.0000     1.3776E+02    10.8944   2.9032    81.7324
  5      0.0000     0.0000E+00    0.0000E+00    2.512000E+07  0.00400  5.070E-03    0   0.8174   age090_m42            0.0000     1.3630E+02    10.4132   2.7643    83.5203
  6      0.0000     0.0000E+00    0.0000E+00    4.000000E+07  0.00400  3.505E-03    0   0.7851   age104_m42            0.0000     1.3611E+02     8.7759   2.4095    87.6171
  7      2.8574     5.8568E-02    7.9806E-02    1.015200E+08  0.00400  2.268E-03    0   0.7207   age116_m42            0.0000     5.8906E+02     6.6019   2.1943   102.5318
  8      0.0000     0.0000E+00    0.0000E+00    2.861200E+08  0.00400  1.079E-03    0   0.6613   age125_m42            0.0000     5.8995E+02     6.6991   1.6718   105.8997
  9      0.0000     0.0000E+00    0.0000E+00    6.405400E+08  0.00400  5.077E-04    0   0.6197   age132_m42            0.0000     5.9603E+02     7.1993   1.2830   110.9741
 10      0.0000     0.0000E+00    0.0000E+00    9.047900E+08  0.00400  3.535E-04    0   0.6024   age135_m42            0.0000     3.8548E+02     6.1289   1.0628   110.0596
 11      0.0000     0.0000E+00    0.0000E+00    1.434000E+09  0.00400  1.910E-04    0   0.5716   age139_m42            0.0000     1.5694E+02     4.1830   0.5440   109.5798
 12     25.5266     1.2086E+01    1.2484E+01    2.500000E+09  0.00400  9.818E-05    0   0.5463   age150_m42            0.0000     1.8120E+01     2.3574   0.3210   103.9753
 13     38.8264     3.8256E+01    3.7814E+01    5.000000E+09  0.00400  4.718E-05    0   0.5228   age161_m42            0.0000     3.5265E+00     2.0000   0.1906    99.7210
 14      8.9340     1.8835E+01    1.7734E+01    1.100000E+10  0.00400  2.205E-05    0   0.4980   age185_m42            0.0000     2.7898E+01     2.7336  -0.0773    98.3443
 15      0.0000     0.0000E+00    0.0000E+00    1.300000E+10  0.00400  1.883E-05    0   0.4927   age193_m42            0.0000     3.5843E+01     2.8819  -0.0928    98.1892
 16      0.0000     0.0000E+00    0.0000E+00    1.000000E+06  0.02000  1.989E-02    0   1.0000   age020_m62            0.0000     2.4848E+02    14.2550   4.0000    71.4453
 17      0.0000     0.0000E+00    0.0000E+00    3.160000E+06  0.02000  3.772E-02    0   0.9858   age045_m62            0.0000     1.9921E+02    12.3311   4.0000    73.2978
 18      0.0000     0.0000E+00    0.0000E+00    5.010000E+06  0.02000  3.227E-02    0   0.9342   age055_m62            0.0000     1.4250E+02     9.2031   3.5062    82.1180
 19      0.0000     0.0000E+00    0.0000E+00    1.000000E+07  0.02000  1.011E-02    0   0.8751   age070_m62            0.0000     1.9431E+02    14.6690   3.0170    76.0261
 20      0.0000     0.0000E+00    0.0000E+00    2.512000E+07  0.02000  4.206E-03    0   0.8099   age090_m62            0.0000     1.7487E+02    12.6799   2.9142    78.0913
 21      0.0000     0.0000E+00    0.0000E+00    4.000000E+07  0.02000  3.373E-03    0   0.7799   age104_m62            0.0000     1.9643E+02     8.4796   2.6068    89.3810
 22      0.0000     0.0000E+00    0.0000E+00    1.015200E+08  0.02000  1.878E-03    0   0.7221   age116_m62            0.0000     5.4529E+02     6.8987   2.2697   101.2240
 23      0.0000     0.0000E+00    0.0000E+00    2.861200E+08  0.02000  8.869E-04    0   0.6700   age125_m62            0.0000     9.3219E+02     8.2116   1.6343   112.0549
 24      0.0000     0.0000E+00    0.0000E+00    6.405400E+08  0.02000  3.657E-04    0   0.6322   age132_m62            0.0000     5.1637E+02     7.4194   0.8870   119.5369
 25      0.0000     0.0000E+00    0.0000E+00    9.047900E+08  0.02000  2.312E-04    0   0.6152   age135_m62            0.0000     2.4370E+02     5.9050   0.5440   118.3728
 26      0.0000     0.0000E+00    0.0000E+00    1.434000E+09  0.02000  1.168E-04    0   0.5865   age139_m62            0.0000     3.3136E+01     3.2117   0.2196   109.8844
 27      0.0000     0.0000E+00    0.0000E+00    2.500000E+09  0.02000  5.505E-05    0   0.5610   age150_m62            0.0000     8.6061E+00     2.9314  -0.1325   106.8962
 28      9.9204     1.7764E+01    1.7979E+01    5.000000E+09  0.02000  2.596E-05    0   0.5353   age161_m62            0.0000     6.2036E+01     4.2220  -0.4875   108.2526
 29      0.0000     0.0000E+00    0.0000E+00    1.100000E+10  0.02000  1.169E-05    0   0.5103   age185_m62            0.0000     1.5196E+02     5.8803  -0.8897   111.5317
 30      0.0000     0.0000E+00    0.0000E+00    1.300000E+10  0.02000  9.691E-06    0   0.5047   age193_m62            0.0000     1.7314E+02     6.1392  -0.9404   112.0204
 31      0.0000     0.0000E+00    0.0000E+00    1.000000E+06  0.05000  2.651E-02    0   0.9998   age020_m72            0.0000     2.3654E+02    13.8820   4.0000    72.3972
 32      0.0000     0.0000E+00    0.0000E+00    3.160000E+06  0.05000  4.817E-02    0   0.9577   age045_m72            0.0000     1.5669E+02    10.8733   3.9365    76.7054
 33      0.0000     0.0000E+00    0.0000E+00    5.010000E+06  0.05000  3.101E-02    0   0.9147   age055_m72            0.0000     1.4775E+02    10.8624   3.5816    79.0423
 34      0.0000     0.0000E+00    0.0000E+00    1.000000E+07  0.05000  8.954E-03    0   0.8524   age070_m72            0.0000     1.5158E+02    10.6531   3.8301    77.7569
 35      0.0000     0.0000E+00    0.0000E+00    2.512000E+07  0.05000  4.207E-03    0   0.7902   age090_m72            0.0000     1.4555E+02     8.4612   3.3326    84.6637
 36      0.0000     0.0000E+00    0.0000E+00    4.000000E+07  0.05000  3.198E-03    0   0.7618   age104_m72            0.0000     3.5474E+02     6.3101   2.6881    95.9633
 37      0.0000     0.0000E+00    0.0000E+00    1.015200E+08  0.05000  1.716E-03    0   0.7092   age116_m72            0.0000     6.2062E+02     6.8644   2.3364   102.0639
 38      0.0000     0.0000E+00    0.0000E+00    2.861200E+08  0.05000  7.047E-04    0   0.6618   age125_m72            0.0000     8.6187E+02     7.9280   1.3895   114.3889
 39      0.0000     0.0000E+00    0.0000E+00    6.405400E+08  0.05000  2.633E-04    0   0.6253   age132_m72            0.0000     3.3047E+02     6.9352   0.4942   120.3510
 40      0.0000     0.0000E+00    0.0000E+00    9.047900E+08  0.05000  1.484E-04    0   0.6088   age135_m72            0.0000     5.7047E+01     4.7731   0.0751   113.9484
 41      6.1988     3.6816E+00    4.0700E+00    1.434000E+09  0.05000  7.827E-05    0   0.5847   age139_m72            0.0000     1.9231E+01     4.1654  -0.2745   109.6228
 42      7.5327     9.3155E+00    9.8332E+00    2.500000E+09  0.05000  3.759E-05    0   0.5583   age150_m72            0.0000     7.0281E+01     4.7565  -0.5855   108.7536
 43      0.0000     0.0000E+00    0.0000E+00    5.000000E+09  0.05000  1.548E-05    0   0.5320   age161_m72            0.0000     1.4119E+02     6.3381  -1.0000   109.8273
 44      0.0000     0.0000E+00    0.0000E+00    1.100000E+10  0.05000  6.532E-06    0   0.5070   age185_m72            0.0000     3.3777E+02    15.9573  -1.0000   108.1343
 45      0.0000     0.0000E+00    0.0000E+00    1.300000E+10  0.05000  5.316E-06    0   0.5018   age193_m72            0.0000     4.6330E+02    19.6389  -1.0000   107.3461


## Synthesis Results - Average & Chains ##

# j      x_j: min, <> & last-chain-values for 1 ...  7 chains
  1      0.0000      0.0148      0.0000      0.0000      0.0000      0.0000      0.0000      0.0000      0.0261
  2      2.3939      0.8509      1.1487      0.9098      0.9081      1.0649      0.9377      1.1964      0.8956
  3      0.0000      0.1974      0.1243      0.1805      0.3800      0.1847      0.2610      0.0000      0.2489
  4      0.0000      0.4183      0.5982      0.6755      0.3621      0.6699      0.6596      0.6129      0.4510
  5      0.0000      0.0803      0.1040      0.0000      0.0948      0.0000      0.0000      0.0000      0.0000
  6      0.0000      0.0106      0.0000      0.0000      0.0000      0.0000      0.0000      0.0000      0.0000
  7      2.8574      3.4759      3.1124      3.4882      3.3221      3.3248      3.4707      3.3727      3.4833
  8      0.0000      0.0119      0.0000      0.0000      0.0000      0.0000      0.0000      0.0000      0.0000
  9      0.0000      0.0425      0.0000      0.0000      0.0598      0.0000      0.0000      0.0247      0.0000
 10      0.0000      0.0391      0.1879      0.0000      0.0609      0.0000      0.0000      0.0000      0.0546
 11      0.0000      0.0578      0.0469      0.0000      0.0000      0.0438      0.0296      0.2092      0.1460
 12     25.5266     23.9591     23.8528     24.3092     24.7875     23.9760     24.1802     23.9303     24.5203
 13     38.8264     34.6690     36.1153     34.9069     34.5279     35.6891     34.8545     34.9859     34.8743
 14      8.9340     13.6785     12.4907     13.0129     13.6636     13.4464     13.6913     13.2614     13.5940
 15      0.0000      0.3020      0.1600      0.2286      0.3610      0.0000      0.1250      0.5331      0.4126
 16      0.0000      0.0023      0.0000      0.0000      0.0000      0.0000      0.0000      0.0000      0.0000
 17      0.0000      0.0024      0.0000      0.0000      0.0000      0.0000      0.0000      0.0000      0.0000
 18      0.0000      0.0634      0.0000      0.0000      0.0351      0.0000      0.0000      0.1705      0.0000
 19      0.0000      0.0155      0.0332      0.0000      0.0000      0.0000      0.0000      0.0000      0.0944
 20      0.0000      0.0058      0.0000      0.0000      0.0000      0.0000      0.0000      0.0000      0.0000
 21      0.0000      0.0062      0.0000      0.0000      0.0000      0.0000      0.0000      0.0000      0.0000
 22      0.0000      0.0083      0.0000      0.0000      0.0000      0.0000      0.0000      0.0000      0.0000
 23      0.0000      0.0059      0.0000      0.0000      0.0000      0.0000      0.0269      0.0000      0.0000
 24      0.0000      0.0041      0.0000      0.0000      0.0000      0.0000      0.0000      0.0000      0.0000
 25      0.0000      0.0326      0.0000      0.0453      0.0000      0.0000      0.0000      0.0000      0.0000
 26      0.0000      0.0598      0.0000      0.0000      0.0000      0.0468      0.0000      0.0000      0.0000
 27      0.0000      0.3228      0.0000      0.2597      0.8918      0.6499      0.1916      0.2717      0.0000
 28      9.9204      7.7419      8.0090      8.0371      7.5946      7.7723      7.7841      7.5003      8.5424
 29      0.0000      0.1566      0.3910      0.1898      0.0000      0.0000      0.4931      0.1938      0.0338
 30      0.0000      0.1508      0.0000      0.0000      0.1663      0.4935      0.1462      0.2898      0.0383
 31      0.0000      0.0019      0.0000      0.0000      0.0000      0.0000      0.0000      0.0000      0.0000
 32      0.0000      0.0235      0.0000      0.1491      0.0000      0.0000      0.0000      0.0000      0.0000
 33      0.0000      0.0578      0.0000      0.0000      0.0000      0.0000      0.0000      0.0000      0.0000
 34      0.0000      0.0060      0.0167      0.0000      0.0000      0.0000      0.0000      0.0000      0.0000
 35      0.0000      0.0113      0.0000      0.0000      0.0000      0.0000      0.0000      0.0000      0.0000
 36      0.0000      0.0064      0.0000      0.0000      0.0000      0.0000      0.0000      0.0000      0.0000
 37      0.0000      0.0111      0.0000      0.0000      0.0000      0.0413      0.0000      0.0000      0.0000
 38      0.0000      0.0060      0.0000      0.0000      0.0000      0.0000      0.0000      0.0000      0.0000
 39      0.0000      0.0172      0.0000      0.0000      0.0000      0.1173      0.0000      0.0000      0.0000
 40      0.0000      0.0337      0.0070      0.0000      0.0000      0.0000      0.0000      0.0000      0.0000
 41      6.1988     11.0884     11.3657     11.0195     10.5927     10.2755     10.8738     11.0334     10.4769
 42      7.5327      4.4182      4.4226      4.6714      4.4635      4.3503      4.4896      4.5719      4.2148
 43      0.0000      0.1733      0.0585      0.1849      0.0000      0.0284      0.0705      0.1098      0.1504
 44      0.0000      0.0636      0.0000      0.0000      0.0000      0.0578      0.0000      0.0000      0.0000
 45      0.0000      0.0079      0.0000      0.0000      0.0000      0.0000      0.0000      0.0000      0.0000

# j      m_j: min, <> & last-chain-values for 1 ...  7 chains
  1  0.0000E+00  1.1287E-04  0.0000E+00  0.0000E+00  0.0000E+00  0.0000E+00  0.0000E+00  0.0000E+00  2.0089E-04
  2  5.1652E-03  1.7791E-03  2.4404E-03  1.9287E-03  1.9224E-03  2.2273E-03  1.9567E-03  2.5079E-03  1.8823E-03
  3  0.0000E+00  6.2951E-04  4.0291E-04  5.8354E-04  1.2271E-03  5.8909E-04  8.3076E-04  0.0000E+00  7.9795E-04
  4  0.0000E+00  2.4840E-03  3.6094E-03  4.0676E-03  2.1770E-03  3.9792E-03  3.9091E-03  3.6486E-03  2.6920E-03
  5  0.0000E+00  1.1026E-03  1.4510E-03  0.0000E+00  1.3180E-03  0.0000E+00  0.0000E+00  0.0000E+00  0.0000E+00
  6  0.0000E+00  2.0237E-04  0.0000E+00  0.0000E+00  0.0000E+00  0.0000E+00  0.0000E+00  0.0000E+00  0.0000E+00
  7  7.9806E-02  9.4075E-02  8.5586E-02  9.5725E-02  9.1033E-02  9.0010E-02  9.3743E-02  9.1509E-02  9.4764E-02
  8  0.0000E+00  6.2297E-04  0.0000E+00  0.0000E+00  0.0000E+00  0.0000E+00  0.0000E+00  0.0000E+00  0.0000E+00
  9  0.0000E+00  4.4194E-03  0.0000E+00  0.0000E+00  6.2968E-03  0.0000E+00  0.0000E+00  2.5722E-03  0.0000E+00
 10  0.0000E+00  5.6787E-03  2.7704E-02  0.0000E+00  8.9441E-03  0.0000E+00  0.0000E+00  0.0000E+00  7.9678E-03
 11  0.0000E+00  1.4732E-02  1.2148E-02  0.0000E+00  0.0000E+00  1.1164E-02  7.5284E-03  5.3446E-02  3.7402E-02
 12  1.2484E+01  1.1355E+01  1.1485E+01  1.1681E+01  1.1894E+01  1.1366E+01  1.1436E+01  1.1369E+01  1.1681E+01
 13  3.7814E+01  3.2720E+01  3.4631E+01  3.3404E+01  3.2993E+01  3.3692E+01  3.2829E+01  3.3102E+01  3.3084E+01
 14  1.7734E+01  2.6312E+01  2.4412E+01  2.5380E+01  2.6611E+01  2.5872E+01  2.6283E+01  2.5573E+01  2.6285E+01
 15  0.0000E+00  6.7304E-01  3.6228E-01  5.1654E-01  8.1459E-01  0.0000E+00  2.7809E-01  1.1909E+00  9.2438E-01
 16  0.0000E+00  9.8291E-06  0.0000E+00  0.0000E+00  0.0000E+00  0.0000E+00  0.0000E+00  0.0000E+00  0.0000E+00
 17  0.0000E+00  5.2562E-06  0.0000E+00  0.0000E+00  0.0000E+00  0.0000E+00  0.0000E+00  0.0000E+00  0.0000E+00
 18  0.0000E+00  1.5621E-04  0.0000E+00  0.0000E+00  8.7500E-05  0.0000E+00  0.0000E+00  4.2134E-04  0.0000E+00
 19  0.0000E+00  1.1448E-04  2.4880E-04  0.0000E+00  0.0000E+00  0.0000E+00  0.0000E+00  0.0000E+00  6.9985E-04
 20  0.0000E+00  9.5648E-05  0.0000E+00  0.0000E+00  0.0000E+00  0.0000E+00  0.0000E+00  0.0000E+00  0.0000E+00
 21  0.0000E+00  1.2142E-04  0.0000E+00  0.0000E+00  0.0000E+00  0.0000E+00  0.0000E+00  0.0000E+00  0.0000E+00
 22  0.0000E+00  2.7315E-04  0.0000E+00  0.0000E+00  0.0000E+00  0.0000E+00  0.0000E+00  0.0000E+00  0.0000E+00
 23  0.0000E+00  3.8138E-04  0.0000E+00  0.0000E+00  0.0000E+00  0.0000E+00  1.7271E-03  0.0000E+00  0.0000E+00
 24  0.0000E+00  6.0559E-04  0.0000E+00  0.0000E+00  0.0000E+00  0.0000E+00  0.0000E+00  0.0000E+00  0.0000E+00
 25  0.0000E+00  7.3865E-03  0.0000E+00  1.0410E-02  0.0000E+00  0.0000E+00  0.0000E+00  0.0000E+00  0.0000E+00
 26  0.0000E+00  2.5585E-02  0.0000E+00  0.0000E+00  0.0000E+00  2.0001E-02  0.0000E+00  0.0000E+00  0.0000E+00
 27  0.0000E+00  2.8016E-01  0.0000E+00  2.2852E-01  7.8365E-01  5.6426E-01  1.6597E-01  2.3645E-01  0.0000E+00
 28  1.7979E+01  1.3597E+01  1.4291E+01  1.4312E+01  1.3504E+01  1.3654E+01  1.3643E+01  1.3205E+01  1.5080E+01
 29  0.0000E+00  5.8208E-01  1.4771E+00  7.1534E-01  0.0000E+00  0.0000E+00  1.8296E+00  7.2238E-01  1.2637E-01
 30  0.0000E+00  6.6896E-01  0.0000E+00  0.0000E+00  7.4666E-01  2.1898E+00  6.4715E-01  1.2888E+00  1.7069E-01
 31  0.0000E+00  5.9564E-06  0.0000E+00  0.0000E+00  0.0000E+00  0.0000E+00  0.0000E+00  0.0000E+00  0.0000E+00
 32  0.0000E+00  3.9723E-05  0.0000E+00  2.5596E-04  0.0000E+00  0.0000E+00  0.0000E+00  0.0000E+00  0.0000E+00
 33  0.0000E+00  1.4532E-04  0.0000E+00  0.0000E+00  0.0000E+00  0.0000E+00  0.0000E+00  0.0000E+00  0.0000E+00
