###################################################################
## OUTPUT of StarlightChains_v04.for    [Cid@UFSC - 01/Apr/2007] ##
###################################################################

## Some input info
NGC6528_c_2.cxt                          [arq_obs]
Base.BC03.N                              [arq_base]
NGC6528_c_2.msk                          [arq_masks]
StCv04.C11.config                        [arq_config]
   45                                    [N_base]
    0                                    [N_YAV_components = # of components with extra extinction!]
    0                                    [i_FitPowerLaw (1/0 = Yes/No)]
-9.99                                    [alpha_PowerLaw]
CCM                                      [red_law_option]
 1.458241                                [q_norm = A(l_norm)/A(V)]

## (Re)Sampling Parameters
 3359.00                                 [l_ini (A)]
 6428.00                                 [l_fin (A)]
    1.00                                 [dl    (A)]     (OBS: dl_cushion =    50.00 A)

## Normalization info
 4020.00                                 [l_norm (A) - for base]
 4010.00                                 [llow_norm (A) - window for f_obs]
 4060.00                                 [lupp_norm (A) - window for f_obs]
4.572307E-15                             [fobs_norm (in input units)]

## S/N
 4730.00                                 [llow_SN (A) - window for S/N]
 4780.00                                 [lupp_SN (A) - window for S/N]
  26.838                                 [S/N in S/N window]
  13.309                                 [S/N in norm. window]
 348.211                                 [S/N_err in S/N window]
 172.676                                 [S/N_err in norm. window]
  1.0000                                 [fscale_chi2]

## etc...
  2147483601                             [idum_orig]
  3069                                   [NOl_eff]
   516                                   [Nl_eff]
  2553    NSIGMA                         [Ntot_cliped & clip_method]
   891800                                [Nglobal_steps]
   7                                     [N_chains]
  11                                     [NEX0s_base = N_base in EX0s-fits]
 0   0   1      162   2.0   3.907E+02    [Clip-Bug, RC-Crash & Burn-In warning-flags, n_censored_weights, wei_nsig_threshold & wei_limit]
    10     10.422     10.418      0.004  [idt_all, wdt_TotTime, wdt_UsrTime & wdt_SysTime (sec)]

## Synthesis Results - Best model ##

 3.00586E+00                             [chi2/Nl_eff]
     2.56176                             [adev (%)]

   104.88373                             [sum-of-x (%)]
 2.19062E-14                             [Flux_tot (units of input spectrum!)]
 1.93501E-09                             [Mini_tot (???)]
 9.80458E-10                             [Mcor_tot (???)]

   3.00                                  [v0_min  (km/s)]
 107.70                                  [vd_min  (km/s)]
 1.1310                                  [AV_min  (mag)]
 0.0000                                  [YAV_min (mag)]

# j     x_j(%)      Mini_j(%)     Mcor_j(%)     age_j(yr)     Z_j      (L/M)_j    YAV?  Mstars   component_j        a/Fe...       SSP_chi2r SSP_adev(%)   SSP_AV   SSP_x(%)
  1      2.9993     2.9061E-03    5.7353E-03    1.000000E+06  0.00400  1.114E-02    0   1.0000   age020_m42            0.0000     5.7532E+03    48.0165   4.0000    90.5516
  2      1.1153     2.9557E-04    5.8326E-04    3.160000E+06  0.00400  4.073E-02    0   0.9999   age045_m42            0.0000     2.2286E+03    27.2864   4.0000   104.1824
  3      2.9378     1.2514E-03    2.3432E-03    5.010000E+06  0.00400  2.534E-02    0   0.9488   age055_m42            0.0000     3.5146E+03    37.1462   4.0000    99.1531
  4      4.7597     4.0422E-03    7.0697E-03    1.000000E+07  0.00400  1.271E-02    0   0.8862   age070_m42            0.0000     1.7836E+03    25.5520   4.0000    99.6399
  5      0.2925     6.2271E-04    1.0046E-03    2.512000E+07  0.00400  5.070E-03    0   0.8174   age090_m42            0.0000     1.4739E+03    23.0202   4.0000   100.3551
  6      0.0000     0.0000E+00    0.0000E+00    4.000000E+07  0.00400  3.505E-03    0   0.7851   age104_m42            0.0000     9.6513E+02    17.1971   4.0000   100.0783
  7      0.0000     0.0000E+00    0.0000E+00    1.015200E+08  0.00400  2.268E-03    0   0.7207   age116_m42            0.0000     1.4561E+03    19.3900   4.0000   106.7126
  8      0.0000     0.0000E+00    0.0000E+00    2.861200E+08  0.00400  1.079E-03    0   0.6613   age125_m42            0.0000     1.3622E+03    19.3646   3.8337   104.5619
  9      0.0000     0.0000E+00    0.0000E+00    6.405400E+08  0.00400  5.077E-04    0   0.6197   age132_m42            0.0000     1.3549E+03    19.3523   3.4427   108.8267
 10      0.0000     0.0000E+00    0.0000E+00    9.047900E+08  0.00400  3.535E-04    0   0.6024   age135_m42            0.0000     1.0461E+03    16.8441   3.1716   108.4795
 11      0.0000     0.0000E+00    0.0000E+00    1.434000E+09  0.00400  1.910E-04    0   0.5716   age139_m42            0.0000     6.0344E+02    12.2606   2.4922   108.3276
 12      0.0000     0.0000E+00    0.0000E+00    2.500000E+09  0.00400  9.818E-05    0   0.5463   age150_m42            0.0000     2.7779E+02     8.0273   2.1568   104.5680
 13      0.0000     0.0000E+00    0.0000E+00    5.000000E+09  0.00400  4.718E-05    0   0.5228   age161_m42            0.0000     1.5590E+02     5.9927   1.9755   101.5758
 14      0.0000     0.0000E+00    0.0000E+00    1.100000E+10  0.00400  2.205E-05    0   0.4980   age185_m42            0.0000     6.9094E+01     4.5908   1.6001   100.2948
 15      0.0000     0.0000E+00    0.0000E+00    1.300000E+10  0.00400  1.883E-05    0   0.4927   age193_m42            0.0000     6.2615E+01     4.5005   1.5781   100.1749
 16      0.5206     2.8251E-04    5.5756E-04    1.000000E+06  0.02000  1.989E-02    0   1.0000   age020_m62            0.0000     5.5893E+03    47.2156   4.0000    91.6121
 17      0.2562     7.3308E-05    1.4263E-04    3.160000E+06  0.02000  3.772E-02    0   0.9858   age045_m62            0.0000     5.0419E+03    45.1945   4.0000    94.1348
 18      0.0000     0.0000E+00    0.0000E+00    5.010000E+06  0.02000  3.227E-02    0   0.9342   age055_m62            0.0000     2.9323E+03    33.4330   4.0000   101.8166
 19      0.0000     0.0000E+00    0.0000E+00    1.000000E+07  0.02000  1.011E-02    0   0.8751   age070_m62            0.0000     2.3079E+03    30.4808   4.0000    97.0852
 20      0.0000     0.0000E+00    0.0000E+00    2.512000E+07  0.02000  4.206E-03    0   0.8099   age090_m62            0.0000     1.8781E+03    27.5131   4.0000    97.3352
 21      0.0000     0.0000E+00    0.0000E+00    4.000000E+07  0.02000  3.373E-03    0   0.7799   age104_m62            0.0000     1.3025E+03    19.5920   4.0000   103.4508
 22      0.0000     0.0000E+00    0.0000E+00    1.015200E+08  0.02000  1.878E-03    0   0.7221   age116_m62            0.0000     1.4498E+03    18.6905   4.0000   107.9252
 23      0.0000     0.0000E+00    0.0000E+00    2.861200E+08  0.02000  8.869E-04    0   0.6700   age125_m62            0.0000     1.8150E+03    21.7822   3.7967   109.3712
 24      0.0000     0.0000E+00    0.0000E+00    6.405400E+08  0.02000  3.657E-04    0   0.6322   age132_m62            0.0000     1.2367E+03    16.9606   2.8950   114.7644
 25      0.0000     0.0000E+00    0.0000E+00    9.047900E+08  0.02000  2.312E-04    0   0.6152   age135_m62            0.0000     8.1553E+02    13.5055   2.4812   113.9755
 26      0.0000     0.0000E+00    0.0000E+00    1.434000E+09  0.02000  1.168E-04    0   0.5865   age139_m62            0.0000     3.4270E+02     8.4990   2.0354   108.7922
 27      0.0000     0.0000E+00    0.0000E+00    2.500000E+09  0.02000  5.505E-05    0   0.5610   age150_m62            0.0000     1.2871E+02     5.8314   1.5631   106.8479
 28      0.0000     0.0000E+00    0.0000E+00    5.000000E+09  0.02000  2.596E-05    0   0.5353   age161_m62            0.0000     3.9162E+01     5.3319   1.0660   108.3255
 29     49.1317     4.5365E+01    4.5688E+01    1.100000E+10  0.02000  1.169E-05    0   0.5103   age185_m62            0.0000     5.8197E+01     7.5292   0.5521   110.9943
 30     30.7913     3.4295E+01    3.4160E+01    1.300000E+10  0.02000  9.691E-06    0   0.5047   age193_m62            0.0000     6.9857E+01     8.0684   0.4830   111.4220
 31      0.0000     0.0000E+00    0.0000E+00    1.000000E+06  0.05000  2.651E-02    0   0.9998   age020_m72            0.0000     5.4473E+03    46.6742   4.0000    92.8512
 32      2.0670     4.6317E-04    8.7544E-04    3.160000E+06  0.05000  4.817E-02    0   0.9577   age045_m72            0.0000     4.2791E+03    41.3783   4.0000    98.0863
 33      0.0000     0.0000E+00    0.0000E+00    5.010000E+06  0.05000  3.101E-02    0   0.9147   age055_m72            0.0000     3.3091E+03    36.1035   4.0000   100.3574
 34      0.0000     0.0000E+00    0.0000E+00    1.000000E+07  0.05000  8.954E-03    0   0.8524   age070_m72            0.0000     3.7422E+03    38.8910   4.0000    99.7593
 35      0.0000     0.0000E+00    0.0000E+00    2.512000E+07  0.05000  4.207E-03    0   0.7902   age090_m72            0.0000     2.3169E+03    29.5719   4.0000   104.2741
 36      0.0000     0.0000E+00    0.0000E+00    4.000000E+07  0.05000  3.198E-03    0   0.7618   age104_m72            0.0000     1.5215E+03    18.8547   4.0000   107.9605
 37      0.0000     0.0000E+00    0.0000E+00    1.015200E+08  0.05000  1.716E-03    0   0.7092   age116_m72            0.0000     1.6274E+03    19.6271   4.0000   109.0845
 38      0.0000     0.0000E+00    0.0000E+00    2.861200E+08  0.05000  7.047E-04    0   0.6618   age125_m72            0.0000     1.7150E+03    20.6030   3.4930   110.5624
 39      0.0000     0.0000E+00    0.0000E+00    6.405400E+08  0.05000  2.633E-04    0   0.6253   age132_m72            0.0000     9.6141E+02    14.5672   2.4465   114.4709
 40      0.0000     0.0000E+00    0.0000E+00    9.047900E+08  0.05000  1.484E-04    0   0.6088   age135_m72            0.0000     3.9114E+02     9.6014   1.8691   110.5708
 41      0.0000     0.0000E+00    0.0000E+00    1.434000E+09  0.05000  7.827E-05    0   0.5847   age139_m72            0.0000     1.2621E+02     6.4345   1.3598   108.2925
 42      0.0000     0.0000E+00    0.0000E+00    2.500000E+09  0.05000  3.759E-05    0   0.5583   age150_m72            0.0000     4.0732E+01     5.5302   0.9522   108.4846
 43      0.0000     0.0000E+00    0.0000E+00    5.000000E+09  0.05000  1.548E-05    0   0.5320   age161_m72            0.0000     6.4551E+01     7.6399   0.4335   109.0856
 44      0.0000     0.0000E+00    0.0000E+00    1.100000E+10  0.05000  6.532E-06    0   0.5070   age185_m72            0.0000     1.5276E+02    10.4111  -0.1666   110.7602
 45     10.0123     2.0329E+01    2.0133E+01    1.300000E+10  0.05000  5.316E-06    0   0.5018   age193_m72            0.0000     1.9917E+02    11.5012  -0.3736   111.7006


## Synthesis Results - Average & Chains ##

# j      x_j: min, <> & last-chain-values for 1 ...  7 chains
  1      2.9993      2.8081      2.6705      2.8578      2.7404      2.8620      2.7835      2.8640      2.8329
  2      1.1153      0.3687      0.5162      0.2484      0.4075      0.5618      0.3300      0.4702      0.2174
  3      2.9378      1.9281      2.3117      2.0582      1.9898      1.8932      1.8905      1.9627      2.1013
  4      4.7597      4.4133      3.9366      4.3160      4.4077      4.7070      4.6348      4.4495      4.3653
  5      0.2925      0.4433      0.5518      0.2226      0.3293      0.5112      0.4217      0.4950      0.4222
  6      0.0000      0.0322      0.0556      0.0000      0.0184      0.0000      0.0000      0.0000      0.0000
  7      0.0000      0.0194      0.0000      0.0000      0.0000      0.0682      0.0055      0.0000      0.0000
  8      0.0000      0.0094      0.0000      0.0000      0.0000      0.0000      0.0000      0.1706      0.1291
  9      0.0000      0.0228      0.0000      0.0000      0.0281      0.0000      0.0000      0.0000      0.0000
 10      0.0000      0.0231      0.0000      0.0000      0.0000      0.0000      0.0000      0.0000      0.0104
 11      0.0000      0.0258      0.0000      0.0000      0.0251      0.0000      0.0242      0.0000      0.0000
 12      0.0000      0.0397      0.0000      0.0000      0.0000      0.0000      0.0000      0.0000      0.0000
 13      0.0000      0.0442      0.0000      0.0000      0.0000      0.0000      0.1811      0.0000      0.0000
 14      0.0000      0.0431      0.1445      0.0243      0.0000      0.0000      0.0000      0.0000      0.0000
 15      0.0000      0.0381      0.1121      0.0000      0.0345      0.0000      0.0000      0.0000      0.0000
 16      0.5206      0.7325      0.8120      0.7497      0.7220      0.5556      0.7023      0.6709      0.6609
 17      0.2562      0.4923      0.5093      0.6084      0.5610      0.5834      0.4587      0.4985      0.4528
 18      0.0000      0.4160      0.4444      0.4101      0.4989      0.3489      0.5599      0.4722      0.3872
 19      0.0000      0.0663      0.0000      0.0000      0.1258      0.0000      0.2084      0.0000      0.0000
 20      0.0000      0.0409      0.1547      0.0000      0.0000      0.0000      0.0108      0.0358      0.0000
 21      0.0000      0.0399      0.0000      0.0000      0.0000      0.0000      0.0000      0.1976      0.0828
 22      0.0000      0.0117      0.0000      0.0000      0.0000      0.0000      0.0000      0.0000      0.0000
 23      0.0000      0.0064      0.0000      0.0000      0.0000      0.0000      0.0000      0.0000      0.0000
 24      0.0000      0.0284      0.0000      0.2074      0.0000      0.0000      0.0000      0.0000      0.0000
 25      0.0000      0.0394      0.2320      0.0000      0.0000      0.0000      0.0000      0.0000      0.0000
 26      0.0000      0.0606      0.0000      0.2899      0.0000      0.0000      0.0000      0.0000      0.0000
 27      0.0000      0.1123      0.0000      0.0424      0.0000      0.0000      0.0929      0.1281      0.0000
 28      0.0000      0.2544      0.3455      0.2078      0.0000      0.0000      1.0154      0.0000      0.1534
 29     49.1317     50.3405     50.5437     50.6496     50.4381     50.3607     49.5880     50.5643     50.7670
 30     30.7913     27.9413     27.7061     28.0705     27.5887     28.4022     27.7680     27.7837     27.8354
 31      0.0000      0.0366      0.0000      0.0085      0.0173      0.1524      0.0000      0.0982      0.3877
 32      2.0670      2.4228      2.4086      2.5453      2.4247      2.3185      2.5150      2.3254      2.4713
 33      0.0000      0.0322      0.0000      0.1816      0.0613      0.1475      0.0000      0.0329      0.0085
 34      0.0000      0.0390      0.1396      0.0000      0.1625      0.0000      0.0000      0.0000      0.0000
 35      0.0000      0.0302      0.0000      0.0000      0.0000      0.0000      0.0000      0.0000      0.0000
 36      0.0000      0.0280      0.0000      0.1579      0.0000      0.0000      0.0000      0.0000      0.0000
 37      0.0000      0.0167      0.0000      0.0000      0.0000      0.0184      0.0000      0.0202      0.0000
 38      0.0000      0.0115      0.0000      0.0000      0.0000      0.0000      0.0000      0.0000      0.0150
 39      0.0000      0.0306      0.0000      0.0000      0.0000      0.1696      0.0000      0.0000      0.0000
 40      0.0000      0.0506      0.0000      0.0000      0.1663      0.1073      0.1421      0.0000      0.4592
 41      0.0000      0.1016      0.0000      0.4301      0.0942      0.0000      0.0000      0.0935      0.0000
 42      0.0000      0.2187      0.0000      0.0000      0.9005      0.3159      0.0000      0.1374      0.3605
 43      0.0000      0.5072      1.1948      0.1210      0.7161      0.2738      0.7760      0.6933      0.3657
 44      0.0000      0.2834      0.0000      0.5879      0.5406      0.3475      0.2705      0.4473      0.1043
 45     10.0123     10.3694     10.1218      9.9556      9.9451     10.2442     10.5396     10.3580     10.3302

# j      m_j: min, <> & last-chain-values for 1 ...  7 chains
  1  5.7353E-03  5.3796E-03  5.1437E-03  5.4890E-03  5.2784E-03  5.4809E-03  5.3404E-03  5.4752E-03  5.4420E-03
  2  5.8326E-04  1.9314E-04  2.7191E-04  1.3049E-04  2.1467E-04  2.9425E-04  1.7317E-04  2.4583E-04  1.1420E-04
  3  2.3432E-03  1.5407E-03  1.8572E-03  1.6490E-03  1.5986E-03  1.5123E-03  1.5130E-03  1.5651E-03  1.6837E-03
  4  7.0697E-03  6.5670E-03  5.8894E-03  6.4391E-03  6.5943E-03  7.0018E-03  6.9070E-03  6.6072E-03  6.5134E-03
  5  1.0046E-03  1.5254E-03  1.9089E-03  7.6777E-04  1.1391E-03  1.7583E-03  1.4532E-03  1.6995E-03  1.4566E-03
  6  0.0000E+00  1.5404E-04  2.6743E-04  0.0000E+00  8.8639E-05  0.0000E+00  0.0000E+00  0.0000E+00  0.0000E+00
  7  0.0000E+00  1.3178E-04  0.0000E+00  0.0000E+00  0.0000E+00  4.6231E-04  3.7283E-05  0.0000E+00  0.0000E+00
  8  0.0000E+00  1.2231E-04  0.0000E+00  0.0000E+00  0.0000E+00  0.0000E+00  0.0000E+00  2.2268E-03  1.6936E-03
  9  0.0000E+00  5.9403E-04  0.0000E+00  0.0000E+00  7.3623E-04  0.0000E+00  0.0000E+00  0.0000E+00  0.0000E+00
 10  0.0000E+00  8.4073E-04  0.0000E+00  0.0000E+00  0.0000E+00  0.0000E+00  0.0000E+00  0.0000E+00  3.7767E-04
 11  0.0000E+00  1.6497E-03  0.0000E+00  0.0000E+00  1.6128E-03  0.0000E+00  1.5509E-03  0.0000E+00  0.0000E+00
 12  0.0000E+00  4.7184E-03  0.0000E+00  0.0000E+00  0.0000E+00  0.0000E+00  0.0000E+00  0.0000E+00  0.0000E+00
 13  0.0000E+00  1.0441E-02  0.0000E+00  0.0000E+00  0.0000E+00  0.0000E+00  4.2899E-02  0.0000E+00  0.0000E+00
 14  0.0000E+00  2.0783E-02  7.0003E-02  1.1732E-02  0.0000E+00  0.0000E+00  0.0000E+00  0.0000E+00  0.0000E+00
 15  0.0000E+00  2.1276E-02  6.2936E-02  0.0000E+00  1.9374E-02  0.0000E+00  0.0000E+00  0.0000E+00  0.0000E+00
 16  5.5756E-04  7.8592E-04  8.7597E-04  8.0654E-04  7.7890E-04  5.9595E-04  7.5472E-04  7.1830E-04  7.1103E-04
 17  1.4263E-04  2.7456E-04  2.8558E-04  3.4021E-04  3.1459E-04  3.2527E-04  2.5621E-04  2.7745E-04  2.5327E-04
 18  0.0000E+00  2.5699E-04  2.7605E-04  2.5405E-04  3.0989E-04  2.1548E-04  3.4640E-04  2.9114E-04  2.3989E-04
 19  0.0000E+00  1.2241E-04  0.0000E+00  0.0000E+00  2.3364E-04  0.0000E+00  3.8564E-04  0.0000E+00  0.0000E+00
 20  0.0000E+00  1.6817E-04  6.3930E-04  0.0000E+00  0.0000E+00  0.0000E+00  4.4437E-05  1.4702E-04  0.0000E+00
 21  0.0000E+00  1.9680E-04  0.0000E+00  0.0000E+00  0.0000E+00  0.0000E+00  0.0000E+00  9.7290E-04  4.0951E-04
 22  0.0000E+00  9.5887E-05  0.0000E+00  0.0000E+00  0.0000E+00  0.0000E+00  0.0000E+00  0.0000E+00  0.0000E+00
 23  0.0000E+00  1.0328E-04  0.0000E+00  0.0000E+00  0.0000E+00  0.0000E+00  0.0000E+00  0.0000E+00  0.0000E+00
 24  0.0000E+00  1.0476E-03  0.0000E+00  7.6730E-03  0.0000E+00  0.0000E+00  0.0000E+00  0.0000E+00  0.0000E+00
 25  0.0000E+00  2.2350E-03  1.3246E-02  0.0000E+00  0.0000E+00  0.0000E+00  0.0000E+00  0.0000E+00  0.0000E+00
 26  0.0000E+00  6.4906E-03  0.0000E+00  3.1150E-02  0.0000E+00  0.0000E+00  0.0000E+00  0.0000E+00  0.0000E+00
 27  0.0000E+00  2.4419E-02  0.0000E+00  9.2545E-03  0.0000E+00  0.0000E+00  2.0229E-02  2.7811E-02  0.0000E+00
 28  0.0000E+00  1.1194E-01  1.5284E-01  9.1689E-02  0.0000E+00  0.0000E+00  4.4751E-01  0.0000E+00  6.7694E-02
 29  4.5688E+01  4.6897E+01  4.7341E+01  4.7309E+01  4.7243E+01  4.6900E+01  4.6266E+01  4.7008E+01  4.7425E+01
 30  3.4160E+01  3.1055E+01  3.0960E+01  3.1280E+01  3.0829E+01  3.1557E+01  3.0909E+01  3.0815E+01  3.1022E+01
 31  0.0000E+00  2.9482E-05  0.0000E+00  6.8925E-06  1.3970E-05  1.2265E-04  0.0000E+00  7.8874E-05  3.1291E-04
 32  8.7544E-04  1.0280E-03  1.0275E-03  1.0828E-03  1.0344E-03  9.8341E-04  1.0687E-03  9.8463E-04  1.0515E-03
 33  0.0000E+00  2.0249E-05  0.0000E+00  1.1461E-04  3.8783E-05  9.2848E-05  0.0000E+00  2.0666E-05  5.3933E-06
