###################################################################
## OUTPUT of StarlightChains_v04.for    [Cid@UFSC - 01/Apr/2007] ##
###################################################################

## Some input info
NGC6171_b_1.cxt                          [arq_obs]
Base.BC03.N                              [arq_base]
NGC6171_b_1.msk                          [arq_masks]
StCv04.C11.config                        [arq_config]
   45                                    [N_base]
    0                                    [N_YAV_components = # of components with extra extinction!]
    0                                    [i_FitPowerLaw (1/0 = Yes/No)]
-9.99                                    [alpha_PowerLaw]
CCM                                      [red_law_option]
 1.458241                                [q_norm = A(l_norm)/A(V)]

## (Re)Sampling Parameters
 3359.00                                 [l_ini (A)]
 6428.00                                 [l_fin (A)]
    1.00                                 [dl    (A)]     (OBS: dl_cushion =    50.00 A)

## Normalization info
 4020.00                                 [l_norm (A) - for base]
 4010.00                                 [llow_norm (A) - window for f_obs]
 4060.00                                 [lupp_norm (A) - window for f_obs]
4.350830E-15                             [fobs_norm (in input units)]

## S/N
 4730.00                                 [llow_SN (A) - window for S/N]
 4780.00                                 [lupp_SN (A) - window for S/N]
  48.767                                 [S/N in S/N window]
  32.704                                 [S/N in norm. window]
 245.356                                 [S/N_err in S/N window]
 164.540                                 [S/N_err in norm. window]
  1.0000                                 [fscale_chi2]

## etc...
  2147483626                             [idum_orig]
  3069                                   [NOl_eff]
   845                                   [Nl_eff]
  2224    NSIGMA                         [Ntot_cliped & clip_method]
  1250760                                [Nglobal_steps]
   7                                     [N_chains]
  15                                     [NEX0s_base = N_base in EX0s-fits]
 0   0   1      192   2.0   3.636E+02    [Clip-Bug, RC-Crash & Burn-In warning-flags, n_censored_weights, wei_nsig_threshold & wei_limit]
    12     12.172     12.172      0.000  [idt_all, wdt_TotTime, wdt_UsrTime & wdt_SysTime (sec)]

## Synthesis Results - Best model ##

 2.78165E+00                             [chi2/Nl_eff]
     1.06012                             [adev (%)]

   100.51804                             [sum-of-x (%)]
 3.24037E-14                             [Flux_tot (units of input spectrum!)]
 6.24581E-10                             [Mini_tot (???)]
 3.24624E-10                             [Mcor_tot (???)]

 -21.00                                  [v0_min  (km/s)]
  63.18                                  [vd_min  (km/s)]
 1.4911                                  [AV_min  (mag)]
 0.0000                                  [YAV_min (mag)]

# j     x_j(%)      Mini_j(%)     Mcor_j(%)     age_j(yr)     Z_j      (L/M)_j    YAV?  Mstars   component_j        a/Fe...       SSP_chi2r SSP_adev(%)   SSP_AV   SSP_x(%)
  1      3.4632     1.6045E-02    3.0872E-02    1.000000E+06  0.00400  1.114E-02    0   1.0000   age020_m42            0.0000     2.4701E+03    23.0923   4.0000    99.3397
  2      3.8670     4.9003E-03    9.4272E-03    3.160000E+06  0.00400  4.073E-02    0   0.9999   age045_m42            0.0000     1.7759E+02     5.5873   3.9009    95.2032
  3      2.0028     4.0794E-03    7.4470E-03    5.010000E+06  0.00400  2.534E-02    0   0.9488   age055_m42            0.0000     4.5751E+02    10.7780   4.0000    96.6172
  4      8.6756     3.5230E-02    6.0070E-02    1.000000E+07  0.00400  1.271E-02    0   0.8862   age070_m42            0.0000     2.1769E+02     7.0449   3.5048    93.5072
  5      0.5569     5.6692E-03    8.9159E-03    2.512000E+07  0.00400  5.070E-03    0   0.8174   age090_m42            0.0000     1.8609E+02     6.4916   3.3747    95.2755
  6      0.0000     0.0000E+00    0.0000E+00    4.000000E+07  0.00400  3.505E-03    0   0.7851   age104_m42            0.0000     1.3630E+02     5.1653   3.0700    98.1965
  7      0.0000     0.0000E+00    0.0000E+00    1.015200E+08  0.00400  2.268E-03    0   0.7207   age116_m42            0.0000     7.1477E+02    10.1471   3.1420   105.4754
  8      0.0000     0.0000E+00    0.0000E+00    2.861200E+08  0.00400  1.079E-03    0   0.6613   age125_m42            0.0000     7.7889E+02    10.9347   2.6548   107.4040
  9      0.0000     0.0000E+00    0.0000E+00    6.405400E+08  0.00400  5.077E-04    0   0.6197   age132_m42            0.0000     8.2046E+02    11.4305   2.2971   111.3703
 10      0.0000     0.0000E+00    0.0000E+00    9.047900E+08  0.00400  3.535E-04    0   0.6024   age135_m42            0.0000     5.7714E+02     9.7529   2.0504   110.8339
 11      0.0000     0.0000E+00    0.0000E+00    1.434000E+09  0.00400  1.910E-04    0   0.5716   age139_m42            0.0000     3.2945E+02     7.8162   1.5224   109.8004
 12     25.5455     1.3429E+01    1.4115E+01    2.500000E+09  0.00400  9.818E-05    0   0.5463   age150_m42            0.0000     1.3611E+02     5.4092   1.2300   105.5764
 13     40.8377     4.4675E+01    4.4938E+01    5.000000E+09  0.00400  4.718E-05    0   0.5228   age161_m42            0.0000     8.3625E+01     4.3973   1.0524   102.5245
 14      1.4647     3.4286E+00    3.2851E+00    1.100000E+10  0.00400  2.205E-05    0   0.4980   age185_m42            0.0000     1.4229E+02     5.4001   0.7898   100.5217
 15      0.0000     0.0000E+00    0.0000E+00    1.300000E+10  0.00400  1.883E-05    0   0.4927   age193_m42            0.0000     1.5252E+02     5.5526   0.7715   100.4124
 16      0.5505     1.4284E-03    2.7483E-03    1.000000E+06  0.02000  1.989E-02    0   1.0000   age020_m62            0.0000     2.2827E+03    22.1572   4.0000    99.6271
 17      0.9199     1.2587E-03    2.3873E-03    3.160000E+06  0.02000  3.772E-02    0   0.9858   age045_m62            0.0000     1.6432E+03    19.3101   4.0000    99.7292
 18      2.0662     3.3047E-03    5.9400E-03    5.010000E+06  0.02000  3.227E-02    0   0.9342   age055_m62            0.0000     2.8091E+02     7.9961   4.0000    96.2727
 19      0.7587     3.8730E-03    6.5211E-03    1.000000E+07  0.02000  1.011E-02    0   0.8751   age070_m62            0.0000     4.7091E+02    11.0445   3.5048    90.6620
 20      0.0000     0.0000E+00    0.0000E+00    2.512000E+07  0.02000  4.206E-03    0   0.8099   age090_m62            0.0000     3.1726E+02     9.1368   3.4413    91.5526
 21      0.0000     0.0000E+00    0.0000E+00    4.000000E+07  0.02000  3.373E-03    0   0.7799   age104_m62            0.0000     2.0186E+02     5.4676   3.2942    99.4576
 22      0.0000     0.0000E+00    0.0000E+00    1.015200E+08  0.02000  1.878E-03    0   0.7221   age116_m62            0.0000     6.2523E+02     9.3217   3.1580   106.3248
 23      0.0000     0.0000E+00    0.0000E+00    2.861200E+08  0.02000  8.869E-04    0   0.6700   age125_m62            0.0000     1.1797E+03    13.4341   2.6785   112.3252
 24      0.0000     0.0000E+00    0.0000E+00    6.405400E+08  0.02000  3.657E-04    0   0.6322   age132_m62            0.0000     8.7134E+02    12.1919   2.0029   115.6283
 25      0.0000     0.0000E+00    0.0000E+00    9.047900E+08  0.02000  2.312E-04    0   0.6152   age135_m62            0.0000     5.5399E+02     9.9881   1.6233   114.8454
 26      0.0000     0.0000E+00    0.0000E+00    1.434000E+09  0.02000  1.168E-04    0   0.5865   age139_m62            0.0000     2.2984E+02     6.6896   1.1848   109.6615
 27      0.0000     0.0000E+00    0.0000E+00    2.500000E+09  0.02000  5.505E-05    0   0.5610   age150_m62            0.0000     2.0810E+02     6.5513   0.8085   106.9277
 28      0.0000     0.0000E+00    0.0000E+00    5.000000E+09  0.02000  2.596E-05    0   0.5353   age161_m62            0.0000     3.5571E+02     8.4223   0.4815   106.9501
 29      5.1763     2.2854E+01    2.2439E+01    1.100000E+10  0.02000  1.169E-05    0   0.5103   age185_m62            0.0000     5.7752E+02    10.5146   0.1216   108.5145
 30      2.9169     1.5535E+01    1.5085E+01    1.300000E+10  0.02000  9.691E-06    0   0.5047   age193_m62            0.0000     6.2116E+02    10.8629   0.0760   108.7727
 31      0.0000     0.0000E+00    0.0000E+00    1.000000E+06  0.05000  2.651E-02    0   0.9998   age020_m72            0.0000     2.2748E+03    21.9190   4.0000   100.7451
 32      1.7163     1.8389E-03    3.3885E-03    3.160000E+06  0.05000  4.817E-02    0   0.9577   age045_m72            0.0000     1.0721E+03    15.6586   4.0000   100.5375
 33      0.0000     0.0000E+00    0.0000E+00    5.010000E+06  0.05000  3.101E-02    0   0.9147   age055_m72            0.0000     3.2848E+02     9.3942   4.0000    94.9494
 34      0.0000     0.0000E+00    0.0000E+00    1.000000E+07  0.05000  8.954E-03    0   0.8524   age070_m72            0.0000     7.2217E+02    13.0842   4.0000    99.3749
 35      0.0000     0.0000E+00    0.0000E+00    2.512000E+07  0.05000  4.207E-03    0   0.7902   age090_m72            0.0000     1.9301E+02     5.8362   3.9726    95.0871
 36      0.0000     0.0000E+00    0.0000E+00    4.000000E+07  0.05000  3.198E-03    0   0.7618   age104_m72            0.0000     4.0885E+02     7.3201   3.5144   102.4309
 37      0.0000     0.0000E+00    0.0000E+00    1.015200E+08  0.05000  1.716E-03    0   0.7092   age116_m72            0.0000     7.2875E+02    10.0795   3.2550   106.2781
 38      0.0000     0.0000E+00    0.0000E+00    2.861200E+08  0.05000  7.047E-04    0   0.6618   age125_m72            0.0000     1.1408E+03    13.3408   2.4803   112.7197
 39      0.0000     0.0000E+00    0.0000E+00    6.405400E+08  0.05000  2.633E-04    0   0.6253   age132_m72            0.0000     6.8979E+02    11.0710   1.6303   115.0179
 40      0.0000     0.0000E+00    0.0000E+00    9.047900E+08  0.05000  1.484E-04    0   0.6088   age135_m72            0.0000     3.6249E+02     8.5457   1.1326   110.2564
 41      0.0000     0.0000E+00    0.0000E+00    1.434000E+09  0.05000  7.827E-05    0   0.5847   age139_m72            0.0000     3.1757E+02     8.1991   0.7340   107.1219
 42      0.0000     0.0000E+00    0.0000E+00    2.500000E+09  0.05000  3.759E-05    0   0.5583   age150_m72            0.0000     3.9623E+02     8.9394   0.4067   106.6005
 43      0.0000     0.0000E+00    0.0000E+00    5.000000E+09  0.05000  1.548E-05    0   0.5320   age161_m72            0.0000     6.0446E+02    10.4984  -0.0001   106.4340
 44      0.0000     0.0000E+00    0.0000E+00    1.100000E+10  0.05000  6.532E-06    0   0.5070   age185_m72            0.0000     9.2713E+02    12.6938  -0.3746   106.5993
 45      0.0000     0.0000E+00    0.0000E+00    1.300000E+10  0.05000  5.316E-06    0   0.5018   age193_m72            0.0000     1.0724E+03    13.6039  -0.4884   106.7241


## Synthesis Results - Average & Chains ##

# j      x_j: min, <> & last-chain-values for 1 ...  7 chains
  1      3.4632      3.4436      3.3849      3.4551      3.4961      3.4440      3.4724      3.4366      3.4598
  2      3.8670      3.2969      3.3206      3.4813      3.3932      3.4339      3.3989      3.3046      3.4010
  3      2.0028      2.0024      2.0655      2.0972      1.9972      2.0289      1.8490      1.9379      2.0167
  4      8.6756      8.3918      8.6173      8.3558      8.4030      8.4406      8.5076      8.5641      8.4545
  5      0.5569      0.5086      0.4812      0.4594      0.6021      0.5073      0.5388      0.4853      0.5084
  6      0.0000      0.0779      0.0000      0.1191      0.1337      0.0214      0.0000      0.0000      0.0000
  7      0.0000      0.0318      0.0311      0.0000      0.0000      0.0000      0.0755      0.0000      0.0000
  8      0.0000      0.0258      0.0024      0.0000      0.0000      0.0000      0.0000      0.0000      0.0000
  9      0.0000      0.0333      0.0000      0.0000      0.0000      0.0000      0.0000      0.0936      0.0406
 10      0.0000      0.0651      0.0000      0.0289      0.0651      0.0000      0.1246      0.1784      0.1716
 11      0.0000      0.1084      0.0467      0.0697      0.2521      0.1671      0.0763      0.0416      0.2016
 12     25.5455     25.7970     25.8952     26.0537     25.9363     26.0293     26.0134     26.1031     25.9808
 13     40.8377     39.6185     39.8142     39.9013     39.8533     39.7623     39.7373     39.7716     40.0350
 14      1.4647      1.5169      1.5921      1.5083      1.5696      1.3475      1.4332      1.5333      1.4080
 15      0.0000      0.2723      0.1448      0.1813      0.1122      0.2453      0.2922      0.0427      0.2002
 16      0.5505      0.7059      0.6103      0.6598      0.6593      0.6423      0.7252      0.7023      0.6787
 17      0.9199      1.0030      1.0024      0.9683      1.0257      1.0272      1.0226      0.9939      1.0145
 18      2.0662      1.9746      1.9535      2.0887      1.8750      2.1084      2.0928      2.0136      1.8533
 19      0.7587      0.7592      0.7113      0.5995      0.7794      0.6684      0.6342      0.8126      0.7628
 20      0.0000      0.0192      0.0000      0.0000      0.0000      0.0000      0.0000      0.0000      0.0000
 21      0.0000      0.0280      0.0000      0.0000      0.0387      0.0000      0.0626      0.0112      0.0394
 22      0.0000      0.0232      0.0000      0.0000      0.0170      0.0159      0.0000      0.0000      0.0000
 23      0.0000      0.0147      0.0000      0.0189      0.0000      0.0000      0.0000      0.0000      0.0000
 24      0.0000      0.0289      0.0000      0.0000      0.0000      0.0000      0.0000      0.0400      0.0000
 25      0.0000      0.0354      0.0719      0.0000      0.0000      0.0000      0.1668      0.0000      0.0000
 26      0.0000      0.0714      0.0000      0.0000      0.0555      0.0029      0.0665      0.0752      0.0534
 27      0.0000      0.0809      0.1600      0.0066      0.0088      0.0062      0.0000      0.0000      0.0000
 28      0.0000      0.0702      0.0454      0.0291      0.0000      0.1975      0.0000      0.0000      0.0000
 29      5.1763      4.9956      4.6158      4.9365      4.9260      4.7296      4.9022      4.9353      4.7707
 30      2.9169      2.5350      2.6256      2.6274      2.5668      2.6454      2.4133      2.5565      2.5502
 31      0.0000      0.0290      0.0000      0.0000      0.0000      0.0000      0.0047      0.0539      0.0000
 32      1.7163      1.9828      1.9696      1.9786      1.9458      2.0413      2.0073      1.9674      2.0086
 33      0.0000      0.0537      0.2762      0.0844      0.0126      0.0000      0.0140      0.0000      0.0000
 34      0.0000      0.0145      0.0000      0.0000      0.0000      0.0000      0.0000      0.0000      0.0902
 35      0.0000      0.0183      0.0000      0.0000      0.0000      0.0951      0.0343      0.0000      0.0000
 36      0.0000      0.0242      0.0000      0.0264      0.0502      0.0000      0.0000      0.0000      0.0000
 37      0.0000      0.0231      0.0000      0.0607      0.0176      0.0000      0.0000      0.0000      0.0000
 38      0.0000      0.0259      0.0000      0.0000      0.0000      0.0000      0.0000      0.0000      0.0000
 39      0.0000      0.0509      0.1724      0.0436      0.0288      0.0282      0.0000      0.0437      0.0597
 40      0.0000      0.0933      0.0024      0.0000      0.0000      0.0000      0.0000      0.1295      0.0000
 41      0.0000      0.0613      0.0000      0.0434      0.0000      0.0000      0.0000      0.0000      0.1058
 42      0.0000      0.0749      0.1888      0.1042      0.0907      0.2043      0.1708      0.1608      0.0000
 43      0.0000      0.2668      0.4017      0.2401      0.2905      0.3500      0.2737      0.2306      0.3023
 44      0.0000      0.1987      0.2011      0.2159      0.2158      0.2082      0.2908      0.2328      0.2035
 45      0.0000      0.1020      0.1235      0.0923      0.1024      0.1203      0.1493      0.1088      0.1640

# j      m_j: min, <> & last-chain-values for 1 ...  7 chains
  1  3.0872E-02  3.0454E-02  3.0031E-02  3.0519E-02  3.0965E-02  3.0452E-02  3.0680E-02  3.0485E-02  3.0705E-02
  2  9.4272E-03  7.9738E-03  8.0566E-03  8.4095E-03  8.2190E-03  8.3039E-03  8.2128E-03  8.0169E-03  8.2546E-03
  3  7.4470E-03  7.3865E-03  7.6436E-03  7.7267E-03  7.3785E-03  7.4830E-03  6.8142E-03  7.1706E-03  7.4654E-03
  4  6.0070E-02  5.7644E-02  5.9382E-02  5.7327E-02  5.7808E-02  5.7970E-02  5.8385E-02  5.9009E-02  5.8279E-02
  5  8.9159E-03  8.0790E-03  7.6679E-03  7.2879E-03  9.5771E-03  8.0563E-03  8.5495E-03  7.7318E-03  8.1028E-03
  6  0.0000E+00  1.7192E-03  0.0000E+00  2.6255E-03  2.9553E-03  4.7284E-04  0.0000E+00  0.0000E+00  0.0000E+00
  7  0.0000E+00  9.9404E-04  9.7747E-04  0.0000E+00  0.0000E+00  0.0000E+00  2.3624E-03  0.0000E+00  0.0000E+00
  8  0.0000E+00  1.5553E-03  1.4328E-04  0.0000E+00  0.0000E+00  0.0000E+00  0.0000E+00  0.0000E+00  0.0000E+00
  9  0.0000E+00  4.0063E-03  0.0000E+00  0.0000E+00  0.0000E+00  0.0000E+00  0.0000E+00  1.1289E-02  4.8967E-03
 10  0.0000E+00  1.0921E-02  0.0000E+00  4.8489E-03  1.0943E-02  0.0000E+00  2.0900E-02  3.0043E-02  2.8903E-02
 11  0.0000E+00  3.1965E-02  1.3809E-02  2.0533E-02  7.4444E-02  4.9258E-02  2.2469E-02  1.2304E-02  5.9651E-02
 12  1.4115E+01  1.4141E+01  1.4241E+01  1.4265E+01  1.4239E+01  1.4266E+01  1.4247E+01  1.4353E+01  1.4292E+01
 13  4.4938E+01  4.3250E+01  4.3603E+01  4.3506E+01  4.3572E+01  4.3401E+01  4.3339E+01  4.3551E+01  4.3859E+01
 14  3.2851E+00  3.3752E+00  3.5538E+00  3.3519E+00  3.4978E+00  2.9978E+00  3.1858E+00  3.4221E+00  3.1439E+00
 15  0.0000E+00  7.0191E-01  3.7448E-01  4.6684E-01  2.8971E-01  6.3231E-01  7.5261E-01  1.1039E-01  5.1783E-01
 16  2.7483E-03  3.4964E-03  3.0328E-03  3.2643E-03  3.2705E-03  3.1811E-03  3.5886E-03  3.4894E-03  3.3734E-03
 17  2.3873E-03  2.5825E-03  2.5891E-03  2.4902E-03  2.6449E-03  2.6444E-03  2.6303E-03  2.5668E-03  2.6213E-03
 18  5.9400E-03  5.6316E-03  5.5893E-03  5.9498E-03  5.3557E-03  6.0123E-03  5.9631E-03  5.7606E-03  5.3044E-03
 19  6.5211E-03  6.4744E-03  6.0850E-03  5.1058E-03  6.6562E-03  5.6987E-03  5.4034E-03  6.9505E-03  6.5274E-03
 20  0.0000E+00  3.6482E-04  0.0000E+00  0.0000E+00  0.0000E+00  0.0000E+00  0.0000E+00  0.0000E+00  0.0000E+00
 21  0.0000E+00  6.3826E-04  0.0000E+00  0.0000E+00  8.8230E-04  0.0000E+00  1.4254E-03  2.5651E-04  9.0099E-04
 22  0.0000E+00  8.8020E-04  0.0000E+00  0.0000E+00  6.4441E-04  6.0162E-04  0.0000E+00  0.0000E+00  0.0000E+00
 23  0.0000E+00  1.0934E-03  0.0000E+00  1.4084E-03  0.0000E+00  0.0000E+00  0.0000E+00  0.0000E+00  0.0000E+00
 24  0.0000E+00  4.9224E-03  0.0000E+00  0.0000E+00  0.0000E+00  0.0000E+00  0.0000E+00  6.8269E-03  0.0000E+00
 25  0.0000E+00  9.2689E-03  1.8904E-02  0.0000E+00  0.0000E+00  0.0000E+00  4.3692E-02  0.0000E+00  0.0000E+00
 26  0.0000E+00  3.5320E-02  0.0000E+00  0.0000E+00  2.7510E-02  1.4418E-03  3.2842E-02  3.7333E-02  2.6500E-02
 27  0.0000E+00  8.1222E-02  1.6110E-01  6.5807E-03  8.8855E-03  6.1859E-03  0.0000E+00  0.0000E+00  0.0000E+00
 28  0.0000E+00  1.4259E-01  9.2460E-02  5.8957E-02  0.0000E+00  4.0107E-01  0.0000E+00  0.0000E+00  0.0000E+00
 29  2.2439E+01  2.1484E+01  1.9914E+01  2.1204E+01  2.1216E+01  2.0337E+01  2.1063E+01  2.1290E+01  2.0589E+01
 30  1.5085E+01  1.3007E+01  1.3514E+01  1.3464E+01  1.3189E+01  1.3571E+01  1.2370E+01  1.3157E+01  1.3131E+01
 31  0.0000E+00  1.0770E-04  0.0000E+00  0.0000E+00  0.0000E+00  0.0000E+00  1.7534E-05  2.0076E-04  0.0000E+00
 32  3.3885E-03  3.8836E-03  3.8702E-03  3.8707E-03  3.8169E-03  3.9977E-03  3.9281E-03  3.8654E-03  3.9482E-03
 33  0.0000E+00  1.5609E-04  8.0507E-04  2.4499E-04  3.6545E-05  0.0000E+00  4.0512E-05  0.0000E+00  0.0000E+00
