###################################################################
## OUTPUT of StarlightChains_v04.for    [Cid@UFSC - 01/Apr/2007] ##
###################################################################

## Some input info
NGC6723_a_1.cxt                          [arq_obs]
Base.BC03.N                              [arq_base]
NGC6723_a_1.msk                          [arq_masks]
StCv04.C11.config                        [arq_config]
   45                                    [N_base]
    0                                    [N_YAV_components = # of components with extra extinction!]
    0                                    [i_FitPowerLaw (1/0 = Yes/No)]
-9.99                                    [alpha_PowerLaw]
CCM                                      [red_law_option]
 1.458241                                [q_norm = A(l_norm)/A(V)]

## (Re)Sampling Parameters
 3359.00                                 [l_ini (A)]
 6428.00                                 [l_fin (A)]
    1.00                                 [dl    (A)]     (OBS: dl_cushion =    50.00 A)

## Normalization info
 4020.00                                 [l_norm (A) - for base]
 4010.00                                 [llow_norm (A) - window for f_obs]
 4060.00                                 [lupp_norm (A) - window for f_obs]
2.195815E-14                             [fobs_norm (in input units)]

## S/N
 4730.00                                 [llow_SN (A) - window for S/N]
 4780.00                                 [lupp_SN (A) - window for S/N]
  66.760                                 [S/N in S/N window]
  58.282                                 [S/N in norm. window]
  95.225                                 [S/N_err in S/N window]
  83.132                                 [S/N_err in norm. window]
  1.0000                                 [fscale_chi2]

## etc...
  2147483590                             [idum_orig]
  3065                                   [NOl_eff]
  1735                                   [Nl_eff]
  1330    NSIGMA                         [Ntot_cliped & clip_method]
   627900                                [Nglobal_steps]
   7                                     [N_chains]
   8                                     [NEX0s_base = N_base in EX0s-fits]
 0   0   1      119   2.0   1.985E+02    [Clip-Bug, RC-Crash & Burn-In warning-flags, n_censored_weights, wei_nsig_threshold & wei_limit]
     8      8.639      8.627      0.012  [idt_all, wdt_TotTime, wdt_UsrTime & wdt_SysTime (sec)]

## Synthesis Results - Best model ##

 2.66864E+00                             [chi2/Nl_eff]
     1.93603                             [adev (%)]

   102.83945                             [sum-of-x (%)]
 2.87598E-14                             [Flux_tot (units of input spectrum!)]
 3.08882E-10                             [Mini_tot (???)]
 1.66893E-10                             [Mcor_tot (???)]

   6.30                                  [v0_min  (km/s)]
  52.92                                  [vd_min  (km/s)]
 0.1801                                  [AV_min  (mag)]
 0.0000                                  [YAV_min (mag)]

# j     x_j(%)      Mini_j(%)     Mcor_j(%)     age_j(yr)     Z_j      (L/M)_j    YAV?  Mstars   component_j        a/Fe...       SSP_chi2r SSP_adev(%)   SSP_AV   SSP_x(%)
  1      0.0000     0.0000E+00    0.0000E+00    1.000000E+06  0.00400  1.114E-02    0   1.0000   age020_m42            0.0000     1.3450E+02    12.5472   3.6172    81.6123
  2      4.7773     1.0620E-02    1.9652E-02    3.160000E+06  0.00400  4.073E-02    0   0.9999   age045_m42            0.0000     4.6246E+01     7.1667   2.7050    94.1130
  3      0.0000     0.0000E+00    0.0000E+00    5.010000E+06  0.00400  2.534E-02    0   0.9488   age055_m42            0.0000     7.9875E+01     9.9689   3.0864    88.5725
  4      3.5254     2.5113E-02    4.1189E-02    1.000000E+07  0.00400  1.271E-02    0   0.8862   age070_m42            0.0000     7.7475E+01    10.0329   2.3067    91.9653
  5      0.0004     8.0199E-06    1.2133E-05    2.512000E+07  0.00400  5.070E-03    0   0.8174   age090_m42            0.0000     6.9890E+01     9.5116   2.1833    93.2787
  6      0.0000     0.0000E+00    0.0000E+00    4.000000E+07  0.00400  3.505E-03    0   0.7851   age104_m42            0.0000     4.9258E+01     7.8122   1.8796    95.7789
  7      5.1224     2.0448E-01    2.7275E-01    1.015200E+08  0.00400  2.268E-03    0   0.7207   age116_m42            0.0000     9.2099E+01     6.6981   1.9527   102.6932
  8      0.0000     0.0000E+00    0.0000E+00    2.861200E+08  0.00400  1.079E-03    0   0.6613   age125_m42            0.0000     9.4764E+01     6.9006   1.4694   104.4625
  9      0.0000     0.0000E+00    0.0000E+00    6.405400E+08  0.00400  5.077E-04    0   0.6197   age132_m42            0.0000     9.6097E+01     7.3015   1.1072   108.4372
 10      3.3686     8.6276E-01    9.6190E-01    9.047900E+08  0.00400  3.535E-04    0   0.6024   age135_m42            0.0000     5.9054E+01     5.8973   0.8531   108.1331
 11      0.0000     0.0000E+00    0.0000E+00    1.434000E+09  0.00400  1.910E-04    0   0.5716   age139_m42            0.0000     2.0052E+01     3.7728   0.3016   107.4946
 12     71.7655     6.6180E+01    6.6913E+01    2.500000E+09  0.00400  9.818E-05    0   0.5463   age150_m42            0.0000     4.7187E+00     2.4850  -0.0007   103.6978
 13     12.9275     2.4808E+01    2.4004E+01    5.000000E+09  0.00400  4.718E-05    0   0.5228   age161_m42            0.0000     1.0653E+01     3.1304  -0.1806   100.7386
 14      0.0000     0.0000E+00    0.0000E+00    1.100000E+10  0.00400  2.205E-05    0   0.4980   age185_m42            0.0000     3.2713E+01     4.7963  -0.4520    98.8041
 15      0.0000     0.0000E+00    0.0000E+00    1.300000E+10  0.00400  1.883E-05    0   0.4927   age193_m42            0.0000     3.6879E+01     5.0356  -0.4702    98.6563
 16      0.0000     0.0000E+00    0.0000E+00    1.000000E+06  0.02000  1.989E-02    0   1.0000   age020_m62            0.0000     1.3773E+02    12.5189   3.5861    82.1505
 17      0.0000     0.0000E+00    0.0000E+00    3.160000E+06  0.02000  3.772E-02    0   0.9858   age045_m62            0.0000     1.2750E+02    12.2347   3.4501    84.2311
 18      0.0000     0.0000E+00    0.0000E+00    5.010000E+06  0.02000  3.227E-02    0   0.9342   age055_m62            0.0000     6.3293E+01     8.6577   2.9594    91.0121
 19      0.0000     0.0000E+00    0.0000E+00    1.000000E+07  0.02000  1.011E-02    0   0.8751   age070_m62            0.0000     1.5610E+02    14.1077   2.3177    88.6832
 20      0.0000     0.0000E+00    0.0000E+00    2.512000E+07  0.02000  4.206E-03    0   0.8099   age090_m62            0.0000     1.1676E+02    12.2458   2.2601    89.3282
 21      0.0000     0.0000E+00    0.0000E+00    4.000000E+07  0.02000  3.373E-03    0   0.7799   age104_m62            0.0000     5.6199E+01     7.7587   2.1130    96.7017
 22      0.0000     0.0000E+00    0.0000E+00    1.015200E+08  0.02000  1.878E-03    0   0.7221   age116_m62            0.0000     8.7481E+01     6.8382   1.9764   103.0336
 23      0.0000     0.0000E+00    0.0000E+00    2.861200E+08  0.02000  8.869E-04    0   0.6700   age125_m62            0.0000     1.5207E+02     8.5657   1.4950   108.6291
 24      0.0000     0.0000E+00    0.0000E+00    6.405400E+08  0.02000  3.657E-04    0   0.6322   age132_m62            0.0000     8.9271E+01     6.9343   0.7907   112.6801
 25      0.0000     0.0000E+00    0.0000E+00    9.047900E+08  0.02000  2.312E-04    0   0.6152   age135_m62            0.0000     4.4019E+01     5.2641   0.3953   112.3493
 26      0.0000     0.0000E+00    0.0000E+00    1.434000E+09  0.02000  1.168E-04    0   0.5865   age139_m62            0.0000     1.1646E+01     3.3978  -0.0505   107.4698
 27      0.0000     0.0000E+00    0.0000E+00    2.500000E+09  0.02000  5.505E-05    0   0.5610   age150_m62            0.0000     2.3741E+01     4.5376  -0.4401   104.9823
 28      0.0000     0.0000E+00    0.0000E+00    5.000000E+09  0.02000  2.596E-05    0   0.5353   age161_m62            0.0000     6.4084E+01     6.6426  -0.7790   105.0040
 29      0.0000     0.0000E+00    0.0000E+00    1.100000E+10  0.02000  1.169E-05    0   0.5103   age185_m62            0.0000     1.2345E+02     8.2713  -1.0000   102.5725
 30      0.0000     0.0000E+00    0.0000E+00    1.300000E+10  0.02000  9.691E-06    0   0.5047   age193_m62            0.0000     1.3900E+02     8.7159  -1.0000   101.5564
 31      0.0000     0.0000E+00    0.0000E+00    1.000000E+06  0.05000  2.651E-02    0   0.9998   age020_m72            0.0000     1.2866E+02    11.9875   3.5935    82.9174
 32      0.0000     0.0000E+00    0.0000E+00    3.160000E+06  0.05000  4.817E-02    0   0.9577   age045_m72            0.0000     9.5471E+01    10.5572   3.3208    87.1809
 33      0.0000     0.0000E+00    0.0000E+00    5.010000E+06  0.05000  3.101E-02    0   0.9147   age055_m72            0.0000     9.0519E+01    10.5002   2.9704    89.5602
 34      0.0000     0.0000E+00    0.0000E+00    1.000000E+07  0.05000  8.954E-03    0   0.8524   age070_m72            0.0000     9.2128E+01    10.2503   3.2136    88.0481
 35      0.0000     0.0000E+00    0.0000E+00    2.512000E+07  0.05000  4.207E-03    0   0.7902   age090_m72            0.0000     5.7347E+01     7.9261   2.8019    92.8639
 36      0.0000     0.0000E+00    0.0000E+00    4.000000E+07  0.05000  3.198E-03    0   0.7618   age104_m72            0.0000     6.0477E+01     5.9035   2.3332    99.4322
 37      0.0000     0.0000E+00    0.0000E+00    1.015200E+08  0.05000  1.716E-03    0   0.7092   age116_m72            0.0000     1.0118E+02     7.1672   2.0755   102.9230
 38      0.0000     0.0000E+00    0.0000E+00    2.861200E+08  0.05000  7.047E-04    0   0.6618   age125_m72            0.0000     1.3939E+02     8.0096   1.2825   109.2948
 39      0.0000     0.0000E+00    0.0000E+00    6.405400E+08  0.05000  2.633E-04    0   0.6253   age132_m72            0.0000     6.0276E+01     6.0103   0.3963   112.5483
 40      0.0000     0.0000E+00    0.0000E+00    9.047900E+08  0.05000  1.484E-04    0   0.6088   age135_m72            0.0000     2.2449E+01     4.5527  -0.1185   108.4594
 41      0.0000     0.0000E+00    0.0000E+00    1.434000E+09  0.05000  7.827E-05    0   0.5847   age139_m72            0.0000     3.6402E+01     5.5622  -0.5281   105.4412
 42      0.0000     0.0000E+00    0.0000E+00    2.500000E+09  0.05000  3.759E-05    0   0.5583   age150_m72            0.0000     7.0774E+01     7.0728  -0.8599   104.8093
 43      1.3523     7.9093E+00    7.7876E+00    5.000000E+09  0.05000  1.548E-05    0   0.5320   age161_m72            0.0000     1.4454E+02     9.3261  -1.0000    97.3986
 44      0.0000     0.0000E+00    0.0000E+00    1.100000E+10  0.05000  6.532E-06    0   0.5070   age185_m72            0.0000     3.1077E+02    14.5952  -1.0000    86.9995
 45      0.0000     0.0000E+00    0.0000E+00    1.300000E+10  0.05000  5.316E-06    0   0.5018   age193_m72            0.0000     3.8199E+02    16.3205  -1.0000    83.8578


## Synthesis Results - Average & Chains ##

# j      x_j: min, <> & last-chain-values for 1 ...  7 chains
  1      0.0000      0.0063      0.0000      0.0000      0.0284      0.0000      0.0000      0.0000      0.0000
  2      4.7773      3.5389      3.6450      3.8482      3.8041      3.7418      3.9866      3.9674      3.5252
  3      0.0000      0.0762      0.0854      0.0000      0.0000      0.0000      0.0267      0.0000      0.0000
  4      3.5254      3.2422      3.1975      3.4524      3.4682      3.5288      3.3201      3.3424      3.6647
  5      0.0004      0.6898      0.6272      0.7397      0.7131      0.7416      0.3647      0.7904      0.5236
  6      0.0000      0.0994      0.1420      0.0000      0.1382      0.0000      0.0000      0.0000      0.0433
  7      5.1224      2.9201      3.3735      3.0609      2.9693      3.4706      2.7641      3.2353      3.2918
  8      0.0000      0.0901      0.0221      0.0000      0.0000      0.0000      0.0000      0.0877      0.0000
  9      0.0000      0.1072      0.0000      0.0000      0.0000      0.0000      0.3691      0.0000      0.0000
 10      3.3686      5.6767      5.7467      6.1111      5.6962      5.5128      6.8935      5.6586      5.7840
 11      0.0000      0.3785      0.2953      0.0000      0.0000      0.2136      0.0000      0.1485      0.0000
 12     71.7655     70.4646     70.7850     71.0946     70.9813     70.7244     69.3264     70.7696     71.0159
 13     12.9275     12.6384     12.6855     12.1758     12.7049     13.1371     12.6270     12.6048     13.1283
 14      0.0000      0.1140      0.0000      0.0000      0.0000      0.0000      0.4554      0.0512      0.0000
 15      0.0000      0.0421      0.0000      0.0000      0.0000      0.0000      0.0078      0.0000      0.0000
 16      0.0000      0.0068      0.0000      0.0000      0.0000      0.0000      0.0000      0.0000      0.0000
 17      0.0000      0.0068      0.0000      0.0000      0.0000      0.0000      0.0000      0.0000      0.0000
 18      0.0000      0.3373      0.5456      0.4095      0.2900      0.3175      0.5717      0.2923      0.3255
 19      0.0000      0.0415      0.0000      0.0000      0.0000      0.0000      0.0000      0.0359      0.0000
 20      0.0000      0.0111      0.0000      0.0000      0.0000      0.0000      0.0000      0.0000      0.0000
 21      0.0000      0.0414      0.0000      0.0000      0.0000      0.0000      0.0000      0.0000      0.1813
 22      0.0000      0.1140      0.0000      0.0000      0.2977      0.0000      0.0000      0.0000      0.0000
 23      0.0000      0.0217      0.0000      0.0000      0.1782      0.0000      0.0000      0.0000      0.0000
 24      0.0000      0.0117      0.0066      0.0000      0.0000      0.0000      0.0000      0.0034      0.0000
 25      0.0000      0.0290      0.0000      0.0589      0.0000      0.0000      0.0239      0.0000      0.0000
 26      0.0000      0.0608      0.0000      0.1168      0.0194      0.0000      0.0000      0.0000      0.0371
 27      0.0000      0.0809      0.1679      0.0000      0.0000      0.0572      0.0102      0.0000      0.0000
 28      0.0000      0.0657      0.0000      0.0000      0.0000      0.0000      0.0000      0.0026      0.0000
 29      0.0000      0.0324      0.0000      0.0000      0.0000      0.0000      0.0000      0.0000      0.0000
 30      0.0000      0.0312      0.0000      0.0000      0.0000      0.0000      0.0000      0.0000      0.0786
 31      0.0000      0.0038      0.0000      0.0000      0.0000      0.0000      0.0000      0.0000      0.0000
 32      0.0000      0.0138      0.0000      0.0000      0.0000      0.0000      0.0000      0.0000      0.0000
 33      0.0000      0.0449      0.0559      0.0000      0.0000      0.0000      0.0443      0.0281      0.0000
 34      0.0000      0.0093      0.0000      0.0000      0.0000      0.0000      0.0000      0.0000      0.0000
 35      0.0000      0.0175      0.0000      0.0000      0.0000      0.0000      0.0122      0.0000      0.0000
 36      0.0000      0.0242      0.0000      0.0000      0.0000      0.0000      0.0647      0.0000      0.0620
 37      0.0000      0.1155      0.0000      0.0000      0.0340      0.0000      0.0000      0.0000      0.0000
 38      0.0000      0.0166      0.0000      0.0000      0.0000      0.0000      0.0000      0.0000      0.0000
 39      0.0000      0.0359      0.0000      0.0000      0.0000      0.0000      0.0000      0.0000      0.0000
 40      0.0000      0.0787      0.0000      0.0169      0.0000      0.0824      0.0959      0.0000      0.0000
 41      0.0000      0.1243      0.0000      0.1636      0.0000      0.0000      0.0000      0.3867      0.0000
 42      0.0000      0.0988      0.0974      0.0695      0.1301      0.0000      0.5976      0.0000      0.0599
 43      1.3523      0.5424      0.4901      0.6682      0.5813      0.6789      0.5811      0.6039      0.4266
 44      0.0000      0.3615      0.4312      0.4917      0.3746      0.2509      0.3503      0.3868      0.2054
 45      0.0000      0.5408      0.6245      0.4668      0.5270      0.4587      0.5312      0.5820      0.6157

# j      m_j: min, <> & last-chain-values for 1 ...  7 chains
  1  0.0000E+00  8.5782E-05  0.0000E+00  0.0000E+00  3.9301E-04  0.0000E+00  0.0000E+00  0.0000E+00  0.0000E+00
  2  1.9652E-02  1.3274E-02  1.3577E-02  1.4520E-02  1.4413E-02  1.4404E-02  1.4910E-02  1.4872E-02  1.3398E-02
  3  0.0000E+00  4.3567E-04  4.8488E-04  0.0000E+00  0.0000E+00  0.0000E+00  1.5247E-04  0.0000E+00  0.0000E+00
  4  4.1189E-02  3.4539E-02  3.3826E-02  3.6999E-02  3.7319E-02  3.8581E-02  3.5267E-02  3.5584E-02  3.9558E-02
  5  1.2133E-05  1.6992E-02  1.5341E-02  1.8329E-02  1.7741E-02  1.8747E-02  8.9577E-03  1.9458E-02  1.3070E-02
  6  0.0000E+00  3.4013E-03  4.8250E-03  0.0000E+00  4.7784E-03  0.0000E+00  0.0000E+00  0.0000E+00  1.5025E-03
  7  2.7275E-01  1.4177E-01  1.6264E-01  1.4950E-01  1.4561E-01  1.7293E-01  1.3381E-01  1.5698E-01  1.6194E-01
  8  0.0000E+00  8.4343E-03  2.0583E-03  0.0000E+00  0.0000E+00  0.0000E+00  0.0000E+00  8.2074E-03  0.0000E+00
  9  0.0000E+00  1.9994E-02  0.0000E+00  0.0000E+00  0.0000E+00  0.0000E+00  6.8643E-02  0.0000E+00  0.0000E+00
 10  9.6190E-01  1.4780E+00  1.4858E+00  1.6006E+00  1.4980E+00  1.4731E+00  1.7897E+00  1.4724E+00  1.5260E+00
 11  0.0000E+00  1.7306E-01  1.3407E-01  0.0000E+00  0.0000E+00  1.0024E-01  0.0000E+00  6.7859E-02  0.0000E+00
 12  6.6913E+01  5.9906E+01  5.9759E+01  6.0802E+01  6.0953E+01  6.1708E+01  5.8768E+01  6.0127E+01  6.1176E+01
 13  2.4004E+01  2.1397E+01  2.1327E+01  2.0737E+01  2.1726E+01  2.2827E+01  2.1316E+01  2.1327E+01  2.2522E+01
 14  0.0000E+00  3.9352E-01  0.0000E+00  0.0000E+00  0.0000E+00  0.0000E+00  1.5670E+00  1.7672E-01  0.0000E+00
 15  0.0000E+00  1.6815E-01  0.0000E+00  0.0000E+00  0.0000E+00  0.0000E+00  3.1189E-02  0.0000E+00  0.0000E+00
 16  0.0000E+00  5.1997E-05  0.0000E+00  0.0000E+00  0.0000E+00  0.0000E+00  0.0000E+00  0.0000E+00  0.0000E+00
 17  0.0000E+00  2.7352E-05  0.0000E+00  0.0000E+00  0.0000E+00  0.0000E+00  0.0000E+00  0.0000E+00  0.0000E+00
 18  0.0000E+00  1.4919E-03  2.3963E-03  1.8219E-03  1.2955E-03  1.4412E-03  2.5212E-03  1.2922E-03  1.4588E-03
 19  0.0000E+00  5.4850E-04  0.0000E+00  0.0000E+00  0.0000E+00  0.0000E+00  0.0000E+00  4.7385E-04  0.0000E+00
 20  0.0000E+00  3.2542E-04  0.0000E+00  0.0000E+00  0.0000E+00  0.0000E+00  0.0000E+00  0.0000E+00  0.0000E+00
 21  0.0000E+00  1.4641E-03  0.0000E+00  0.0000E+00  0.0000E+00  0.0000E+00  0.0000E+00  0.0000E+00  6.4882E-03
 22  0.0000E+00  6.6990E-03  0.0000E+00  0.0000E+00  1.7666E-02  0.0000E+00  0.0000E+00  0.0000E+00  0.0000E+00
 23  0.0000E+00  2.5056E-03  0.0000E+00  0.0000E+00  2.0779E-02  0.0000E+00  0.0000E+00  0.0000E+00  0.0000E+00
 24  0.0000E+00  3.0916E-03  1.7440E-03  0.0000E+00  0.0000E+00  0.0000E+00  0.0000E+00  9.0811E-04  0.0000E+00
 25  0.0000E+00  1.1802E-02  0.0000E+00  2.4069E-02  0.0000E+00  0.0000E+00  9.7006E-03  0.0000E+00  0.0000E+00
 26  0.0000E+00  4.6631E-02  0.0000E+00  9.0179E-02  1.5008E-02  0.0000E+00  0.0000E+00  0.0000E+00  2.8856E-02
 27  0.0000E+00  1.2596E-01  2.5952E-01  0.0000E+00  0.0000E+00  9.1423E-02  1.5815E-02  0.0000E+00  0.0000E+00
 28  0.0000E+00  2.0712E-01  0.0000E+00  0.0000E+00  0.0000E+00  0.0000E+00  0.0000E+00  8.1134E-03  0.0000E+00
 29  0.0000E+00  2.1616E-01  0.0000E+00  0.0000E+00  0.0000E+00  0.0000E+00  0.0000E+00  0.0000E+00  0.0000E+00
 30  0.0000E+00  2.4820E-01  0.0000E+00  0.0000E+00  0.0000E+00  0.0000E+00  0.0000E+00  0.0000E+00  6.3378E-01
 31  0.0000E+00  2.1741E-05  0.0000E+00  0.0000E+00  0.0000E+00  0.0000E+00  0.0000E+00  0.0000E+00  0.0000E+00
 32  0.0000E+00  4.1959E-05  0.0000E+00  0.0000E+00  0.0000E+00  0.0000E+00  0.0000E+00  0.0000E+00  0.0000E+00
 33  0.0000E+00  2.0256E-04  2.5016E-04  0.0000E+00  0.0000E+00  0.0000E+00  1.9888E-04  1.2657E-04  0.0000E+00
