###################################################################
## OUTPUT of StarlightChains_v04.for    [Cid@UFSC - 01/Apr/2007] ##
###################################################################

## Some input info
NGC6284_a_2.cxt                          [arq_obs]
Base.BC03.N                              [arq_base]
NGC6284_a_2.msk                          [arq_masks]
StCv04.C11.config                        [arq_config]
   45                                    [N_base]
    0                                    [N_YAV_components = # of components with extra extinction!]
    0                                    [i_FitPowerLaw (1/0 = Yes/No)]
-9.99                                    [alpha_PowerLaw]
CCM                                      [red_law_option]
 1.458241                                [q_norm = A(l_norm)/A(V)]

## (Re)Sampling Parameters
 3359.00                                 [l_ini (A)]
 6428.00                                 [l_fin (A)]
    1.00                                 [dl    (A)]     (OBS: dl_cushion =    50.00 A)

## Normalization info
 4020.00                                 [l_norm (A) - for base]
 4010.00                                 [llow_norm (A) - window for f_obs]
 4060.00                                 [lupp_norm (A) - window for f_obs]
1.360561E-14                             [fobs_norm (in input units)]

## S/N
 4730.00                                 [llow_SN (A) - window for S/N]
 4780.00                                 [lupp_SN (A) - window for S/N]
  73.354                                 [S/N in S/N window]
  58.120                                 [S/N in norm. window]
  64.892                                 [S/N_err in S/N window]
  51.416                                 [S/N_err in norm. window]
  1.0000                                 [fscale_chi2]

## etc...
  2147483620                             [idum_orig]
  3068                                   [NOl_eff]
  1719                                   [Nl_eff]
  1349    NSIGMA                         [Ntot_cliped & clip_method]
   872900                                [Nglobal_steps]
   7                                     [N_chains]
  14                                     [NEX0s_base = N_base in EX0s-fits]
 0   0   1      379   2.0   9.368E+02    [Clip-Bug, RC-Crash & Burn-In warning-flags, n_censored_weights, wei_nsig_threshold & wei_limit]
    10      9.719      9.719      0.000  [idt_all, wdt_TotTime, wdt_UsrTime & wdt_SysTime (sec)]

## Synthesis Results - Best model ##

 1.91042E+00                             [chi2/Nl_eff]
     1.52579                             [adev (%)]

   104.56087                             [sum-of-x (%)]
 4.66963E-14                             [Flux_tot (units of input spectrum!)]
 6.19474E-10                             [Mini_tot (???)]
 3.27012E-10                             [Mcor_tot (???)]

  -8.83                                  [v0_min  (km/s)]
 102.70                                  [vd_min  (km/s)]
 0.8850                                  [AV_min  (mag)]
 0.0000                                  [YAV_min (mag)]

# j     x_j(%)      Mini_j(%)     Mcor_j(%)     age_j(yr)     Z_j      (L/M)_j    YAV?  Mstars   component_j        a/Fe...       SSP_chi2r SSP_adev(%)   SSP_AV   SSP_x(%)
  1      0.0000     0.0000E+00    0.0000E+00    1.000000E+06  0.00400  1.114E-02    0   1.0000   age020_m42            0.0000     3.7169E+02    15.7791   4.0000    74.4238
  2      1.7217     3.0475E-03    5.7724E-03    3.160000E+06  0.00400  4.073E-02    0   0.9999   age045_m42            0.0000     3.8504E+01     3.8528   3.3902    89.1635
  3      0.0000     0.0000E+00    0.0000E+00    5.010000E+06  0.00400  2.534E-02    0   0.9488   age055_m42            0.0000     8.7955E+01     5.4111   3.8411    80.9398
  4      5.5522     3.1493E-02    5.2869E-02    1.000000E+07  0.00400  1.271E-02    0   0.8862   age070_m42            0.0000     6.3459E+01     6.0096   3.0636    84.1951
  5      0.5836     8.2980E-03    1.2849E-02    2.512000E+07  0.00400  5.070E-03    0   0.8174   age090_m42            0.0000     6.0482E+01     5.7479   2.9247    86.2347
  6      0.0000     0.0000E+00    0.0000E+00    4.000000E+07  0.00400  3.505E-03    0   0.7851   age104_m42            0.0000     4.7183E+01     4.6969   2.5853    90.5734
  7     21.2068     6.7410E-01    9.2031E-01    1.015200E+08  0.00400  2.268E-03    0   0.7207   age116_m42            0.0000     3.4570E+02     4.6887   2.4546   106.0717
  8      0.0000     0.0000E+00    0.0000E+00    2.861200E+08  0.00400  1.079E-03    0   0.6613   age125_m42            0.0000     3.4744E+02     5.3178   1.9202   110.4935
  9      0.0000     0.0000E+00    0.0000E+00    6.405400E+08  0.00400  5.077E-04    0   0.6197   age132_m42            0.0000     3.6110E+02     5.6603   1.5366   115.8835
 10      0.0000     0.0000E+00    0.0000E+00    9.047900E+08  0.00400  3.535E-04    0   0.6024   age135_m42            0.0000     2.0117E+02     4.7033   1.3113   114.7395
 11      0.0000     2.4862E-06    2.6921E-06    1.434000E+09  0.00400  1.910E-04    0   0.5716   age139_m42            0.0000     4.8472E+01     3.5828   0.7884   114.4597
 12     46.8955     3.4435E+01    3.5636E+01    2.500000E+09  0.00400  9.818E-05    0   0.5463   age150_m42            0.0000     1.4499E+01     2.6283   0.5454   108.6242
 13     26.5214     4.0526E+01    4.0135E+01    5.000000E+09  0.00400  4.718E-05    0   0.5228   age161_m42            0.0000     5.7199E+01     2.5048   0.4028   104.1569
 14      0.0000     0.0000E+00    0.0000E+00    1.100000E+10  0.00400  2.205E-05    0   0.4980   age185_m42            0.0000     1.4880E+02     3.4035   0.1397   102.7396
 15      0.0000     0.0000E+00    0.0000E+00    1.300000E+10  0.00400  1.883E-05    0   0.4927   age193_m42            0.0000     1.6810E+02     3.5114   0.1247   102.5374
 16      0.0000     0.0000E+00    0.0000E+00    1.000000E+06  0.02000  1.989E-02    0   1.0000   age020_m62            0.0000     3.5495E+02    14.5916   4.0000    75.1852
 17      0.0000     0.0000E+00    0.0000E+00    3.160000E+06  0.02000  3.772E-02    0   0.9858   age045_m62            0.0000     2.3950E+02    10.6145   4.0000    76.7911
 18      0.0789     1.7622E-04    3.1186E-04    5.010000E+06  0.02000  3.227E-02    0   0.9342   age055_m62            0.0000     5.8573E+01     4.9588   3.6825    84.5089
 19      0.0002     1.4715E-06    2.4394E-06    1.000000E+07  0.02000  1.011E-02    0   0.8751   age070_m62            0.0000     1.7209E+02     9.5087   3.1308    78.4806
 20      0.0000     0.0000E+00    0.0000E+00    2.512000E+07  0.02000  4.206E-03    0   0.8099   age090_m62            0.0000     1.4220E+02     7.9781   3.0458    80.5554
 21      0.0000     0.0000E+00    0.0000E+00    4.000000E+07  0.02000  3.373E-03    0   0.7799   age104_m62            0.0000     6.8704E+01     4.8056   2.7900    92.2250
 22      0.0000     2.6354E-07    3.6049E-07    1.015200E+08  0.02000  1.878E-03    0   0.7221   age116_m62            0.0000     3.0062E+02     4.3355   2.5136   104.7584
 23      0.0000     0.0000E+00    0.0000E+00    2.861200E+08  0.02000  8.869E-04    0   0.6700   age125_m62            0.0000     6.1672E+02     6.7440   1.8878   117.9681
 24      0.0000     0.0000E+00    0.0000E+00    6.405400E+08  0.02000  3.657E-04    0   0.6322   age132_m62            0.0000     2.8886E+02     6.6020   1.1529   126.1548
 25      0.0000     0.0000E+00    0.0000E+00    9.047900E+08  0.02000  2.312E-04    0   0.6152   age135_m62            0.0000     1.0491E+02     5.3742   0.8053   124.4015
 26      0.0000     0.0000E+00    0.0000E+00    1.434000E+09  0.02000  1.168E-04    0   0.5865   age139_m62            0.0000     1.8537E+01     3.5874   0.4534   115.3122
 27      0.0000     0.0000E+00    0.0000E+00    2.500000E+09  0.02000  5.505E-05    0   0.5610   age150_m62            0.0000     8.9344E+01     4.0224   0.0959   112.2415
 28      0.0000     0.0000E+00    0.0000E+00    5.000000E+09  0.02000  2.596E-05    0   0.5353   age161_m62            0.0000     2.4943E+02     5.4388  -0.2593   114.4484
 29      0.0000     0.0000E+00    0.0000E+00    1.100000E+10  0.02000  1.169E-05    0   0.5103   age185_m62            0.0000     4.4288E+02     6.8235  -0.6517   118.3528
 30      0.0000     0.0000E+00    0.0000E+00    1.300000E+10  0.02000  9.691E-06    0   0.5047   age193_m62            0.0000     4.8600E+02     7.0130  -0.7001   118.8823
 31      0.0000     0.0000E+00    0.0000E+00    1.000000E+06  0.05000  2.651E-02    0   0.9998   age020_m72            0.0000     3.4447E+02    14.4270   4.0000    76.2352
 32      0.0000     0.0000E+00    0.0000E+00    3.160000E+06  0.05000  4.817E-02    0   0.9577   age045_m72            0.0000     1.2664E+02     6.6224   4.0000    79.7520
 33      0.0000     0.0000E+00    0.0000E+00    5.010000E+06  0.05000  3.101E-02    0   0.9147   age055_m72            0.0000     1.0068E+02     6.0067   3.7296    81.4603
 34      0.0000     0.0000E+00    0.0000E+00    1.000000E+07  0.05000  8.954E-03    0   0.8524   age070_m72            0.0000     1.3682E+02     6.2799   3.9616    80.5878
 35      0.0000     0.0000E+00    0.0000E+00    2.512000E+07  0.05000  4.207E-03    0   0.7902   age090_m72            0.0000     7.1146E+01     4.9779   3.4916    87.7165
 36      0.0000     0.0000E+00    0.0000E+00    4.000000E+07  0.05000  3.198E-03    0   0.7618   age104_m72            0.0000     1.6441E+02     3.9353   2.9114    99.2426
 37      0.0000     1.8358E-07    2.4663E-07    1.015200E+08  0.05000  1.716E-03    0   0.7092   age116_m72            0.0000     3.6151E+02     4.7123   2.5839   105.7350
 38      0.0000     0.0000E+00    0.0000E+00    2.861200E+08  0.05000  7.047E-04    0   0.6618   age125_m72            0.0000     5.6147E+02     6.7766   1.6594   120.2871
 39      0.0000     0.0000E+00    0.0000E+00    6.405400E+08  0.05000  2.633E-04    0   0.6253   age132_m72            0.0000     1.6665E+02     5.9839   0.7715   126.5582
 40      0.0000     0.0000E+00    0.0000E+00    9.047900E+08  0.05000  1.484E-04    0   0.6088   age135_m72            0.0000     2.9462E+01     4.8405   0.3327   119.6109
 41      0.0000     0.0000E+00    0.0000E+00    1.434000E+09  0.05000  7.827E-05    0   0.5847   age139_m72            0.0000     1.0834E+02     5.2651  -0.0337   115.5002
 42      0.0000     0.0000E+00    0.0000E+00    2.500000E+09  0.05000  3.759E-05    0   0.5583   age150_m72            0.0000     2.5976E+02     5.9445  -0.3493   114.9026
 43      0.0379     1.7674E-01    1.7811E-01    5.000000E+09  0.05000  1.548E-05    0   0.5320   age161_m72            0.0000     4.1912E+02     7.1964  -0.7852   116.4017
 44      0.9783     1.0797E+01    1.0370E+01    1.100000E+10  0.05000  6.532E-06    0   0.5070   age185_m72            0.0000     5.8548E+02    11.4684  -1.0000   117.0480
 45      0.9843     1.3349E+01    1.2689E+01    1.300000E+10  0.05000  5.316E-06    0   0.5018   age193_m72            0.0000     7.0588E+02    14.7728  -1.0000   116.1810


## Synthesis Results - Average & Chains ##

# j      x_j: min, <> & last-chain-values for 1 ...  7 chains
  1      0.0000      0.0120      0.0000      0.0000      0.0000      0.0000      0.0000      0.0000      0.0139
  2      1.7217      0.7486      1.4630      1.0752      0.8789      0.8148      1.1799      0.8533      0.7252
  3      0.0000      0.1308      0.0200      0.2399      0.1246      0.2032      0.0000      0.0000      0.1365
  4      5.5522      4.2098      4.2307      4.6910      4.3257      4.3312      4.4246      4.2190      4.6040
  5      0.5836      0.5542      0.8938      0.5789      0.6467      0.8120      0.5910      0.7577      0.5941
  6      0.0000      0.1153      0.0000      0.0000      0.0000      0.0000      0.0000      0.3092      0.0525
  7     21.2068     19.8218     20.4669     19.9435     20.3320     20.1069     19.8891     20.3159     19.9321
  8      0.0000      0.1009      0.0000      0.0305      0.0000      0.2410      0.0000      0.0000      0.0000
  9      0.0000      0.1891      0.0000      0.0000      0.0000      0.0000      0.1791      0.1300      0.1004
 10      0.0000      0.2320      0.2506      0.7442      0.2812      0.0000      0.2569      0.0000      0.2920
 11      0.0000      0.1315      0.1618      0.0000      0.0310      0.0000      0.4790      0.0176      0.2719
 12     46.8955     48.1435     47.9401     47.2906     47.8198     47.9303     47.5058     48.3134     47.8602
 13     26.5214     25.2958     24.9429     25.0170     25.3740     25.1674     25.1143     25.1690     25.0173
 14      0.0000      0.1643      0.3087      0.1956      0.2212      0.0708      0.0000      0.0000      0.3389
 15      0.0000      0.1553      0.0000      0.6070      0.0000      0.0000      0.0000      0.0000      0.1569
 16      0.0000      0.0119      0.0000      0.0000      0.0000      0.0000      0.0000      0.0090      0.0000
 17      0.0000      0.0102      0.0000      0.0000      0.0000      0.0000      0.0000      0.0000      0.0000
 18      0.0789      0.2026      0.0000      0.0000      0.4520      0.1766      0.3931      0.2306      0.3396
 19      0.0002      0.2139      0.1076      0.0815      0.3354      0.4171      0.3943      0.3943      0.3591
 20      0.0000      0.0140      0.0000      0.0000      0.0768      0.0000      0.0000      0.0000      0.0000
 21      0.0000      0.0954      0.0000      0.1871      0.0000      0.0000      0.0645      0.0000      0.0000
 22      0.0000      0.3930      0.3841      0.1087      0.5719      0.5096      0.4825      0.4858      0.5658
 23      0.0000      0.0666      0.0000      0.0000      0.0000      0.0000      0.0000      0.0000      0.0000
 24      0.0000      0.0213      0.0000      0.0000      0.0000      0.0000      0.0000      0.0000      0.0000
 25      0.0000      0.0458      0.0000      0.0000      0.0417      0.0000      0.0000      0.0000      0.0000
 26      0.0000      0.0510      0.0311      0.0000      0.0000      0.0000      0.2034      0.1348      0.0000
 27      0.0000      0.1641      0.0717      0.0000      0.0936      0.0252      0.0000      0.4289      0.0797
 28      0.0000      0.0597      0.1137      0.1496      0.0000      0.0335      0.0000      0.0000      0.0036
 29      0.0000      0.2078      0.0000      0.0262      0.2662      0.1632      0.1198      0.0000      0.3963
 30      0.0000      0.2609      0.3324      0.2049      0.2888      0.4428      0.2959      0.2113      0.2599
 31      0.0000      0.0074      0.0000      0.0000      0.0000      0.0000      0.0000      0.0000      0.0019
 32      0.0000      0.0291      0.0911      0.0098      0.0000      0.0000      0.0000      0.0000      0.0000
 33      0.0000      0.0339      0.0000      0.0000      0.0000      0.0000      0.0328      0.0000      0.0000
 34      0.0000      0.0138      0.0000      0.0000      0.0000      0.0000      0.0000      0.0000      0.0000
 35      0.0000      0.0282      0.0000      0.0000      0.0000      0.0000      0.0000      0.0000      0.0000
 36      0.0000      0.3525      0.3800      0.3977      0.0963      0.3849      0.3543      0.3026      0.3458
 37      0.0000      0.4465      0.3246      0.7968      0.5062      0.6483      0.3841      0.4081      0.4635
 38      0.0000      0.0548      0.0000      0.0338      0.0000      0.0000      0.0208      0.0000      0.0417
 39      0.0000      0.0457      0.0000      0.0000      0.0307      0.0000      0.0000      0.0000      0.0000
 40      0.0000      0.0814      0.0275      0.0000      0.0621      0.0652      0.0000      0.0000      0.0000
 41      0.0000      0.0405      0.0000      0.0000      0.0000      0.0000      0.0982      0.0000      0.0346
 42      0.0000      0.1063      0.0000      0.2092      0.0289      0.0000      0.1606      0.0000      0.0000
 43      0.0379      0.6324      0.5616      0.6918      0.6413      0.5599      0.7372      0.6662      0.6674
 44      0.9783      0.7668      1.2466      0.8401      0.6963      0.7488      0.7474      0.9228      0.6726
 45      0.9843      0.7168      0.7140      0.8528      0.7545      1.1538      0.8432      0.7710      0.6317

# j      m_j: min, <> & last-chain-values for 1 ...  7 chains
  1  0.0000E+00  1.4493E-04  0.0000E+00  0.0000E+00  0.0000E+00  0.0000E+00  0.0000E+00  0.0000E+00  1.7108E-04
  2  5.7724E-03  2.4783E-03  4.7103E-03  3.4879E-03  2.9316E-03  2.5896E-03  3.9158E-03  2.8356E-03  2.4359E-03
  3  0.0000E+00  6.6024E-04  9.8019E-05  1.1867E-03  6.3410E-04  9.8512E-04  0.0000E+00  0.0000E+00  6.9955E-04
  4  5.2869E-02  3.9582E-02  3.8686E-02  4.3220E-02  4.0979E-02  3.9096E-02  4.1707E-02  3.9822E-02  4.3924E-02
  5  1.2849E-02  1.2049E-02  1.8899E-02  1.2333E-02  1.4167E-02  1.6948E-02  1.2882E-02  1.6538E-02  1.3107E-02
  6  0.0000E+00  3.4836E-03  0.0000E+00  0.0000E+00  0.0000E+00  0.0000E+00  0.0000E+00  9.3742E-03  1.6076E-03
  7  9.2031E-01  8.4939E-01  8.5295E-01  8.3743E-01  8.7783E-01  8.2717E-01  8.5442E-01  8.7392E-01  8.6666E-01
  8  0.0000E+00  8.3373E-03  0.0000E+00  2.4732E-03  0.0000E+00  1.9118E-02  0.0000E+00  0.0000E+00  0.0000E+00
  9  0.0000E+00  3.1121E-02  0.0000E+00  0.0000E+00  0.0000E+00  0.0000E+00  2.9560E-02  2.1486E-02  1.6768E-02
 10  0.0000E+00  5.3324E-02  5.6008E-02  1.6757E-01  6.5115E-02  0.0000E+00  5.9195E-02  0.0000E+00  6.8083E-02
 11  2.6921E-06  5.3057E-02  6.3484E-02  0.0000E+00  1.2598E-02  0.0000E+00  1.9378E-01  7.1216E-03  1.1133E-01
 12  3.5636E+01  3.6124E+01  3.4984E+01  3.4771E+01  3.6152E+01  3.4527E+01  3.5736E+01  3.6392E+01  3.6439E+01
 13  4.0135E+01  3.7799E+01  3.6248E+01  3.6631E+01  3.8202E+01  3.6104E+01  3.7622E+01  3.7755E+01  3.7932E+01
 14  0.0000E+00  5.0052E-01  9.1437E-01  5.8378E-01  6.7868E-01  2.0687E-01  0.0000E+00  0.0000E+00  1.0475E+00
 15  0.0000E+00  5.4808E-01  0.0000E+00  2.0986E+00  0.0000E+00  0.0000E+00  0.0000E+00  0.0000E+00  5.6186E-01
 16  0.0000E+00  8.0419E-05  0.0000E+00  0.0000E+00  0.0000E+00  0.0000E+00  0.0000E+00  6.1581E-05  0.0000E+00
 17  0.0000E+00  3.6026E-05  0.0000E+00  0.0000E+00  0.0000E+00  0.0000E+00  0.0000E+00  0.0000E+00  0.0000E+00
 18  3.1186E-04  7.9094E-04  0.0000E+00  0.0000E+00  1.7780E-03  6.6171E-04  1.5383E-03  9.0375E-04  1.3454E-03
 19  2.4394E-06  2.4967E-03  1.2214E-03  9.3215E-04  3.9446E-03  4.6736E-03  4.6144E-03  4.6204E-03  4.2533E-03
 20  0.0000E+00  3.6357E-04  0.0000E+00  0.0000E+00  2.0086E-03  0.0000E+00  0.0000E+00  0.0000E+00  0.0000E+00
 21  0.0000E+00  2.9747E-03  0.0000E+00  5.7163E-03  0.0000E+00  0.0000E+00  2.0172E-03  0.0000E+00  0.0000E+00
 22  3.6049E-07  2.0378E-02  1.9368E-02  5.5220E-03  2.9877E-02  2.5368E-02  2.5082E-02  2.5287E-02  2.9767E-02
 23  0.0000E+00  6.7815E-03  0.0000E+00  0.0000E+00  0.0000E+00  0.0000E+00  0.0000E+00  0.0000E+00  0.0000E+00
 24  0.0000E+00  4.9746E-03  0.0000E+00  0.0000E+00  0.0000E+00  0.0000E+00  0.0000E+00  0.0000E+00  0.0000E+00
 25  0.0000E+00  1.6436E-02  0.0000E+00  0.0000E+00  1.5060E-02  0.0000E+00  0.0000E+00  0.0000E+00  0.0000E+00
 26  0.0000E+00  3.4545E-02  2.0473E-02  0.0000E+00  0.0000E+00  0.0000E+00  1.3805E-01  9.1642E-02  0.0000E+00
 27  0.0000E+00  2.2549E-01  9.5861E-02  0.0000E+00  1.2961E-01  3.3219E-02  0.0000E+00  5.9162E-01  1.1114E-01
 28  0.0000E+00  1.6608E-01  3.0740E-01  4.0762E-01  0.0000E+00  8.9513E-02  0.0000E+00  0.0000E+00  1.0144E-02
 29  0.0000E+00  1.2230E+00  0.0000E+00  1.5085E-01  1.5789E+00  9.2221E-01  7.0685E-01  0.0000E+00  2.3670E+00
 30  0.0000E+00  1.8325E+00  2.2701E+00  1.4101E+00  2.0432E+00  2.9852E+00  2.0832E+00  1.4894E+00  1.8524E+00
 31  0.0000E+00  3.7580E-05  0.0000E+00  0.0000E+00  0.0000E+00  0.0000E+00  0.0000E+00  0.0000E+00  9.5552E-06
 32  0.0000E+00  7.7957E-05  2.3756E-04  2.5664E-05  0.0000E+00  0.0000E+00  0.0000E+00  0.0000E+00  0.0000E+00
 33  0.0000E+00  1.3502E-04  0.0000E+00  0.0000E+00  0.0000E+00  0.0000E+00  1.3076E-04  0.0000E+00  0.0000E+00
