###################################################################
## OUTPUT of StarlightChains_v04.for    [Cid@UFSC - 01/Apr/2007] ##
###################################################################

## Some input info
NGC6528_b_2.cxt                          [arq_obs]
Base.BC03.N                              [arq_base]
NGC6528_b_2.msk                          [arq_masks]
StCv04.C11.config                        [arq_config]
   45                                    [N_base]
    0                                    [N_YAV_components = # of components with extra extinction!]
    0                                    [i_FitPowerLaw (1/0 = Yes/No)]
-9.99                                    [alpha_PowerLaw]
CCM                                      [red_law_option]
 1.458241                                [q_norm = A(l_norm)/A(V)]

## (Re)Sampling Parameters
 3359.00                                 [l_ini (A)]
 6428.00                                 [l_fin (A)]
    1.00                                 [dl    (A)]     (OBS: dl_cushion =    50.00 A)

## Normalization info
 4020.00                                 [l_norm (A) - for base]
 4010.00                                 [llow_norm (A) - window for f_obs]
 4060.00                                 [lupp_norm (A) - window for f_obs]
4.330667E-15                             [fobs_norm (in input units)]

## S/N
 4730.00                                 [llow_SN (A) - window for S/N]
 4780.00                                 [lupp_SN (A) - window for S/N]
  27.791                                 [S/N in S/N window]
  14.946                                 [S/N in norm. window]
 304.113                                 [S/N_err in S/N window]
 163.548                                 [S/N_err in norm. window]
  1.0000                                 [fscale_chi2]

## etc...
  2147483603                             [idum_orig]
  3069                                   [NOl_eff]
   872                                   [Nl_eff]
  2197    NSIGMA                         [Ntot_cliped & clip_method]
  1208620                                [Nglobal_steps]
   7                                     [N_chains]
  16                                     [NEX0s_base = N_base in EX0s-fits]
 0   0   1      139   2.0   3.771E+02    [Clip-Bug, RC-Crash & Burn-In warning-flags, n_censored_weights, wei_nsig_threshold & wei_limit]
    12     11.892     11.884      0.008  [idt_all, wdt_TotTime, wdt_UsrTime & wdt_SysTime (sec)]

## Synthesis Results - Best model ##

 3.22995E+00                             [chi2/Nl_eff]
     2.51688                             [adev (%)]

    97.26844                             [sum-of-x (%)]
 3.50379E-14                             [Flux_tot (units of input spectrum!)]
 2.33409E-09                             [Mini_tot (???)]
 1.18454E-09                             [Mcor_tot (???)]

  -5.75                                  [v0_min  (km/s)]
  66.54                                  [vd_min  (km/s)]
 1.5773                                  [AV_min  (mag)]
 0.0000                                  [YAV_min (mag)]

# j     x_j(%)      Mini_j(%)     Mcor_j(%)     age_j(yr)     Z_j      (L/M)_j    YAV?  Mstars   component_j        a/Fe...       SSP_chi2r SSP_adev(%)   SSP_AV   SSP_x(%)
  1      1.0239     1.4185E-03    2.7950E-03    1.000000E+06  0.00400  1.114E-02    0   1.0000   age020_m42            0.0000     4.2787E+03    46.6520   4.0000    98.4768
  2      6.0852     2.3057E-03    4.5429E-03    3.160000E+06  0.00400  4.073E-02    0   0.9999   age045_m42            0.0000     1.0874E+03    23.5020   4.0000   105.7586
  3      1.1001     6.7000E-04    1.2526E-03    5.010000E+06  0.00400  2.534E-02    0   0.9488   age055_m42            0.0000     2.1665E+03    33.9713   4.0000   103.9931
  4      4.4508     5.4043E-03    9.4372E-03    1.000000E+07  0.00400  1.271E-02    0   0.8862   age070_m42            0.0000     7.9147E+02    17.9212   4.0000    99.2365
  5      0.9494     2.8901E-03    4.6549E-03    2.512000E+07  0.00400  5.070E-03    0   0.8174   age090_m42            0.0000     6.0494E+02    15.6365   4.0000    98.7611
  6      0.0000     0.0000E+00    0.0000E+00    4.000000E+07  0.00400  3.505E-03    0   0.7851   age104_m42            0.0000     3.3722E+02    12.0196   4.0000    95.6679
  7      0.8646     5.8830E-03    8.3545E-03    1.015200E+08  0.00400  2.268E-03    0   0.7207   age116_m42            0.0000     6.2613E+02    12.2696   3.9749   102.0482
  8      0.0000     0.0000E+00    0.0000E+00    2.861200E+08  0.00400  1.079E-03    0   0.6613   age125_m42            0.0000     6.5511E+02    12.1992   3.4701   103.8486
  9      0.0000     0.0000E+00    0.0000E+00    6.405400E+08  0.00400  5.077E-04    0   0.6197   age132_m42            0.0000     6.6337E+02    12.4525   3.1025   107.9529
 10      0.0000     0.0000E+00    0.0000E+00    9.047900E+08  0.00400  3.535E-04    0   0.6024   age135_m42            0.0000     4.9243E+02    10.7570   2.8699   107.0278
 11      0.0000     0.0000E+00    0.0000E+00    1.434000E+09  0.00400  1.910E-04    0   0.5716   age139_m42            0.0000     2.6041E+02     8.2909   2.3355   105.0474
 12      0.0000     0.0000E+00    0.0000E+00    2.500000E+09  0.00400  9.818E-05    0   0.5463   age150_m42            0.0000     1.0410E+02     5.6630   2.0605   100.2610
 13      2.9458     9.6358E-01    9.9263E-01    5.000000E+09  0.00400  4.718E-05    0   0.5228   age161_m42            0.0000     5.0023E+01     4.2491   1.9098    96.9010
 14      6.6314     4.6413E+00    4.5545E+00    1.100000E+10  0.00400  2.205E-05    0   0.4980   age185_m42            0.0000     3.1261E+01     4.2237   1.6297    94.5934
 15      3.6780     3.0145E+00    2.9266E+00    1.300000E+10  0.00400  1.883E-05    0   0.4927   age193_m42            0.0000     3.0965E+01     4.2668   1.6142    94.4184
 16      0.0000     0.0000E+00    0.0000E+00    1.000000E+06  0.02000  1.989E-02    0   1.0000   age020_m62            0.0000     4.1605E+03    45.7632   4.0000    99.1998
 17      0.0000     0.0000E+00    0.0000E+00    3.160000E+06  0.02000  3.772E-02    0   0.9858   age045_m62            0.0000     3.6195E+03    43.1128   4.0000   101.2834
 18      4.7272     2.2607E-03    4.1616E-03    5.010000E+06  0.02000  3.227E-02    0   0.9342   age055_m62            0.0000     1.6880E+03    30.1895   4.0000   105.7980
 19      0.0000     0.0000E+00    0.0000E+00    1.000000E+07  0.02000  1.011E-02    0   0.8751   age070_m62            0.0000     1.1633E+03    21.5174   4.0000    97.6727
 20      0.0000     0.0000E+00    0.0000E+00    2.512000E+07  0.02000  4.206E-03    0   0.8099   age090_m62            0.0000     8.7065E+02    18.9625   4.0000    96.6165
 21      0.0000     0.0000E+00    0.0000E+00    4.000000E+07  0.02000  3.373E-03    0   0.7799   age104_m62            0.0000     4.8897E+02    13.0144   4.0000   100.6857
 22      0.0000     0.0000E+00    0.0000E+00    1.015200E+08  0.02000  1.878E-03    0   0.7221   age116_m62            0.0000     6.0524E+02    11.8784   4.0000   103.1724
 23      0.0000     0.0000E+00    0.0000E+00    2.861200E+08  0.02000  8.869E-04    0   0.6700   age125_m62            0.0000     8.9567E+02    14.4481   3.4560   108.8017
 24      0.0000     0.0000E+00    0.0000E+00    6.405400E+08  0.02000  3.657E-04    0   0.6322   age132_m62            0.0000     6.1148E+02    12.7027   2.7310   111.4032
 25      0.0000     0.0000E+00    0.0000E+00    9.047900E+08  0.02000  2.312E-04    0   0.6152   age135_m62            0.0000     3.7609E+02    10.4521   2.3615   110.0547
 26      0.0000     0.0000E+00    0.0000E+00    1.434000E+09  0.02000  1.168E-04    0   0.5865   age139_m62            0.0000     1.3239E+02     6.8835   1.9623   104.0838
 27      0.0000     0.0000E+00    0.0000E+00    2.500000E+09  0.02000  5.505E-05    0   0.5610   age150_m62            0.0000     5.1086E+01     5.8754   1.5707   101.1460
 28      0.0000     0.0000E+00    0.0000E+00    5.000000E+09  0.02000  2.596E-05    0   0.5353   age161_m62            0.0000     5.0836E+01     7.3579   1.2040   100.7704
 29     43.9517     5.8024E+01    5.8345E+01    1.100000E+10  0.02000  1.169E-05    0   0.5103   age185_m62            0.0000     1.0236E+02     9.7341   0.8003   101.9951
 30     16.7541     2.6681E+01    2.6534E+01    1.300000E+10  0.02000  9.691E-06    0   0.5047   age193_m62            0.0000     1.1673E+02    10.1340   0.7517   102.1608
 31      0.9197     5.3543E-04    1.0548E-03    1.000000E+06  0.05000  2.651E-02    0   0.9998   age020_m72            0.0000     4.0353E+03    45.3928   4.0000   100.3258
 32      0.6496     2.0811E-04    3.9272E-04    3.160000E+06  0.05000  4.817E-02    0   0.9577   age045_m72            0.0000     2.8448E+03    39.1217   4.0000   104.3988
 33      0.0000     0.0000E+00    0.0000E+00    5.010000E+06  0.05000  3.101E-02    0   0.9147   age055_m72            0.0000     1.9431E+03    31.8342   4.0000   104.4880
 34      0.0000     0.0000E+00    0.0000E+00    1.000000E+07  0.05000  8.954E-03    0   0.8524   age070_m72            0.0000     2.4510E+03    36.2643   4.0000   104.9688
 35      0.0000     0.0000E+00    0.0000E+00    2.512000E+07  0.05000  4.207E-03    0   0.7902   age090_m72            0.0000     1.2295E+03    25.6313   4.0000   106.3287
 36      0.0000     0.0000E+00    0.0000E+00    4.000000E+07  0.05000  3.198E-03    0   0.7618   age104_m72            0.0000     6.0135E+02    13.8767   4.0000   106.0262
 37      0.0000     0.0000E+00    0.0000E+00    1.015200E+08  0.05000  1.716E-03    0   0.7092   age116_m72            0.0000     6.8291E+02    12.5692   4.0000   104.8572
 38      0.0000     0.0000E+00    0.0000E+00    2.861200E+08  0.05000  7.047E-04    0   0.6618   age125_m72            0.0000     8.3049E+02    14.4015   3.2231   109.0568
 39      0.0000     0.0000E+00    0.0000E+00    6.405400E+08  0.05000  2.633E-04    0   0.6253   age132_m72            0.0000     4.5254E+02    11.5432   2.3519   110.2782
 40      0.0000     0.0000E+00    0.0000E+00    9.047900E+08  0.05000  1.484E-04    0   0.6088   age135_m72            0.0000     1.8390E+02     8.6129   1.8677   104.8725
 41      0.0000     0.0000E+00    0.0000E+00    1.434000E+09  0.05000  7.827E-05    0   0.5847   age139_m72            0.0000     7.6757E+01     7.4991   1.4485   101.4084
 42      0.0000     0.0000E+00    0.0000E+00    2.500000E+09  0.05000  3.759E-05    0   0.5583   age150_m72            0.0000     6.3038E+01     8.0335   1.1086   100.5341
 43      0.0000     0.0000E+00    0.0000E+00    5.000000E+09  0.05000  1.548E-05    0   0.5320   age161_m72            0.0000     1.2285E+02     9.8159   0.7088    99.5100
 44      1.3163     3.1099E+00    3.1069E+00    1.100000E+10  0.05000  6.532E-06    0   0.5070   age185_m72            0.0000     2.4766E+02    12.8260   0.2690    99.2544
 45      1.2208     3.5440E+00    3.5042E+00    1.300000E+10  0.05000  5.316E-06    0   0.5018   age193_m72            0.0000     3.0785E+02    14.0444   0.1228    99.4008


## Synthesis Results - Average & Chains ##

# j      x_j: min, <> & last-chain-values for 1 ...  7 chains
  1      1.0239      0.9214      0.9929      0.9279      1.0561      0.8603      0.9159      0.6037      0.9268
  2      6.0852      5.2357      5.0623      5.6047      5.2951      5.3684      5.4881      5.3371      5.2102
  3      1.1001      1.0000      0.9121      1.0971      1.0585      1.0022      0.9572      0.8495      0.9881
  4      4.4508      4.1697      4.1296      4.3278      4.0989      4.2624      4.3522      4.3592      3.9875
  5      0.9494      0.5778      0.6532      0.4326      0.6259      0.7120      0.5897      0.5932      0.9477
  6      0.0000      0.0392      0.0170      0.1133      0.0000      0.0000      0.0000      0.0000      0.0289
  7      0.8646      0.1561      0.2439      0.1535      0.0829      0.0904      0.1768      0.1340      0.4786
  8      0.0000      0.0812      0.1456      0.0000      0.0548      0.1928      0.0000      0.1994      0.1057
  9      0.0000      0.1962      0.4207      0.2383      0.1706      0.0875      0.2108      0.1745      0.1872
 10      0.0000      0.1100      0.2414      0.0814      0.3073      0.1770      0.1502      0.1075      0.0000
 11      0.0000      0.1865      0.4207      0.6433      0.3833      0.0000      0.6859      0.5449      0.2727
 12      0.0000      0.8114      0.7153      0.0000      0.3589      0.9484      0.4705      0.4494      0.0000
 13      2.9458      2.5193      1.4513      2.9414      2.5758      2.5442      2.0882      1.8908      2.7988
 14      6.6314      6.0901      6.0458      6.0747      6.7109      5.8874      6.1082      5.9762      5.9002
 15      3.6780      2.4221      3.6748      2.6767      2.3476      2.8474      2.9879      3.6462      4.2668
 16      0.0000      0.0374      0.0117      0.0328      0.0000      0.3554      0.0475      0.0071      0.0198
 17      0.0000      0.0396      0.0000      0.0000      0.0000      0.0000      0.0000      0.0000      0.1207
 18      4.7272      4.8364      4.8367      4.8723      4.9508      4.5344      4.7665      5.0136      4.6700
 19      0.0000      0.1395      0.4331      0.1215      0.2555      0.2294      0.0405      0.3865      0.1621
 20      0.0000      0.0219      0.0000      0.0000      0.0000      0.0000      0.0000      0.0000      0.0319
 21      0.0000      0.0427      0.0000      0.0000      0.0000      0.0731      0.0000      0.0000      0.0000
 22      0.0000      0.0889      0.1194      0.0000      0.0000      0.1386      0.0449      0.0000      0.0000
 23      0.0000      0.0286      0.0074      0.0271      0.0000      0.0894      0.0000      0.0000      0.0000
 24      0.0000      0.0449      0.0000      0.0052      0.0000      0.1903      0.0000      0.0000      0.0000
 25      0.0000      0.0546      0.0000      0.0000      0.0000      0.0000      0.0000      0.0000      0.0311
 26      0.0000      0.0863      0.0000      0.0000      0.0879      0.0000      0.0000      0.0000      0.0585
 27      0.0000      0.0569      0.0000      0.0000      0.0170      0.0000      0.0000      0.0000      0.0000
 28      0.0000      0.0741      0.0000      0.0000      0.0044      0.0703      0.0141      0.0000      0.0052
 29     43.9517     45.7081     44.6504     45.5398     45.8134     45.9454     44.8084     45.3619     44.8291
 30     16.7541     16.7802     16.9412     16.6753     16.9474     16.1773     16.9633     16.9776     16.6878
 31      0.9197      1.0746      1.0747      1.0098      0.9837      1.0507      1.0863      1.2114      0.9675
 32      0.6496      1.2578      1.3438      1.1431      1.1846      1.1416      1.2510      1.3579      1.2410
 33      0.0000      0.0417      0.0000      0.0000      0.0165      0.0000      0.1082      0.0000      0.0468
 34      0.0000      0.0133      0.0000      0.0000      0.0000      0.0000      0.0000      0.0000      0.0000
 35      0.0000      0.0386      0.0048      0.0210      0.0000      0.0000      0.0000      0.0000      0.0000
 36      0.0000      0.0506      0.0000      0.0383      0.2270      0.0000      0.2755      0.0339      0.0000
 37      0.0000      0.0502      0.0000      0.1314      0.2379      0.0770      0.1176      0.0000      0.2564
 38      0.0000      0.0267      0.0000      0.0000      0.0000      0.0000      0.0105      0.1009      0.0000
 39      0.0000      0.0487      0.0000      0.0359      0.0000      0.0000      0.0000      0.0000      0.0000
 40      0.0000      0.0748      0.2530      0.0000      0.0000      0.0000      0.0000      0.0000      0.0000
 41      0.0000      0.0374      0.0000      0.0000      0.0000      0.0000      0.0953      0.0000      0.0000
 42      0.0000      0.0303      0.0000      0.0000      0.0000      0.0000      0.0000      0.0000      0.0000
 43      0.0000      0.6411      0.8636      0.6582      0.1602      0.6263      0.5010      0.6720      0.4692
 44      1.3163      0.7432      1.2413      1.1162      0.6131      0.7802      1.2324      0.6912      0.5854
 45      1.2208      0.7992      0.4930      0.7235      0.8165      0.9463      0.8916      0.7553      1.0793

# j      m_j: min, <> & last-chain-values for 1 ...  7 chains
  1  2.7950E-03  2.5342E-03  2.7330E-03  2.5415E-03  2.9081E-03  2.3661E-03  2.5044E-03  1.6575E-03  2.5458E-03
  2  4.5429E-03  3.9383E-03  3.8110E-03  4.1985E-03  3.9877E-03  4.0379E-03  4.1039E-03  4.0076E-03  3.9138E-03
  3  1.2526E-03  1.1473E-03  1.0472E-03  1.2535E-03  1.2158E-03  1.1497E-03  1.0917E-03  9.7293E-04  1.1321E-03
  4  9.4372E-03  8.9080E-03  8.8295E-03  9.2077E-03  8.7671E-03  9.1056E-03  9.2432E-03  9.2968E-03  8.5073E-03
  5  4.6549E-03  2.8541E-03  3.2291E-03  2.1283E-03  3.0953E-03  3.5171E-03  2.8959E-03  2.9253E-03  4.6754E-03
  6  0.0000E+00  2.6892E-04  1.1644E-04  7.7448E-04  0.0000E+00  0.0000E+00  0.0000E+00  0.0000E+00  1.9838E-04
  7  8.3545E-03  1.5202E-03  2.3763E-03  1.4886E-03  8.0844E-04  8.8006E-04  1.7114E-03  1.3028E-03  4.6532E-03
  8  0.0000E+00  1.5250E-03  2.7362E-03  0.0000E+00  1.0298E-03  3.6206E-03  0.0000E+00  3.7370E-03  1.9823E-03
  9  0.0000E+00  7.3375E-03  1.5747E-02  8.8755E-03  6.3884E-03  3.2715E-03  7.8390E-03  6.5142E-03  6.9907E-03
 10  0.0000E+00  5.7436E-03  1.2613E-02  4.2311E-03  1.6066E-02  9.2412E-03  7.7966E-03  5.6055E-03  0.0000E+00
 11  0.0000E+00  1.7102E-02  3.8611E-02  5.8744E-02  3.5191E-02  0.0000E+00  6.2523E-02  4.9881E-02  2.4971E-02
 12  0.0000E+00  1.3834E-01  1.2206E-01  0.0000E+00  6.1259E-02  1.6169E-01  7.9745E-02  7.6490E-02  0.0000E+00
 13  9.9263E-01  8.5535E-01  4.9314E-01  9.9456E-01  8.7558E-01  8.6377E-01  7.0483E-01  6.4085E-01  9.4898E-01
 14  4.5545E+00  4.2144E+00  4.1871E+00  4.1864E+00  4.6494E+00  4.0739E+00  4.2021E+00  4.1284E+00  4.0775E+00
 15  2.9266E+00  1.9418E+00  2.9486E+00  2.1371E+00  1.8843E+00  2.2827E+00  2.3814E+00  2.9181E+00  3.4161E+00
 16  0.0000E+00  5.7617E-05  1.8097E-05  5.0321E-05  0.0000E+00  5.4739E-04  7.2761E-05  1.0986E-05  3.0531E-05
 17  0.0000E+00  3.1728E-05  0.0000E+00  0.0000E+00  0.0000E+00  0.0000E+00  0.0000E+00  0.0000E+00  9.6498E-05
 18  4.1616E-03  4.2900E-03  4.2937E-03  4.3040E-03  4.3966E-03  4.0219E-03  4.2031E-03  4.4394E-03  4.1368E-03
 19  0.0000E+00  3.7010E-04  1.1496E-03  3.2090E-04  6.7838E-04  6.0849E-04  1.0672E-04  1.0234E-03  4.2934E-04
 20  0.0000E+00  1.2916E-04  0.0000E+00  0.0000E+00  0.0000E+00  0.0000E+00  0.0000E+00  0.0000E+00  1.8790E-04
 21  0.0000E+00  3.0273E-04  0.0000E+00  0.0000E+00  0.0000E+00  5.1788E-04  0.0000E+00  0.0000E+00  0.0000E+00
 22  0.0000E+00  1.0472E-03  1.4081E-03  0.0000E+00  0.0000E+00  1.6331E-03  5.2609E-04  0.0000E+00  0.0000E+00
 23  0.0000E+00  6.6132E-04  1.7087E-04  6.2412E-04  0.0000E+00  2.0694E-03  0.0000E+00  0.0000E+00  0.0000E+00
 24  0.0000E+00  2.3765E-03  0.0000E+00  2.7572E-04  0.0000E+00  1.0079E-02  0.0000E+00  0.0000E+00  0.0000E+00
 25  0.0000E+00  4.4484E-03  0.0000E+00  0.0000E+00  0.0000E+00  0.0000E+00  0.0000E+00  0.0000E+00  2.5288E-03
 26  0.0000E+00  1.3284E-02  0.0000E+00  0.0000E+00  1.3537E-02  0.0000E+00  0.0000E+00  0.0000E+00  8.9899E-03
 27  0.0000E+00  1.7769E-02  0.0000E+00  0.0000E+00  5.3021E-03  0.0000E+00  0.0000E+00  0.0000E+00  0.0000E+00
 28  0.0000E+00  4.6815E-02  0.0000E+00  0.0000E+00  2.7920E-03  4.4426E-02  8.8788E-03  0.0000E+00  3.2637E-03
 29  5.8345E+01  6.1136E+01  5.9769E+01  6.0659E+01  6.1349E+01  6.1450E+01  5.9580E+01  6.0567E+01  5.9879E+01
 30  2.6534E+01  2.6776E+01  2.7055E+01  2.6499E+01  2.7075E+01  2.5813E+01  2.6909E+01  2.7044E+01  2.6593E+01
 31  1.0548E-03  1.2418E-03  1.2429E-03  1.1620E-03  1.1381E-03  1.2141E-03  1.2479E-03  1.3974E-03  1.1165E-03
 32  3.9272E-04  7.6623E-04  8.1926E-04  6.9351E-04  7.2251E-04  6.9539E-04  7.5760E-04  8.2578E-04  7.5495E-04
 33  0.0000E+00  3.7680E-05  0.0000E+00  0.0000E+00  1.4972E-05  0.0000E+00  9.7204E-05  0.0000E+00  4.2282E-05
