###################################################################
## OUTPUT of StarlightChains_v04.for    [Cid@UFSC - 01/Apr/2007] ##
###################################################################

## Some input info
NGC6304_a_1.cxt                          [arq_obs]
Base.BC03.N                              [arq_base]
NGC6304_a_1.msk                          [arq_masks]
StCv04.C11.config                        [arq_config]
   45                                    [N_base]
    0                                    [N_YAV_components = # of components with extra extinction!]
    0                                    [i_FitPowerLaw (1/0 = Yes/No)]
-9.99                                    [alpha_PowerLaw]
CCM                                      [red_law_option]
 1.458241                                [q_norm = A(l_norm)/A(V)]

## (Re)Sampling Parameters
 3359.00                                 [l_ini (A)]
 6428.00                                 [l_fin (A)]
    1.00                                 [dl    (A)]     (OBS: dl_cushion =    50.00 A)

## Normalization info
 4020.00                                 [l_norm (A) - for base]
 4010.00                                 [llow_norm (A) - window for f_obs]
 4060.00                                 [lupp_norm (A) - window for f_obs]
6.037552E-15                             [fobs_norm (in input units)]

## S/N
 4730.00                                 [llow_SN (A) - window for S/N]
 4780.00                                 [lupp_SN (A) - window for S/N]
  34.026                                 [S/N in S/N window]
  19.978                                 [S/N in norm. window]
 118.990                                 [S/N_err in S/N window]
  69.864                                 [S/N_err in norm. window]
  1.0000                                 [fscale_chi2]

## etc...
  2147483619                             [idum_orig]
  3066                                   [NOl_eff]
  1241                                   [Nl_eff]
  1825    NSIGMA                         [Ntot_cliped & clip_method]
   841820                                [Nglobal_steps]
   7                                     [N_chains]
  10                                     [NEX0s_base = N_base in EX0s-fits]
 0   0   1      178   2.0   5.094E+02    [Clip-Bug, RC-Crash & Burn-In warning-flags, n_censored_weights, wei_nsig_threshold & wei_limit]
    10      9.813      9.813      0.000  [idt_all, wdt_TotTime, wdt_UsrTime & wdt_SysTime (sec)]

## Synthesis Results - Best model ##

 2.49965E+00                             [chi2/Nl_eff]
     2.28312                             [adev (%)]

   100.02791                             [sum-of-x (%)]
 3.34342E-14                             [Flux_tot (units of input spectrum!)]
 1.79415E-09                             [Mini_tot (???)]
 9.20177E-10                             [Mcor_tot (???)]

  11.67                                  [v0_min  (km/s)]
  49.92                                  [vd_min  (km/s)]
 1.2742                                  [AV_min  (mag)]
 0.0000                                  [YAV_min (mag)]

# j     x_j(%)      Mini_j(%)     Mcor_j(%)     age_j(yr)     Z_j      (L/M)_j    YAV?  Mstars   component_j        a/Fe...       SSP_chi2r SSP_adev(%)   SSP_AV   SSP_x(%)
  1      4.7592     7.9590E-03    1.5518E-02    1.000000E+06  0.00400  1.114E-02    0   1.0000   age020_m42            0.0000     2.0404E+03    35.8476   4.0000    87.7913
  2      6.8462     3.1314E-03    6.1050E-03    3.160000E+06  0.00400  4.073E-02    0   0.9999   age045_m42            0.0000     5.7397E+02    13.7211   4.0000    97.3113
  3      4.3801     3.2203E-03    5.9573E-03    5.010000E+06  0.00400  2.534E-02    0   0.9488   age055_m42            0.0000     1.0600E+03    23.1633   4.0000    94.0524
  4      2.6518     3.8869E-03    6.7163E-03    1.000000E+07  0.00400  1.271E-02    0   0.8862   age070_m42            0.0000     4.7091E+02     9.5184   4.0000    92.7820
  5      0.0000     0.0000E+00    0.0000E+00    2.512000E+07  0.00400  5.070E-03    0   0.8174   age090_m42            0.0000     3.9991E+02     9.3960   4.0000    93.0450
  6      0.0000     0.0000E+00    0.0000E+00    4.000000E+07  0.00400  3.505E-03    0   0.7851   age104_m42            0.0000     3.4149E+02     9.3814   3.8123    93.8418
  7      0.0000     0.0000E+00    0.0000E+00    1.015200E+08  0.00400  2.268E-03    0   0.7207   age116_m42            0.0000     7.9014E+02     8.1681   3.6624   101.1214
  8      0.0000     0.0000E+00    0.0000E+00    2.861200E+08  0.00400  1.079E-03    0   0.6613   age125_m42            0.0000     8.0367E+02     8.7582   3.1065   103.2693
  9      0.0000     0.0000E+00    0.0000E+00    6.405400E+08  0.00400  5.077E-04    0   0.6197   age132_m42            0.0000     8.1806E+02     8.6532   2.7635   107.2574
 10      0.0000     0.0000E+00    0.0000E+00    9.047900E+08  0.00400  3.535E-04    0   0.6024   age135_m42            0.0000     6.0720E+02     7.5580   2.5210   106.9220
 11      0.0000     0.0000E+00    0.0000E+00    1.434000E+09  0.00400  1.910E-04    0   0.5716   age139_m42            0.0000     3.3285E+02     6.5513   1.9239   106.3841
 12      0.0000     0.0000E+00    0.0000E+00    2.500000E+09  0.00400  9.818E-05    0   0.5463   age150_m42            0.0000     1.2452E+02     4.7671   1.6393   102.4985
 13      4.6818     1.8487E+00    1.8845E+00    5.000000E+09  0.00400  4.718E-05    0   0.5228   age161_m42            0.0000     5.3310E+01     3.7607   1.4753    99.5768
 14      6.2111     5.2477E+00    5.0955E+00    1.100000E+10  0.00400  2.205E-05    0   0.4980   age185_m42            0.0000     3.3065E+01     4.6247   1.1473    97.9301
 15      0.0000     0.0000E+00    0.0000E+00    1.300000E+10  0.00400  1.883E-05    0   0.4927   age193_m42            0.0000     3.3488E+01     4.7705   1.1241    97.8463
 16      1.3049     1.2223E-03    2.3832E-03    1.000000E+06  0.02000  1.989E-02    0   1.0000   age020_m62            0.0000     1.9804E+03    34.9143   4.0000    88.4909
 17      0.0000     0.0000E+00    0.0000E+00    3.160000E+06  0.02000  3.772E-02    0   0.9858   age045_m62            0.0000     1.7542E+03    31.9659   4.0000    90.5474
 18      0.0000     0.0000E+00    0.0000E+00    5.010000E+06  0.02000  3.227E-02    0   0.9342   age055_m62            0.0000     8.9085E+02    19.5106   4.0000    96.1093
 19      0.0000     0.0000E+00    0.0000E+00    1.000000E+07  0.02000  1.011E-02    0   0.8751   age070_m62            0.0000     6.3169E+02    12.7148   4.0000    90.7137
 20      0.0000     0.0000E+00    0.0000E+00    2.512000E+07  0.02000  4.206E-03    0   0.8099   age090_m62            0.0000     5.0671E+02    10.7746   4.0000    90.6696
 21      0.0000     0.0000E+00    0.0000E+00    4.000000E+07  0.02000  3.373E-03    0   0.7799   age104_m62            0.0000     4.4346E+02     9.1332   4.0000    95.1423
 22      0.0000     0.0000E+00    0.0000E+00    1.015200E+08  0.02000  1.878E-03    0   0.7221   age116_m62            0.0000     7.7015E+02     8.0749   3.7236   101.5363
 23      0.0000     0.0000E+00    0.0000E+00    2.861200E+08  0.02000  8.869E-04    0   0.6700   age125_m62            0.0000     1.1249E+03    10.2543   3.1006   107.7417
 24      0.0000     0.0000E+00    0.0000E+00    6.405400E+08  0.02000  3.657E-04    0   0.6322   age132_m62            0.0000     7.7583E+02    10.5358   2.3200   111.9019
 25      0.0000     0.0000E+00    0.0000E+00    9.047900E+08  0.02000  2.312E-04    0   0.6152   age135_m62            0.0000     4.7759E+02     8.9613   1.9408   111.5021
 26      0.0000     0.0000E+00    0.0000E+00    1.434000E+09  0.02000  1.168E-04    0   0.5865   age139_m62            0.0000     1.6625E+02     6.1927   1.5292   106.5925
 27      0.0000     0.0000E+00    0.0000E+00    2.500000E+09  0.02000  5.505E-05    0   0.5610   age150_m62            0.0000     5.9861E+01     5.7199   1.1267   104.3987
 28     25.9850     1.8648E+01    1.9463E+01    5.000000E+09  0.02000  2.596E-05    0   0.5353   age161_m62            0.0000     6.2570E+01     7.6948   0.7043   105.0633
 29     26.8492     4.2789E+01    4.2574E+01    1.100000E+10  0.02000  1.169E-05    0   0.5103   age185_m62            0.0000     1.2368E+02    10.5612   0.2265   107.3637
 30     16.3587     3.1448E+01    3.0946E+01    1.300000E+10  0.02000  9.691E-06    0   0.5047   age193_m62            0.0000     1.3928E+02    11.1030   0.1597   107.7563
 31      0.0000     0.0000E+00    0.0000E+00    1.000000E+06  0.05000  2.651E-02    0   0.9998   age020_m72            0.0000     1.9534E+03    34.4995   4.0000    89.4620
 32      0.0000     0.0000E+00    0.0000E+00    3.160000E+06  0.05000  4.817E-02    0   0.9577   age045_m72            0.0000     1.4397E+03    27.9681   4.0000    93.7319
 33      0.0000     0.0000E+00    0.0000E+00    5.010000E+06  0.05000  3.101E-02    0   0.9147   age055_m72            0.0000     1.0017E+03    20.1548   4.0000    95.0309
 34      0.0000     0.0000E+00    0.0000E+00    1.000000E+07  0.05000  8.954E-03    0   0.8524   age070_m72            0.0000     1.2382E+03    24.9393   4.0000    94.5686
 35      0.0000     0.0000E+00    0.0000E+00    2.512000E+07  0.05000  4.207E-03    0   0.7902   age090_m72            0.0000     6.7372E+02    14.8259   4.0000    97.4627
 36      0.0000     0.0000E+00    0.0000E+00    4.000000E+07  0.05000  3.198E-03    0   0.7618   age104_m72            0.0000     6.0592E+02     7.3908   4.0000    99.2233
 37      0.0000     0.0000E+00    0.0000E+00    1.015200E+08  0.05000  1.716E-03    0   0.7092   age116_m72            0.0000     8.4904E+02     8.2896   3.7894   101.5927
 38      0.0000     0.0000E+00    0.0000E+00    2.861200E+08  0.05000  7.047E-04    0   0.6618   age125_m72            0.0000     1.0490E+03    10.6709   2.8411   108.6138
 39      0.0000     0.0000E+00    0.0000E+00    6.405400E+08  0.05000  2.633E-04    0   0.6253   age132_m72            0.0000     5.7013E+02    10.4517   1.8906   111.9109
 40      0.0000     0.0000E+00    0.0000E+00    9.047900E+08  0.05000  1.484E-04    0   0.6088   age135_m72            0.0000     2.2450E+02     8.4413   1.3886   107.5987
 41      0.0000     0.0000E+00    0.0000E+00    1.434000E+09  0.05000  7.827E-05    0   0.5847   age139_m72            0.0000     9.0974E+01     7.6862   0.9601   104.9994
 42      0.0000     0.0000E+00    0.0000E+00    2.500000E+09  0.05000  3.759E-05    0   0.5583   age150_m72            0.0000     7.7744E+01     8.4382   0.6019   104.7485
 43      0.0000     0.0000E+00    0.0000E+00    5.000000E+09  0.05000  1.548E-05    0   0.5320   age161_m72            0.0000     1.3116E+02    11.1381   0.0826   104.9893
 44      0.0000     0.0000E+00    0.0000E+00    1.100000E+10  0.05000  6.532E-06    0   0.5070   age185_m72            0.0000     2.3489E+02    15.4646  -0.5080   106.5948
 45      0.0000     0.0000E+00    0.0000E+00    1.300000E+10  0.05000  5.316E-06    0   0.5018   age193_m72            0.0000     2.8480E+02    17.1834  -0.7144   107.5126


## Synthesis Results - Average & Chains ##

# j      x_j: min, <> & last-chain-values for 1 ...  7 chains
  1      4.7592      4.6125      4.5278      4.6302      4.6904      4.6472      4.6539      4.5511      4.6179
  2      6.8462      5.8736      5.8883      5.8116      6.0853      5.9643      5.9396      6.4658      5.8999
  3      4.3801      4.0868      4.1019      4.2897      4.0607      3.8544      4.2247      3.9169      4.1157
  4      2.6518      3.6203      3.3934      3.7338      3.6601      3.5552      3.4623      3.5595      3.7632
  5      0.0000      0.0272      0.0000      0.0000      0.0000      0.0000      0.1589      0.0000      0.0000
  6      0.0000      0.0203      0.0000      0.0000      0.0000      0.0000      0.0000      0.0000      0.0107
  7      0.0000      0.0147      0.0000      0.0000      0.0000      0.0000      0.0000      0.0000      0.0000
  8      0.0000      0.0099      0.0089      0.0000      0.0000      0.0000      0.0000      0.0000      0.0000
  9      0.0000      0.0718      0.2693      0.0079      0.0000      0.0000      0.0000      0.0167      0.1930
 10      0.0000      0.2458      0.1705      0.2120      0.4512      0.0000      0.0000      0.3559      0.3006
 11      0.0000      0.0985      0.0000      0.1019      0.0212      0.0104      0.0000      0.0000      0.0000
 12      0.0000      0.3659      0.2396      0.5653      0.2836      0.4371      0.1119      0.0348      0.1805
 13      4.6818      2.2913      2.4720      2.4029      2.7749      4.3655      4.0484      3.1813      3.2131
 14      6.2111      6.4249      6.6856      6.9623      6.6840      4.8654      5.8251      6.1135      6.1324
 15      0.0000      0.4456      1.1238      0.6790      0.1036      1.0661      0.6610      0.3816      0.0000
 16      1.3049      1.1921      1.3297      1.1766      1.1644      1.3833      1.2459      1.2247      1.1707
 17      0.0000      0.1129      0.1464      0.0000      0.0000      0.0037      0.1559      0.0000      0.2316
 18      0.0000      0.2718      0.2240      0.2537      0.2914      0.4831      0.1435      0.4259      0.1965
 19      0.0000      0.0575      0.0000      0.0160      0.0000      0.0000      0.0000      0.0048      0.0000
 20      0.0000      0.0254      0.0000      0.0000      0.0152      0.0000      0.0000      0.0000      0.0000
 21      0.0000      0.0188      0.0000      0.0000      0.0000      0.0105      0.0000      0.0000      0.0000
 22      0.0000      0.0160      0.0000      0.0000      0.0000      0.0000      0.0000      0.0000      0.0000
 23      0.0000      0.0109      0.0000      0.0000      0.0000      0.0000      0.0000      0.0000      0.0000
 24      0.0000      0.0168      0.0000      0.0000      0.0000      0.0000      0.0000      0.0000      0.0000
 25      0.0000      0.0300      0.0000      0.0000      0.0000      0.0000      0.0000      0.0000      0.0149
 26      0.0000      0.0498      0.0000      0.0760      0.0000      0.0000      0.0000      0.0000      0.0000
 27      0.0000      0.1628      0.3590      0.0000      0.0000      0.0938      0.0000      0.0000      0.0000
 28     25.9850     24.3086     24.4206     24.2330     24.6503     24.5001     24.4754     24.5749     24.5682
 29     26.8492     27.5448     27.2808     27.4733     27.9178     27.4562     27.0926     27.7474     27.2927
 30     16.3587     17.4734     17.0583     17.2793     17.1275     16.8712     17.5720     17.4085     17.6672
 31      0.0000      0.0198      0.0318      0.0000      0.1027      0.0000      0.0324      0.0000      0.0000
 32      0.0000      0.0235      0.0000      0.1206      0.0491      0.0000      0.0000      0.0000      0.0000
 33      0.0000      0.0963      0.2606      0.0542      0.0000      0.0212      0.0000      0.1107      0.1187
 34      0.0000      0.0244      0.0000      0.0000      0.0000      0.0000      0.0000      0.0561      0.0000
 35      0.0000      0.0238      0.0000      0.0000      0.0000      0.0121      0.0000      0.0000      0.0000
 36      0.0000      0.0175      0.0000      0.0000      0.0000      0.0000      0.0000      0.0000      0.0000
 37      0.0000      0.0064      0.0000      0.0000      0.0000      0.0000      0.0000      0.0000      0.0000
 38      0.0000      0.0071      0.0000      0.0000      0.0000      0.0000      0.0548      0.0000      0.0000
 39      0.0000      0.0156      0.0000      0.0000      0.0000      0.0000      0.2450      0.0000      0.0000
 40      0.0000      0.0377      0.0899      0.0000      0.0000      0.0000      0.0000      0.0000      0.0000
 41      0.0000      0.0554      0.0000      0.0000      0.0000      0.1144      0.0000      0.0000      0.0000
 42      0.0000      0.1438      0.0000      0.0000      0.0000      0.3413      0.0000      0.0000      0.4840
 43      0.0000      0.0754      0.0173      0.0000      0.0000      0.0000      0.0000      0.0000      0.0000
 44      0.0000      0.0885      0.0000      0.0000      0.0000      0.0000      0.0000      0.0000      0.0000
 45      0.0000      0.0360      0.0000      0.0000      0.0000      0.0312      0.0000      0.0000      0.0000

# j      m_j: min, <> & last-chain-values for 1 ...  7 chains
  1  1.5518E-02  1.4696E-02  1.4525E-02  1.4814E-02  1.5001E-02  1.4996E-02  1.4928E-02  1.4540E-02  1.4793E-02
  2  6.1050E-03  5.1181E-03  5.1660E-03  5.0850E-03  5.3223E-03  5.2634E-03  5.2104E-03  5.6492E-03  5.1687E-03
  3  5.9573E-03  5.4313E-03  5.4887E-03  5.7246E-03  5.4168E-03  5.1879E-03  5.6524E-03  5.2196E-03  5.4994E-03
  4  6.7163E-03  8.9595E-03  8.4554E-03  9.2786E-03  9.0920E-03  8.9107E-03  8.6263E-03  8.8328E-03  9.3636E-03
  5  0.0000E+00  1.5570E-04  0.0000E+00  0.0000E+00  0.0000E+00  0.0000E+00  9.1539E-04  0.0000E+00  0.0000E+00
  6  0.0000E+00  1.6158E-04  0.0000E+00  0.0000E+00  0.0000E+00  0.0000E+00  0.0000E+00  0.0000E+00  8.5736E-05
  7  0.0000E+00  1.6574E-04  0.0000E+00  0.0000E+00  0.0000E+00  0.0000E+00  0.0000E+00  0.0000E+00  0.0000E+00
  8  0.0000E+00  2.1505E-04  1.9550E-04  0.0000E+00  0.0000E+00  0.0000E+00  0.0000E+00  0.0000E+00  0.0000E+00
  9  0.0000E+00  3.1094E-03  1.1746E-02  3.4260E-04  0.0000E+00  0.0000E+00  0.0000E+00  7.2419E-04  8.4060E-03
 10  0.0000E+00  1.4868E-02  1.0383E-02  1.2878E-02  2.7396E-02  0.0000E+00  0.0000E+00  2.1586E-02  1.8281E-02
 11  0.0000E+00  1.0463E-02  0.0000E+00  1.0873E-02  2.2587E-03  1.1216E-03  0.0000E+00  0.0000E+00  0.0000E+00
 12  0.0000E+00  7.2274E-02  4.7653E-02  1.1211E-01  5.6223E-02  8.7423E-02  2.2253E-02  6.8821E-03  3.5839E-02
 13  1.8845E+00  9.0120E-01  9.7893E-01  9.4900E-01  1.0955E+00  1.7389E+00  1.6030E+00  1.2546E+00  1.2706E+00
 14  5.0955E+00  5.1504E+00  5.3961E+00  5.6043E+00  5.3782E+00  3.9500E+00  4.7010E+00  4.9140E+00  4.9425E+00
 15  0.0000E+00  4.1385E-01  1.0508E+00  6.3321E-01  9.6595E-02  1.0027E+00  6.1806E-01  3.5534E-01  0.0000E+00
 16  2.3832E-03  2.1273E-03  2.3891E-03  2.1084E-03  2.0857E-03  2.5000E-03  2.2384E-03  2.1914E-03  2.1004E-03
 17  0.0000E+00  1.0471E-04  1.3675E-04  0.0000E+00  0.0000E+00  3.4362E-06  1.4555E-04  0.0000E+00  2.1603E-04
 18  0.0000E+00  2.7927E-04  2.3173E-04  2.6174E-04  3.0051E-04  5.0271E-04  1.4843E-04  4.3884E-04  2.0299E-04
 19  0.0000E+00  1.7655E-04  0.0000E+00  4.9400E-05  0.0000E+00  0.0000E+00  0.0000E+00  1.4867E-05  0.0000E+00
 20  0.0000E+00  1.7332E-04  0.0000E+00  0.0000E+00  1.0398E-04  0.0000E+00  0.0000E+00  0.0000E+00  0.0000E+00
 21  0.0000E+00  1.5428E-04  0.0000E+00  0.0000E+00  0.0000E+00  8.7584E-05  0.0000E+00  0.0000E+00  0.0000E+00
 22  0.0000E+00  2.1858E-04  0.0000E+00  0.0000E+00  0.0000E+00  0.0000E+00  0.0000E+00  0.0000E+00  0.0000E+00
 23  0.0000E+00  2.9131E-04  0.0000E+00  0.0000E+00  0.0000E+00  0.0000E+00  0.0000E+00  0.0000E+00  0.0000E+00
 24  0.0000E+00  1.0289E-03  0.0000E+00  0.0000E+00  0.0000E+00  0.0000E+00  0.0000E+00  0.0000E+00  0.0000E+00
 25  0.0000E+00  2.8313E-03  0.0000E+00  0.0000E+00  0.0000E+00  0.0000E+00  0.0000E+00  0.0000E+00  1.4166E-03
 26  0.0000E+00  8.8692E-03  0.0000E+00  1.3609E-02  0.0000E+00  0.0000E+00  0.0000E+00  0.0000E+00  0.0000E+00
 27  0.0000E+00  5.8872E-02  1.3074E-01  0.0000E+00  0.0000E+00  3.4370E-02  0.0000E+00  0.0000E+00  0.0000E+00
 28  1.9463E+01  1.7791E+01  1.7996E+01  1.7809E+01  1.8109E+01  1.8160E+01  1.8034E+01  1.8035E+01  1.8078E+01
 29  4.2574E+01  4.2678E+01  4.2558E+01  4.2744E+01  4.3418E+01  4.3084E+01  4.2260E+01  4.3108E+01  4.2516E+01
 30  3.0946E+01  3.2300E+01  3.1748E+01  3.2073E+01  3.1779E+01  3.1585E+01  3.2701E+01  3.2267E+01  3.2834E+01
 31  0.0000E+00  2.6538E-05  4.2901E-05  0.0000E+00  1.3793E-04  0.0000E+00  4.3695E-05  0.0000E+00  0.0000E+00
 32  0.0000E+00  1.6570E-05  0.0000E+00  8.5454E-05  3.4783E-05  0.0000E+00  0.0000E+00  0.0000E+00  0.0000E+00
 33  0.0000E+00  1.0086E-04  2.7473E-04  5.7003E-05  0.0000E+00  2.2506E-05  0.0000E+00  1.1618E-04  1.2491E-04
