###################################################################
## OUTPUT of StarlightChains_v04.for    [Cid@UFSC - 01/Apr/2007] ##
###################################################################

## Some input info
NGC6333_a_1.cxt                          [arq_obs]
Base.BC03.N                              [arq_base]
NGC6333_a_1.msk                          [arq_masks]
StCv04.C11.config                        [arq_config]
   45                                    [N_base]
    0                                    [N_YAV_components = # of components with extra extinction!]
    0                                    [i_FitPowerLaw (1/0 = Yes/No)]
-9.99                                    [alpha_PowerLaw]
CCM                                      [red_law_option]
 1.458241                                [q_norm = A(l_norm)/A(V)]

## (Re)Sampling Parameters
 3359.00                                 [l_ini (A)]
 6428.00                                 [l_fin (A)]
    1.00                                 [dl    (A)]     (OBS: dl_cushion =    50.00 A)

## Normalization info
 4020.00                                 [l_norm (A) - for base]
 4010.00                                 [llow_norm (A) - window for f_obs]
 4060.00                                 [lupp_norm (A) - window for f_obs]
1.502426E-14                             [fobs_norm (in input units)]

## S/N
 4730.00                                 [llow_SN (A) - window for S/N]
 4780.00                                 [lupp_SN (A) - window for S/N]
 125.098                                 [S/N in S/N window]
 101.861                                 [S/N in norm. window]
  69.725                                 [S/N_err in S/N window]
  56.774                                 [S/N_err in norm. window]
  1.0000                                 [fscale_chi2]

## etc...
  2147483616                             [idum_orig]
  3065                                   [NOl_eff]
  1770                                   [Nl_eff]
  1295    NSIGMA                         [Ntot_cliped & clip_method]
   848120                                [Nglobal_steps]
   7                                     [N_chains]
  11                                     [NEX0s_base = N_base in EX0s-fits]
 0   0   1      286   2.0   8.723E+02    [Clip-Bug, RC-Crash & Burn-In warning-flags, n_censored_weights, wei_nsig_threshold & wei_limit]
    10     10.133     10.133      0.000  [idt_all, wdt_TotTime, wdt_UsrTime & wdt_SysTime (sec)]

## Synthesis Results - Best model ##

 1.92785E+00                             [chi2/Nl_eff]
     1.51377                             [adev (%)]

   102.79787                             [sum-of-x (%)]
 1.16176E-13                             [Flux_tot (units of input spectrum!)]
 8.61176E-10                             [Mini_tot (???)]
 4.59152E-10                             [Mcor_tot (???)]

 -22.43                                  [v0_min  (km/s)]
 129.41                                  [vd_min  (km/s)]
 1.5024                                  [AV_min  (mag)]
 0.0000                                  [YAV_min (mag)]

# j     x_j(%)      Mini_j(%)     Mcor_j(%)     age_j(yr)     Z_j      (L/M)_j    YAV?  Mstars   component_j        a/Fe...       SSP_chi2r SSP_adev(%)   SSP_AV   SSP_x(%)
  1      0.0000     0.0000E+00    0.0000E+00    1.000000E+06  0.00400  1.114E-02    0   1.0000   age020_m42            0.0000     4.1704E+02    20.2917   4.0000    69.7729
  2      9.9243     3.1976E-02    5.9968E-02    3.160000E+06  0.00400  4.073E-02    0   0.9999   age045_m42            0.0000     2.5937E+01     3.5676   3.4094    88.8852
  3      0.0000     0.0000E+00    0.0000E+00    5.010000E+06  0.00400  2.534E-02    0   0.9488   age055_m42            0.0000     6.8540E+01     6.5120   3.9342    78.3793
  4     12.9277     1.3348E-01    2.2186E-01    1.000000E+07  0.00400  1.271E-02    0   0.8862   age070_m42            0.0000     5.3869E+01     6.6438   3.1314    82.7222
  5      0.0240     6.2093E-04    9.5194E-04    2.512000E+07  0.00400  5.070E-03    0   0.8174   age090_m42            0.0000     4.9471E+01     6.2174   2.9859    84.9199
  6      0.0000     0.0000E+00    0.0000E+00    4.000000E+07  0.00400  3.505E-03    0   0.7851   age104_m42            0.0000     3.2322E+01     4.3747   2.6105    90.3510
  7     32.0774     1.8561E+00    2.5089E+00    1.015200E+08  0.00400  2.268E-03    0   0.7207   age116_m42            0.0000     1.2811E+02     9.1126   2.1176   121.5226
  8      0.0000     0.0000E+00    0.0000E+00    2.861200E+08  0.00400  1.079E-03    0   0.6613   age125_m42            0.0000     1.3220E+02    10.1065   1.5676   126.8494
  9      0.0000     0.0000E+00    0.0000E+00    6.405400E+08  0.00400  5.077E-04    0   0.6197   age132_m42            0.0000     1.5264E+02    10.6411   1.1743   133.3072
 10      9.0029     3.3422E+00    3.7762E+00    9.047900E+08  0.00400  3.535E-04    0   0.6024   age135_m42            0.0000     8.3163E+01     8.1623   1.0586   126.3621
 11      0.0000     0.0000E+00    0.0000E+00    1.434000E+09  0.00400  1.910E-04    0   0.5716   age139_m42            0.0000     4.2888E+01     5.9033   0.6676   118.6124
 12     18.2675     2.4417E+01    2.5019E+01    2.500000E+09  0.00400  9.818E-05    0   0.5463   age150_m42            0.0000     3.9263E+01     4.3869   0.5521   106.3168
 13     18.5327     5.1549E+01    5.0547E+01    5.000000E+09  0.00400  4.718E-05    0   0.5228   age161_m42            0.0000     5.9707E+01     4.4096   0.4640    99.5128
 14      0.0000     0.0000E+00    0.0000E+00    1.100000E+10  0.00400  2.205E-05    0   0.4980   age185_m42            0.0000     1.0963E+02     5.7216   0.2353    96.1884
 15      0.0000     0.0000E+00    0.0000E+00    1.300000E+10  0.00400  1.883E-05    0   0.4927   age193_m42            0.0000     1.2079E+02     5.8803   0.2249    95.7567
 16      0.0000     0.0000E+00    0.0000E+00    1.000000E+06  0.02000  1.989E-02    0   1.0000   age020_m62            0.0000     3.9224E+02    19.5008   4.0000    70.4029
 17      0.0000     0.0000E+00    0.0000E+00    3.160000E+06  0.02000  3.772E-02    0   0.9858   age045_m62            0.0000     2.5725E+02    15.3032   4.0000    72.9217
 18      0.7698     3.1305E-03    5.4851E-03    5.010000E+06  0.02000  3.227E-02    0   0.9342   age055_m62            0.0000     3.9217E+01     4.8288   3.7287    83.5245
 19      0.0000     0.0000E+00    0.0000E+00    1.000000E+07  0.02000  1.011E-02    0   0.8751   age070_m62            0.0000     1.5371E+02    11.6397   3.2739    74.8598
 20      0.0000     0.0000E+00    0.0000E+00    2.512000E+07  0.02000  4.206E-03    0   0.8099   age090_m62            0.0000     1.2395E+02     9.5580   3.1628    77.5900
 21      0.0000     0.0000E+00    0.0000E+00    4.000000E+07  0.02000  3.373E-03    0   0.7799   age104_m62            0.0000     2.8672E+01     3.4003   2.7635    94.2833
 22      0.0000     0.0000E+00    0.0000E+00    1.015200E+08  0.02000  1.878E-03    0   0.7221   age116_m62            0.0000     8.7623E+01     7.3608   2.2203   118.7240
 23      0.0000     0.0000E+00    0.0000E+00    2.861200E+08  0.02000  8.869E-04    0   0.6700   age125_m62            0.0000     2.8368E+02    14.1669   1.3697   143.7288
 24      0.0000     0.0000E+00    0.0000E+00    6.405400E+08  0.02000  3.657E-04    0   0.6322   age132_m62            0.0000     1.6227E+02    11.6186   0.8341   140.6714
 25      0.0000     0.0000E+00    0.0000E+00    9.047900E+08  0.02000  2.312E-04    0   0.6152   age135_m62            0.0000     9.0896E+01     8.6698   0.6312   130.7752
 26      0.0000     0.0000E+00    0.0000E+00    1.434000E+09  0.02000  1.168E-04    0   0.5865   age139_m62            0.0000     5.2903E+01     5.5028   0.4417   113.2515
 27      0.0000     0.0000E+00    0.0000E+00    2.500000E+09  0.02000  5.505E-05    0   0.5610   age150_m62            0.0000     9.7061E+01     5.9505   0.1530   106.5236
 28      0.0000     0.0000E+00    0.0000E+00    5.000000E+09  0.02000  2.596E-05    0   0.5353   age161_m62            0.0000     1.8647E+02     7.5781  -0.1567   105.6974
 29      0.0000     0.0000E+00    0.0000E+00    1.100000E+10  0.02000  1.169E-05    0   0.5103   age185_m62            0.0000     3.0049E+02     9.1298  -0.5259   107.5403
 30      0.4399     5.9571E+00    5.6390E+00    1.300000E+10  0.02000  9.691E-06    0   0.5047   age193_m62            0.0000     3.2642E+02     9.3701  -0.5716   107.7843
 31      0.0000     0.0000E+00    0.0000E+00    1.000000E+06  0.05000  2.651E-02    0   0.9998   age020_m72            0.0000     3.7711E+02    19.0095   4.0000    71.5956
 32      0.0000     0.0000E+00    0.0000E+00    3.160000E+06  0.05000  4.817E-02    0   0.9577   age045_m72            0.0000     1.1930E+02     9.3764   4.0000    77.2793
 33      0.0000     0.0000E+00    0.0000E+00    5.010000E+06  0.05000  3.101E-02    0   0.9147   age055_m72            0.0000     7.8676E+01     7.1363   3.8219    78.9620
 34      0.0000     0.0000E+00    0.0000E+00    1.000000E+07  0.05000  8.954E-03    0   0.8524   age070_m72            0.0000     1.0826E+02     7.6940   4.0000    77.8646
 35      0.0000     0.0000E+00    0.0000E+00    2.512000E+07  0.05000  4.207E-03    0   0.7902   age090_m72            0.0000     4.9275E+01     4.7931   3.5240    87.0665
 36      0.0000     0.0000E+00    0.0000E+00    4.000000E+07  0.05000  3.198E-03    0   0.7618   age104_m72            0.0000     3.7784E+01     4.7188   2.7310   107.4759
 37      0.0000     0.0000E+00    0.0000E+00    1.015200E+08  0.05000  1.716E-03    0   0.7092   age116_m72            0.0000     1.1833E+02     8.6558   2.2409   121.8542
 38      0.0000     0.0000E+00    0.0000E+00    2.861200E+08  0.05000  7.047E-04    0   0.6618   age125_m72            0.0000     2.8205E+02    14.2940   1.1605   144.4379
 39      0.0000     0.0000E+00    0.0000E+00    6.405400E+08  0.05000  2.633E-04    0   0.6253   age132_m72            0.0000     1.3201E+02    10.3325   0.5344   135.8617
 40      0.0000     0.0000E+00    0.0000E+00    9.047900E+08  0.05000  1.484E-04    0   0.6088   age135_m72            0.0000     7.8955E+01     7.2168   0.2843   118.5930
 41      0.0000     0.0000E+00    0.0000E+00    1.434000E+09  0.05000  7.827E-05    0   0.5847   age139_m72            0.0000     1.2499E+02     7.2453   0.0000   109.4573
 42      0.0000     0.0000E+00    0.0000E+00    2.500000E+09  0.05000  3.759E-05    0   0.5583   age150_m72            0.0000     1.9942E+02     7.9519  -0.2500   106.0239
 43      0.3446     2.9211E+00    2.9147E+00    5.000000E+09  0.05000  1.548E-05    0   0.5320   age161_m72            0.0000     2.8535E+02     9.2399  -0.6683   105.9669
 44      0.4872     9.7878E+00    9.3075E+00    1.100000E+10  0.05000  6.532E-06    0   0.5070   age185_m72            0.0000     3.7747E+02    11.3952  -1.0000   107.7141
 45      0.0000     0.0000E+00    0.0000E+00    1.300000E+10  0.05000  5.316E-06    0   0.5018   age193_m72            0.0000     4.5616E+02    13.6683  -1.0000   107.1828


## Synthesis Results - Average & Chains ##

# j      x_j: min, <> & last-chain-values for 1 ...  7 chains
  1      0.0000      0.0051      0.0000      0.0000      0.0000      0.0000      0.0000      0.0000      0.0000
  2      9.9243      8.5910      8.9231      8.8420      8.6492      8.6732      8.8574      9.0314      8.6250
  3      0.0000      0.0718      0.0000      0.0000      0.0000      0.1461      0.0000      0.0000      0.0000
  4     12.9277     11.7420     11.9761     11.8650     11.9501     11.9496     11.8737     12.0444     12.0912
  5      0.0240      1.0621      1.0432      1.1402      1.0995      1.1162      1.0019      1.0123      1.0561
  6      0.0000      0.0293      0.0000      0.0000      0.0082      0.0000      0.0000      0.0000      0.0000
  7     32.0774     32.7736     32.6981     33.0425     32.9675     32.9205     32.6728     32.7430     32.8126
  8      0.0000      0.0296      0.0000      0.0000      0.0000      0.0000      0.0000      0.0000      0.0000
  9      0.0000      0.0871      0.0000      0.0000      0.0000      0.0000      0.0000      0.0799      0.0000
 10      9.0029      8.8924      8.9972      9.2856      9.1065      8.8221      8.8837      9.3353      9.2390
 11      0.0000      0.7101      0.7063      0.0327      0.2145      0.6013      0.8329      0.3960      0.3698
 12     18.2675     16.9185     16.9146     17.0639     16.7221     17.2900     16.8373     16.9487     16.8105
 13     18.5327     18.2171     18.2209     18.4587     18.5557     18.1585     18.1261     17.8643     18.3841
 14      0.0000      0.3693      0.4303      0.2579      0.4315      0.3937      0.2774      0.4093      0.4024
 15      0.0000      0.0362      0.0000      0.0000      0.0000      0.0000      0.1216      0.0000      0.0055
 16      0.0000      0.0053      0.0000      0.0000      0.0000      0.0000      0.0000      0.0000      0.0000
 17      0.0000      0.0169      0.0000      0.0000      0.0000      0.0000      0.0000      0.0000      0.0000
 18      0.7698      0.7571      0.6966      0.7242      0.9956      0.8182      0.9239      0.6769      0.9714
 19      0.0000      0.0567      0.0000      0.0000      0.0000      0.0000      0.0000      0.0000      0.0000
 20      0.0000      0.0051      0.0000      0.0000      0.0000      0.0000      0.0093      0.0024      0.0000
 21      0.0000      0.0225      0.0000      0.0000      0.0041      0.0000      0.0085      0.0092      0.0000
 22      0.0000      0.0334      0.0000      0.0000      0.0402      0.0000      0.1631      0.0000      0.0000
 23      0.0000      0.0103      0.0000      0.0121      0.0000      0.0000      0.0000      0.0000      0.0000
 24      0.0000      0.0141      0.0115      0.0050      0.0000      0.0000      0.0110      0.0000      0.0000
 25      0.0000      0.0254      0.0000      0.0000      0.0000      0.0000      0.0000      0.0000      0.0000
 26      0.0000      0.0402      0.0000      0.0836      0.0000      0.0000      0.0000      0.0000      0.0000
 27      0.0000      0.0605      0.1686      0.0000      0.0101      0.0000      0.0000      0.1174      0.0122
 28      0.0000      0.0316      0.0000      0.0578      0.0000      0.0000      0.0414      0.0000      0.0000
 29      0.0000      0.3643      0.2450      0.3673      0.3161      0.2689      0.4129      0.4371      0.2999
 30      0.4399      0.4582      0.5134      0.3453      0.5106      0.3349      0.4326      0.4932      0.4817
 31      0.0000      0.0018      0.0000      0.0000      0.0000      0.0000      0.0000      0.0000      0.0000
 32      0.0000      0.0454      0.0000      0.0000      0.0000      0.0000      0.0000      0.0000      0.0623
 33      0.0000      0.0242      0.0152      0.0226      0.0000      0.0449      0.0000      0.0000      0.0000
 34      0.0000      0.0068      0.0000      0.0000      0.0000      0.0000      0.1596      0.0000      0.0000
 35      0.0000      0.0070      0.0000      0.0000      0.0000      0.0009      0.0000      0.0000      0.0000
 36      0.0000      0.0146      0.0000      0.0000      0.0000      0.0151      0.0000      0.0000      0.0505
 37      0.0000      0.0235      0.0000      0.0000      0.0000      0.0687      0.0000      0.0000      0.0000
 38      0.0000      0.0185      0.0000      0.0274      0.0000      0.0000      0.0000      0.0000      0.0000
 39      0.0000      0.0223      0.0000      0.0000      0.0000      0.0411      0.0000      0.0000      0.0000
 40      0.0000      0.0420      0.0551      0.0000      0.0000      0.0000      0.0000      0.0000      0.0000
 41      0.0000      0.0339      0.0000      0.0703      0.0000      0.0000      0.0030      0.0000      0.0000
 42      0.0000      0.1385      0.2120      0.0003      0.0920      0.2186      0.1487      0.1660      0.0000
 43      0.3446      0.5477      0.5049      0.6515      0.5452      0.4376      0.5142      0.5609      0.5018
 44      0.4872      0.4621      0.4670      0.5269      0.4250      0.4626      0.3808      0.4100      0.4923
 45      0.0000      0.4037      0.3615      0.3544      0.4827      0.3651      0.4023      0.4663      0.4232

# j      m_j: min, <> & last-chain-values for 1 ...  7 chains
  1  0.0000E+00  9.7685E-05  0.0000E+00  0.0000E+00  0.0000E+00  0.0000E+00  0.0000E+00  0.0000E+00  0.0000E+00
  2  5.9968E-02  4.4772E-02  4.7100E-02  4.6588E-02  4.4658E-02  4.7021E-02  4.7048E-02  4.6787E-02  4.5172E-02
  3  0.0000E+00  5.7045E-04  0.0000E+00  0.0000E+00  0.0000E+00  1.2084E-03  0.0000E+00  0.0000E+00  0.0000E+00
  4  2.2186E-01  1.7380E-01  1.7954E-01  1.7756E-01  1.7524E-01  1.8400E-01  1.7913E-01  1.7721E-01  1.7986E-01
  5  9.5194E-04  3.6352E-02  3.6163E-02  3.9453E-02  3.7283E-02  3.9742E-02  3.4948E-02  3.4440E-02  3.6324E-02
  6  0.0000E+00  1.3936E-03  0.0000E+00  0.0000E+00  3.8671E-04  0.0000E+00  0.0000E+00  0.0000E+00  0.0000E+00
  7  2.5089E+00  2.2108E+00  2.2341E+00  2.2535E+00  2.2033E+00  2.3102E+00  2.2464E+00  2.1956E+00  2.2245E+00
  8  0.0000E+00  3.8482E-03  0.0000E+00  0.0000E+00  0.0000E+00  0.0000E+00  0.0000E+00  0.0000E+00  0.0000E+00
  9  0.0000E+00  2.2576E-02  0.0000E+00  0.0000E+00  0.0000E+00  0.0000E+00  0.0000E+00  2.0579E-02  0.0000E+00
 10  3.7762E+00  3.2169E+00  3.2966E+00  3.3961E+00  3.2638E+00  3.3200E+00  3.2755E+00  3.3570E+00  3.3589E+00
 11  0.0000E+00  4.5111E-01  4.5447E-01  2.1018E-02  1.3499E-01  3.9740E-01  5.3934E-01  2.5008E-01  2.3609E-01
 12  2.5019E+01  1.9984E+01  2.0236E+01  2.0378E+01  1.9569E+01  2.1246E+01  2.0271E+01  1.9901E+01  1.9955E+01
 13  5.0547E+01  4.2853E+01  4.3412E+01  4.3899E+01  4.3245E+01  4.4435E+01  4.3459E+01  4.1773E+01  4.3460E+01
 14  0.0000E+00  1.7704E+00  2.0894E+00  1.2503E+00  2.0496E+00  1.9634E+00  1.3555E+00  1.9509E+00  1.9388E+00
 15  0.0000E+00  2.0082E-01  0.0000E+00  0.0000E+00  0.0000E+00  0.0000E+00  6.8836E-01  0.0000E+00  3.0518E-02
 16  0.0000E+00  5.6790E-05  0.0000E+00  0.0000E+00  0.0000E+00  0.0000E+00  0.0000E+00  0.0000E+00  0.0000E+00
 17  0.0000E+00  9.3957E-05  0.0000E+00  0.0000E+00  0.0000E+00  0.0000E+00  0.0000E+00  0.0000E+00  0.0000E+00
 18  5.4851E-03  4.6525E-03  4.3358E-03  4.4999E-03  6.0618E-03  5.2307E-03  5.7868E-03  4.1352E-03  5.9993E-03
 19  0.0000E+00  1.0421E-03  0.0000E+00  0.0000E+00  0.0000E+00  0.0000E+00  0.0000E+00  0.0000E+00  0.0000E+00
 20  0.0000E+00  2.1021E-04  0.0000E+00  0.0000E+00  0.0000E+00  0.0000E+00  3.8548E-04  9.5507E-05  0.0000E+00
 21  0.0000E+00  1.1061E-03  0.0000E+00  0.0000E+00  1.9843E-04  0.0000E+00  4.2274E-04  4.5006E-04  0.0000E+00
 22  0.0000E+00  2.7270E-03  0.0000E+00  0.0000E+00  3.2543E-03  0.0000E+00  1.3569E-02  0.0000E+00  0.0000E+00
 23  0.0000E+00  1.6484E-03  0.0000E+00  1.9645E-03  0.0000E+00  0.0000E+00  0.0000E+00  0.0000E+00  0.0000E+00
 24  0.0000E+00  5.1623E-03  4.2901E-03  1.8420E-03  0.0000E+00  0.0000E+00  4.1040E-03  0.0000E+00  0.0000E+00
 25  0.0000E+00  1.4363E-02  0.0000E+00  0.0000E+00  0.0000E+00  0.0000E+00  0.0000E+00  0.0000E+00  0.0000E+00
 26  0.0000E+00  4.2886E-02  0.0000E+00  9.0129E-02  0.0000E+00  0.0000E+00  0.0000E+00  0.0000E+00  0.0000E+00
 27  0.0000E+00  1.3082E-01  3.6935E-01  0.0000E+00  2.1699E-02  0.0000E+00  0.0000E+00  2.5253E-01  2.6584E-02
 28  0.0000E+00  1.3842E-01  0.0000E+00  2.5589E-01  0.0000E+00  0.0000E+00  1.8454E-01  0.0000E+00  0.0000E+00
 29  0.0000E+00  3.3764E+00  2.2998E+00  3.4416E+00  2.9022E+00  2.5921E+00  3.9000E+00  4.0263E+00  2.7934E+00
 30  5.6390E+00  5.0653E+00  5.7487E+00  3.8598E+00  5.5932E+00  3.8512E+00  4.8744E+00  5.4200E+00  5.3525E+00
 31  0.0000E+00  1.4217E-05  0.0000E+00  0.0000E+00  0.0000E+00  0.0000E+00  0.0000E+00  0.0000E+00  0.0000E+00
 32  0.0000E+00  1.9182E-04  0.0000E+00  0.0000E+00  0.0000E+00  0.0000E+00  0.0000E+00  0.0000E+00  2.6411E-04
 33  0.0000E+00  1.5134E-04  9.6101E-05  1.4286E-04  0.0000E+00  2.9225E-04  0.0000E+00  0.0000E+00  0.0000E+00
