###################################################################
## OUTPUT of StarlightChains_v04.for    [Cid@UFSC - 01/Apr/2007] ##
###################################################################

## Some input info
NGC6171_a_1.cxt                          [arq_obs]
Base.BC03.N                              [arq_base]
NGC6171_a_1.msk                          [arq_masks]
StCv04.C11.config                        [arq_config]
   45                                    [N_base]
    0                                    [N_YAV_components = # of components with extra extinction!]
    0                                    [i_FitPowerLaw (1/0 = Yes/No)]
-9.99                                    [alpha_PowerLaw]
CCM                                      [red_law_option]
 1.458241                                [q_norm = A(l_norm)/A(V)]

## (Re)Sampling Parameters
 3359.00                                 [l_ini (A)]
 6428.00                                 [l_fin (A)]
    1.00                                 [dl    (A)]     (OBS: dl_cushion =    50.00 A)

## Normalization info
 4020.00                                 [l_norm (A) - for base]
 4010.00                                 [llow_norm (A) - window for f_obs]
 4060.00                                 [lupp_norm (A) - window for f_obs]
4.369149E-15                             [fobs_norm (in input units)]

## S/N
 4730.00                                 [llow_SN (A) - window for S/N]
 4780.00                                 [lupp_SN (A) - window for S/N]
  52.314                                 [S/N in S/N window]
  35.378                                 [S/N in norm. window]
 244.302                                 [S/N_err in S/N window]
 165.214                                 [S/N_err in norm. window]
  1.0000                                 [fscale_chi2]

## etc...
  2147483627                             [idum_orig]
  3069                                   [NOl_eff]
   672                                   [Nl_eff]
  2397    NSIGMA                         [Ntot_cliped & clip_method]
  1185380                                [Nglobal_steps]
   7                                     [N_chains]
  14                                     [NEX0s_base = N_base in EX0s-fits]
 0   0   1      258   2.0   3.468E+02    [Clip-Bug, RC-Crash & Burn-In warning-flags, n_censored_weights, wei_nsig_threshold & wei_limit]
    11     11.181     11.181      0.000  [idt_all, wdt_TotTime, wdt_UsrTime & wdt_SysTime (sec)]

## Synthesis Results - Best model ##

 2.72550E+00                             [chi2/Nl_eff]
     1.16408                             [adev (%)]

   101.38374                             [sum-of-x (%)]
 2.89496E-14                             [Flux_tot (units of input spectrum!)]
 5.82563E-10                             [Mini_tot (???)]
 3.03383E-10                             [Mcor_tot (???)]

  -6.69                                  [v0_min  (km/s)]
  61.09                                  [vd_min  (km/s)]
 1.3977                                  [AV_min  (mag)]
 0.0000                                  [YAV_min (mag)]

# j     x_j(%)      Mini_j(%)     Mcor_j(%)     age_j(yr)     Z_j      (L/M)_j    YAV?  Mstars   component_j        a/Fe...       SSP_chi2r SSP_adev(%)   SSP_AV   SSP_x(%)
  1      2.6956     1.1861E-02    2.2775E-02    1.000000E+06  0.00400  1.114E-02    0   1.0000   age020_m42            0.0000     1.9573E+03    22.6312   4.0000    94.3226
  2      2.3066     2.7758E-03    5.3297E-03    3.160000E+06  0.00400  4.073E-02    0   0.9999   age045_m42            0.0000     2.1143E+02     6.4365   3.8515    95.1199
  3      1.3969     2.7020E-03    4.9228E-03    5.010000E+06  0.00400  2.534E-02    0   0.9488   age055_m42            0.0000     4.0120E+02    10.9725   4.0000    94.1544
  4      7.5950     2.9290E-02    4.9842E-02    1.000000E+07  0.00400  1.271E-02    0   0.8862   age070_m42            0.0000     2.8071E+02     8.3615   3.4619    93.3915
  5      1.0509     1.0160E-02    1.5947E-02    2.512000E+07  0.00400  5.070E-03    0   0.8174   age090_m42            0.0000     2.3568E+02     7.6401   3.3326    95.1072
  6      0.0000     0.0000E+00    0.0000E+00    4.000000E+07  0.00400  3.505E-03    0   0.7851   age104_m42            0.0000     1.7252E+02     6.0770   3.0207    98.0249
  7      0.0000     0.0000E+00    0.0000E+00    1.015200E+08  0.00400  2.268E-03    0   0.7207   age116_m42            0.0000     8.0021E+02    11.7054   3.0700   105.0939
  8      0.0000     0.0000E+00    0.0000E+00    2.861200E+08  0.00400  1.079E-03    0   0.6613   age125_m42            0.0000     8.6792E+02    12.5383   2.5735   107.1810
  9      0.0000     0.0000E+00    0.0000E+00    6.405400E+08  0.00400  5.077E-04    0   0.6197   age132_m42            0.0000     9.1184E+02    13.1544   2.2181   111.0207
 10      0.0000     0.0000E+00    0.0000E+00    9.047900E+08  0.00400  3.535E-04    0   0.6024   age135_m42            0.0000     6.4351E+02    11.2329   1.9719   110.5526
 11      0.0000     0.0000E+00    0.0000E+00    1.434000E+09  0.00400  1.910E-04    0   0.5716   age139_m42            0.0000     3.6288E+02     8.9179   1.4347   109.9175
 12     34.5476     1.7247E+01    1.8093E+01    2.500000E+09  0.00400  9.818E-05    0   0.5463   age150_m42            0.0000     1.4487E+02     6.1015   1.1396   106.0176
 13     30.5484     3.1737E+01    3.1860E+01    5.000000E+09  0.00400  4.718E-05    0   0.5228   age161_m42            0.0000     9.0396E+01     5.0544   0.9632   103.1914
 14      0.0000     0.0000E+00    0.0000E+00    1.100000E+10  0.00400  2.205E-05    0   0.4980   age185_m42            0.0000     1.6702E+02     6.3043   0.6950   101.4793
 15      0.0000     0.0000E+00    0.0000E+00    1.300000E+10  0.00400  1.883E-05    0   0.4927   age193_m42            0.0000     1.8060E+02     6.5113   0.6758   101.4370
 16      1.4598     3.5973E-03    6.9077E-03    1.000000E+06  0.02000  1.989E-02    0   1.0000   age020_m62            0.0000     1.8197E+03    21.7485   4.0000    94.7664
 17      1.0203     1.3258E-03    2.5097E-03    3.160000E+06  0.02000  3.772E-02    0   0.9858   age045_m62            0.0000     1.3459E+03    19.3099   4.0000    95.4764
 18      3.1834     4.8353E-03    8.6739E-03    5.010000E+06  0.02000  3.227E-02    0   0.9342   age055_m62            0.0000     2.7967E+02     8.2858   4.0000    94.3085
 19      0.1816     8.8033E-04    1.4793E-03    1.000000E+07  0.02000  1.011E-02    0   0.8751   age070_m62            0.0000     5.1806E+02    12.2300   3.4952    90.6972
 20      0.0000     0.0000E+00    0.0000E+00    2.512000E+07  0.02000  4.206E-03    0   0.8099   age090_m62            0.0000     3.4068E+02    10.1183   3.4153    91.7267
 21      0.0000     0.0000E+00    0.0000E+00    4.000000E+07  0.02000  3.373E-03    0   0.7799   age104_m62            0.0000     2.3268E+02     6.2601   3.2536    99.2341
 22      0.0000     0.0000E+00    0.0000E+00    1.015200E+08  0.02000  1.878E-03    0   0.7221   age116_m62            0.0000     7.0332E+02    10.8686   3.0930   105.9831
 23      0.0000     0.0000E+00    0.0000E+00    2.861200E+08  0.02000  8.869E-04    0   0.6700   age125_m62            0.0000     1.3088E+03    15.3772   2.5935   112.1628
 24      0.0000     0.0000E+00    0.0000E+00    6.405400E+08  0.02000  3.657E-04    0   0.6322   age132_m62            0.0000     9.4570E+02    13.7465   1.9002   115.7749
 25      0.0000     0.0000E+00    0.0000E+00    9.047900E+08  0.02000  2.312E-04    0   0.6152   age135_m62            0.0000     5.9188E+02    11.1857   1.5202   115.0907
 26      0.0000     0.0000E+00    0.0000E+00    1.434000E+09  0.02000  1.168E-04    0   0.5865   age139_m62            0.0000     2.3510E+02     7.4237   1.0894   110.2094
 27      0.0000     0.0000E+00    0.0000E+00    2.500000E+09  0.02000  5.505E-05    0   0.5610   age150_m62            0.0000     2.1094E+02     7.3430   0.7102   107.8789
 28      0.0000     0.0000E+00    0.0000E+00    5.000000E+09  0.02000  2.596E-05    0   0.5353   age161_m62            0.0000     3.8753E+02     9.5149   0.3660   108.5176
 29     12.1499     5.0944E+01    4.9919E+01    1.100000E+10  0.02000  1.169E-05    0   0.5103   age185_m62            0.0000     6.6207E+02    12.0534  -0.0062   110.6405
 30      0.0000     0.0000E+00    0.0000E+00    1.300000E+10  0.02000  9.691E-06    0   0.5047   age193_m62            0.0000     7.1793E+02    12.4879  -0.0535   111.0033
 31      1.8955     3.5046E-03    6.7283E-03    1.000000E+06  0.05000  2.651E-02    0   0.9998   age020_m72            0.0000     1.7814E+03    21.3106   4.0000    95.7684
 32      1.3522     1.3759E-03    2.5303E-03    3.160000E+06  0.05000  4.817E-02    0   0.9577   age045_m72            0.0000     8.6635E+02    15.4493   4.0000    96.7020
 33      0.0000     0.0000E+00    0.0000E+00    5.010000E+06  0.05000  3.101E-02    0   0.9147   age055_m72            0.0000     3.3556E+02     9.9695   4.0000    93.4644
 34      0.0000     0.0000E+00    0.0000E+00    1.000000E+07  0.05000  8.954E-03    0   0.8524   age070_m72            0.0000     5.9732E+02    12.9801   4.0000    96.4289
 35      0.0000     0.0000E+00    0.0000E+00    2.512000E+07  0.05000  4.207E-03    0   0.7902   age090_m72            0.0000     1.9317E+02     6.4031   3.9320    95.1124
 36      0.0000     0.0000E+00    0.0000E+00    4.000000E+07  0.05000  3.198E-03    0   0.7618   age104_m72            0.0000     4.5927E+02     8.6465   3.4664   102.0464
 37      0.0000     0.0000E+00    0.0000E+00    1.015200E+08  0.05000  1.716E-03    0   0.7092   age116_m72            0.0000     8.2637E+02    11.8489   3.2059   105.7539
 38      0.0000     0.0000E+00    0.0000E+00    2.861200E+08  0.05000  7.047E-04    0   0.6618   age125_m72            0.0000     1.2674E+03    15.3109   2.3999   112.5313
 39      0.0000     0.0000E+00    0.0000E+00    6.405400E+08  0.05000  2.633E-04    0   0.6253   age132_m72            0.0000     7.5467E+02    12.5263   1.5338   115.2022
 40      0.0000     0.0000E+00    0.0000E+00    9.047900E+08  0.05000  1.484E-04    0   0.6088   age135_m72            0.0000     3.8268E+02     9.5224   1.0301   110.9462
 41      0.0000     0.0000E+00    0.0000E+00    1.434000E+09  0.05000  7.827E-05    0   0.5847   age139_m72            0.0000     3.3500E+02     9.2518   0.6284   108.2227
 42      0.0000     0.0000E+00    0.0000E+00    2.500000E+09  0.05000  3.759E-05    0   0.5583   age150_m72            0.0000     4.4628E+02    10.2474   0.2964   108.1380
 43      0.0000     0.0000E+00    0.0000E+00    5.000000E+09  0.05000  1.548E-05    0   0.5320   age161_m72            0.0000     7.1136E+02    12.2400  -0.0990   108.1903
 44      0.0000     0.0000E+00    0.0000E+00    1.100000E+10  0.05000  6.532E-06    0   0.5070   age185_m72            0.0000     1.0969E+03    14.7345  -0.4869   108.6665
 45      0.0000     0.0000E+00    0.0000E+00    1.300000E+10  0.05000  5.316E-06    0   0.5018   age193_m72            0.0000     1.2672E+03    15.7835  -0.6096   109.0047


## Synthesis Results - Average & Chains ##

# j      x_j: min, <> & last-chain-values for 1 ...  7 chains
  1      2.6956      2.9431      2.9847      2.9308      2.9246      3.0520      3.0141      2.8643      2.9565
  2      2.3066      1.8510      1.7416      1.9274      1.8680      1.7787      1.7893      1.7883      1.8080
  3      1.3969      1.3008      1.2442      1.3763      1.2410      1.2990      1.2803      1.3386      1.3297
  4      7.5950      7.6381      7.7049      7.6926      7.6662      7.6440      7.6451      7.6397      7.7607
  5      1.0509      1.0775      1.1659      1.0896      0.7742      0.8521      1.2038      1.1737      1.0141
  6      0.0000      0.0337      0.0000      0.0604      0.0000      0.0605      0.0000      0.0000      0.0000
  7      0.0000      0.0317      0.0000      0.0407      0.0446      0.0000      0.0367      0.0000      0.0000
  8      0.0000      0.0391      0.0000      0.0000      0.0051      0.2344      0.0000      0.0000      0.0409
  9      0.0000      0.1573      0.5335      0.1906      0.2021      0.1890      0.0000      0.3122      0.0000
 10      0.0000      0.3220      0.4118      0.4710      0.5329      0.6311      0.3123      0.3137      0.4416
 11      0.0000      0.4454      0.4402      0.6615      0.3618      0.2304      0.8043      0.1537      0.5998
 12     34.5476     32.1151     32.2183     32.1598     32.0709     32.0653     32.3826     32.6529     32.3436
 13     30.5484     30.8214     30.7769     30.8283     31.3624     30.9745     31.1342     30.9591     31.1342
 14      0.0000      0.1507      0.0717      0.0000      0.0000      0.1448      0.0023      0.0582      0.0000
 15      0.0000      0.0529      0.0000      0.0000      0.0780      0.0000      0.0124      0.0000      0.0000
 16      1.4598      1.6176      1.4666      1.6186      1.6278      1.6276      1.6504      1.5921      1.8694
 17      1.0203      1.1445      1.1966      1.1075      1.2680      1.1534      1.1753      1.1792      1.0432
 18      3.1834      3.0001      2.9720      3.1543      3.3853      2.9829      3.1135      3.0945      2.9418
 19      0.1816      0.1183      0.6029      0.0000      0.0310      0.1867      0.0444      0.2047      0.0327
 20      0.0000      0.0436      0.0000      0.0000      0.0000      0.0348      0.0124      0.0101      0.0000
 21      0.0000      0.0359      0.0000      0.0000      0.0896      0.0000      0.1006      0.0000      0.0000
 22      0.0000      0.0652      0.0000      0.0684      0.0000      0.0749      0.0000      0.0794      0.0000
 23      0.0000      0.0187      0.0000      0.0000      0.0000      0.0000      0.0000      0.0000      0.0000
 24      0.0000      0.0281      0.0000      0.0000      0.0000      0.0000      0.0000      0.0000      0.0791
 25      0.0000      0.0513      0.0000      0.0000      0.0000      0.0011      0.0000      0.0000      0.0000
 26      0.0000      0.0671      0.0000      0.0000      0.0000      0.0000      0.0000      0.0000      0.0000
 27      0.0000      0.0683      0.0000      0.0641      0.0000      0.0000      0.0000      0.0000      0.0000
 28      0.0000      0.4098      0.3664      0.3020      0.1642      0.4887      0.2854      0.3247      0.3737
 29     12.1499     12.4245     12.5080     12.5629     12.6277     12.5062     12.5261     12.3878     12.4784
 30      0.0000      0.0362      0.1594      0.0000      0.0000      0.0777      0.0000      0.0000      0.0000
 31      1.8955      1.8781      1.7394      1.8733      1.7490      1.8947      1.7242      1.8244      1.7211
 32      1.3522      1.0410      1.1465      1.0973      1.0630      1.0910      1.0117      1.1219      1.2154
 33      0.0000      0.0377      0.0000      0.0765      0.0000      0.0630      0.1042      0.0000      0.0000
 34      0.0000      0.0307      0.0000      0.0000      0.1750      0.0000      0.0000      0.0912      0.1088
 35      0.0000      0.0818      0.0000      0.0000      0.0000      0.0469      0.0685      0.0000      0.0000
 36      0.0000      0.0249      0.0000      0.0000      0.0000      0.0095      0.0000      0.0000      0.0000
 37      0.0000      0.0468      0.0198      0.0000      0.0000      0.0000      0.0000      0.1378      0.1275
 38      0.0000      0.0185      0.0000      0.0000      0.0342      0.0562      0.0000      0.0245      0.0000
 39      0.0000      0.0275      0.0000      0.0000      0.0000      0.0000      0.0000      0.0000      0.0000
 40      0.0000      0.0388      0.0000      0.0000      0.0000      0.0000      0.0000      0.0460      0.0000
 41      0.0000      0.0362      0.0000      0.0000      0.0523      0.0000      0.0000      0.0000      0.0000
 42      0.0000      0.0318      0.0094      0.0000      0.0000      0.0012      0.0000      0.0560      0.0000
 43      0.0000      0.0184      0.0000      0.0000      0.0477      0.0000      0.0000      0.0289      0.0000
 44      0.0000      0.0457      0.0000      0.0119      0.0000      0.0000      0.0000      0.0000      0.0176
 45      0.0000      0.0116      0.0000      0.1106      0.0000      0.0000      0.0000      0.0000      0.0000

# j      m_j: min, <> & last-chain-values for 1 ...  7 chains
  1  2.2775E-02  2.4265E-02  2.4625E-02  2.4100E-02  2.4123E-02  2.5167E-02  2.4992E-02  2.3842E-02  2.4508E-02
  2  5.3297E-03  4.1737E-03  3.9297E-03  4.3344E-03  4.2136E-03  4.0112E-03  4.0575E-03  4.0710E-03  4.0989E-03
  3  4.9228E-03  4.4733E-03  4.2817E-03  4.7205E-03  4.2698E-03  4.4679E-03  4.4281E-03  4.6477E-03  4.5975E-03
  4  4.9842E-02  4.8915E-02  4.9376E-02  4.9134E-02  4.9115E-02  4.8960E-02  4.9238E-02  4.9395E-02  4.9969E-02
  5  1.5947E-02  1.5956E-02  1.7276E-02  1.6092E-02  1.1469E-02  1.2619E-02  1.7926E-02  1.7546E-02  1.5098E-02
  6  0.0000E+00  6.9368E-04  0.0000E+00  1.2385E-03  0.0000E+00  1.2445E-03  0.0000E+00  0.0000E+00  0.0000E+00
  7  0.0000E+00  9.2499E-04  0.0000E+00  1.1835E-03  1.3030E-03  0.0000E+00  1.0772E-03  0.0000E+00  0.0000E+00
  8  0.0000E+00  2.2037E-03  0.0000E+00  0.0000E+00  2.8653E-04  1.3197E-02  0.0000E+00  0.0000E+00  2.3150E-03
  9  0.0000E+00  1.7640E-02  5.9849E-02  2.1310E-02  2.2662E-02  2.1198E-02  0.0000E+00  3.5333E-02  0.0000E+00
 10  0.0000E+00  5.0401E-02  6.4494E-02  7.3526E-02  8.3435E-02  9.8795E-02  4.9153E-02  4.9577E-02  6.9492E-02
 11  0.0000E+00  1.2241E-01  1.2107E-01  1.8134E-01  9.9483E-02  6.3335E-02  2.2233E-01  4.2664E-02  1.6577E-01
 12  1.8093E+01  1.6413E+01  1.6477E+01  1.6392E+01  1.6397E+01  1.6390E+01  1.6644E+01  1.6848E+01  1.6619E+01
 13  3.1860E+01  3.1369E+01  3.1345E+01  3.1293E+01  3.1933E+01  3.1530E+01  3.1867E+01  3.1811E+01  3.1859E+01
 14  0.0000E+00  3.1263E-01  1.4889E-01  0.0000E+00  0.0000E+00  3.0049E-01  4.7321E-03  1.2192E-01  0.0000E+00
 15  0.0000E+00  1.2711E-01  0.0000E+00  0.0000E+00  1.8752E-01  0.0000E+00  3.0031E-02  0.0000E+00  0.0000E+00
 16  6.9077E-03  7.4699E-03  6.7771E-03  7.4545E-03  7.5199E-03  7.5173E-03  7.6643E-03  7.4224E-03  8.6794E-03
 17  2.5097E-03  2.7472E-03  2.8743E-03  2.6515E-03  3.0450E-03  2.7690E-03  2.8372E-03  2.8578E-03  2.5178E-03
 18  8.6739E-03  7.9771E-03  7.9076E-03  8.3651E-03  9.0052E-03  7.9326E-03  8.3256E-03  8.3071E-03  7.8645E-03
 19  1.4793E-03  9.4041E-04  4.7960E-03  0.0000E+00  2.4639E-04  1.4843E-03  3.5490E-04  1.6426E-03  2.6176E-04
 20  0.0000E+00  7.7056E-04  0.0000E+00  0.0000E+00  0.0000E+00  6.1542E-04  2.2060E-04  1.7986E-04  0.0000E+00
 21  0.0000E+00  7.6286E-04  0.0000E+00  0.0000E+00  1.9040E-03  0.0000E+00  2.1477E-03  0.0000E+00  0.0000E+00
 22  0.0000E+00  2.3013E-03  0.0000E+00  2.4081E-03  0.0000E+00  2.6451E-03  0.0000E+00  2.8319E-03  0.0000E+00
 23  0.0000E+00  1.2994E-03  0.0000E+00  0.0000E+00  0.0000E+00  0.0000E+00  0.0000E+00  0.0000E+00  0.0000E+00
 24  0.0000E+00  4.4605E-03  0.0000E+00  0.0000E+00  0.0000E+00  0.0000E+00  0.0000E+00  0.0000E+00  1.2636E-02
 25  0.0000E+00  1.2538E-02  0.0000E+00  0.0000E+00  0.0000E+00  2.7831E-04  0.0000E+00  0.0000E+00  0.0000E+00
 26  0.0000E+00  3.0931E-02  0.0000E+00  0.0000E+00  0.0000E+00  0.0000E+00  0.0000E+00  0.0000E+00  0.0000E+00
 27  0.0000E+00  6.3901E-02  0.0000E+00  5.9865E-02  0.0000E+00  0.0000E+00  0.0000E+00  0.0000E+00  0.0000E+00
 28  0.0000E+00  7.7620E-01  6.9444E-01  5.7051E-01  3.1118E-01  9.2561E-01  5.4359E-01  6.2083E-01  7.1156E-01
 29  4.9919E+01  4.9814E+01  5.0183E+01  5.0237E+01  5.0651E+01  5.0150E+01  5.0507E+01  5.0144E+01  5.0302E+01
 30  0.0000E+00  1.7325E-01  7.6309E-01  0.0000E+00  0.0000E+00  3.7153E-01  0.0000E+00  0.0000E+00  0.0000E+00
 31  6.7283E-03  6.5055E-03  6.0294E-03  6.4720E-03  6.0609E-03  6.5643E-03  6.0064E-03  6.3802E-03  5.9940E-03
 32  2.5303E-03  1.9010E-03  2.0950E-03  1.9986E-03  1.9419E-03  1.9926E-03  1.8579E-03  2.0684E-03  2.2314E-03
 33  0.0000E+00  1.0209E-04  0.0000E+00  2.0665E-04  0.0000E+00  1.7080E-04  2.8397E-04  0.0000E+00  0.0000E+00
