###################################################################
## OUTPUT of StarlightChains_v04.for    [Cid@UFSC - 01/Apr/2007] ##
###################################################################

## Some input info
NGC6362_a_1.cxt                          [arq_obs]
Base.BC03.N                              [arq_base]
NGC6362_a_1.msk                          [arq_masks]
StCv04.C11.config                        [arq_config]
   45                                    [N_base]
    0                                    [N_YAV_components = # of components with extra extinction!]
    0                                    [i_FitPowerLaw (1/0 = Yes/No)]
-9.99                                    [alpha_PowerLaw]
CCM                                      [red_law_option]
 1.458241                                [q_norm = A(l_norm)/A(V)]

## (Re)Sampling Parameters
 3359.00                                 [l_ini (A)]
 6428.00                                 [l_fin (A)]
    1.00                                 [dl    (A)]     (OBS: dl_cushion =    50.00 A)

## Normalization info
 4020.00                                 [l_norm (A) - for base]
 4010.00                                 [llow_norm (A) - window for f_obs]
 4060.00                                 [lupp_norm (A) - window for f_obs]
1.238399E-14                             [fobs_norm (in input units)]

## S/N
 4730.00                                 [llow_SN (A) - window for S/N]
 4780.00                                 [lupp_SN (A) - window for S/N]
  69.165                                 [S/N in S/N window]
  59.492                                 [S/N in norm. window]
  54.471                                 [S/N_err in S/N window]
  46.853                                 [S/N_err in norm. window]
  1.0000                                 [fscale_chi2]

## etc...
  2147483611                             [idum_orig]
  3061                                   [NOl_eff]
  2301                                   [Nl_eff]
   760    NSIGMA                         [Ntot_cliped & clip_method]
   572880                                [Nglobal_steps]
   7                                     [N_chains]
   6                                     [NEX0s_base = N_base in EX0s-fits]
 0   0   1      376   2.0   8.432E+02    [Clip-Bug, RC-Crash & Burn-In warning-flags, n_censored_weights, wei_nsig_threshold & wei_limit]
     9      8.358      8.354      0.004  [idt_all, wdt_TotTime, wdt_UsrTime & wdt_SysTime (sec)]

## Synthesis Results - Best model ##

 1.48032E+00                             [chi2/Nl_eff]
     1.75153                             [adev (%)]

   103.38132                             [sum-of-x (%)]
 2.00727E-14                             [Flux_tot (units of input spectrum!)]
 2.39936E-10                             [Mini_tot (???)]
 1.27608E-10                             [Mcor_tot (???)]

  -9.71                                  [v0_min  (km/s)]
  83.95                                  [vd_min  (km/s)]
 0.3348                                  [AV_min  (mag)]
 0.0000                                  [YAV_min (mag)]

# j     x_j(%)      Mini_j(%)     Mcor_j(%)     age_j(yr)     Z_j      (L/M)_j    YAV?  Mstars   component_j        a/Fe...       SSP_chi2r SSP_adev(%)   SSP_AV   SSP_x(%)
  1      0.0000     0.0000E+00    0.0000E+00    1.000000E+06  0.00400  1.114E-02    0   1.0000   age020_m42            0.0000     1.4887E+02    11.4766   4.0000    71.3503
  2      9.2402     1.8358E-02    3.4515E-02    3.160000E+06  0.00400  4.073E-02    0   0.9999   age045_m42            0.0000     3.3774E+01     5.9590   2.8758    90.0280
  3      0.0000     0.0000E+00    0.0000E+00    5.010000E+06  0.00400  2.534E-02    0   0.9488   age055_m42            0.0000     6.4199E+01     8.9121   3.3747    80.8901
  4      2.1404     1.3628E-02    2.2708E-02    1.000000E+07  0.00400  1.271E-02    0   0.8862   age070_m42            0.0000     5.1088E+01     9.1843   2.5794    84.7835
  5      0.0000     0.0000E+00    0.0000E+00    2.512000E+07  0.00400  5.070E-03    0   0.8174   age090_m42            0.0000     4.6490E+01     8.6512   2.4346    86.9014
  6      0.0000     0.0000E+00    0.0000E+00    4.000000E+07  0.00400  3.505E-03    0   0.7851   age104_m42            0.0000     3.5160E+01     6.8558   2.0732    91.5819
  7     12.3465     4.4053E-01    5.9696E-01    1.015200E+08  0.00400  2.268E-03    0   0.7207   age116_m42            0.0000     2.6609E+02     6.5694   1.7170   113.2704
  8      0.0000     0.0000E+00    0.0000E+00    2.861200E+08  0.00400  1.079E-03    0   0.6613   age125_m42            0.0000     2.6955E+02     7.5334   1.1789   117.5977
  9      0.0000     0.0000E+00    0.0000E+00    6.405400E+08  0.00400  5.077E-04    0   0.6197   age132_m42            0.0000     2.8450E+02     8.0236   0.7865   123.3745
 10      0.0000     0.0000E+00    0.0000E+00    9.047900E+08  0.00400  3.535E-04    0   0.6024   age135_m42            0.0000     1.6613E+02     6.4368   0.6179   120.0118
 11      0.0000     0.0000E+00    0.0000E+00    1.434000E+09  0.00400  1.910E-04    0   0.5716   age139_m42            0.0000     5.1013E+01     5.1969   0.1507   117.0290
 12     41.7792     3.4435E+01    3.5372E+01    2.500000E+09  0.00400  9.818E-05    0   0.5463   age150_m42            0.0000     6.0442E+00     2.9382  -0.0157   108.3037
 13     37.8088     6.4849E+01    6.3747E+01    5.000000E+09  0.00400  4.718E-05    0   0.5228   age161_m42            0.0000     1.9628E+01     2.4149  -0.1267   102.9356
 14      0.0662     2.4293E-01    2.2747E-01    1.100000E+10  0.00400  2.205E-05    0   0.4980   age185_m42            0.0000     6.6083E+01     3.3631  -0.3774   100.7100
 15      0.0000     0.0000E+00    0.0000E+00    1.300000E+10  0.00400  1.883E-05    0   0.4927   age193_m42            0.0000     7.5615E+01     3.5066  -0.3904   100.4474
 16      0.0000     0.0000E+00    0.0000E+00    1.000000E+06  0.02000  1.989E-02    0   1.0000   age020_m62            0.0000     1.5467E+02    11.6231   3.9712    72.0549
 17      0.0000     0.0000E+00    0.0000E+00    3.160000E+06  0.02000  3.772E-02    0   0.9858   age045_m62            0.0000     1.2760E+02    11.2177   3.8205    74.4128
 18      0.0000     0.0000E+00    0.0000E+00    5.010000E+06  0.02000  3.227E-02    0   0.9342   age055_m62            0.0000     4.1831E+01     7.3653   3.1800    85.3514
 19      0.0000     0.0000E+00    0.0000E+00    1.000000E+07  0.02000  1.011E-02    0   0.8751   age070_m62            0.0000     1.2626E+02    13.5748   2.7022    77.9629
 20      0.0000     0.0000E+00    0.0000E+00    2.512000E+07  0.02000  4.206E-03    0   0.8099   age090_m62            0.0000     1.0162E+02    11.4307   2.5995    80.3213
 21      0.0000     0.0000E+00    0.0000E+00    4.000000E+07  0.02000  3.373E-03    0   0.7799   age104_m62            0.0000     4.7719E+01     6.3169   2.2446    94.4019
 22      0.0000     0.0000E+00    0.0000E+00    1.015200E+08  0.02000  1.878E-03    0   0.7221   age116_m62            0.0000     2.1701E+02     5.8387   1.8019   111.6972
 23      0.0000     0.0000E+00    0.0000E+00    2.861200E+08  0.02000  8.869E-04    0   0.6700   age125_m62            0.0000     4.7184E+02    10.3364   1.0583   128.3424
 24      0.0000     0.0000E+00    0.0000E+00    6.405400E+08  0.02000  3.657E-04    0   0.6322   age132_m62            0.0000     2.2777E+02     9.9608   0.3963   132.6048
 25      0.0000     0.0000E+00    0.0000E+00    9.047900E+08  0.02000  2.312E-04    0   0.6152   age135_m62            0.0000     1.0070E+02     7.7890   0.1304   127.3251
 26      0.0000     0.0000E+00    0.0000E+00    1.434000E+09  0.02000  1.168E-04    0   0.5865   age139_m62            0.0000     1.3123E+01     4.3684  -0.1256   114.9586
 27      0.0000     0.0000E+00    0.0000E+00    2.500000E+09  0.02000  5.505E-05    0   0.5610   age150_m62            0.0000     3.9557E+01     4.2865  -0.4501   110.4375
 28      0.0000     0.0000E+00    0.0000E+00    5.000000E+09  0.02000  2.596E-05    0   0.5353   age161_m62            0.0000     1.4025E+02     5.9221  -0.8077   112.0123
 29      0.0000     0.0000E+00    0.0000E+00    1.100000E+10  0.02000  1.169E-05    0   0.5103   age185_m62            0.0000     3.0060E+02    10.1288  -1.0000   114.0640
 30      0.0000     0.0000E+00    0.0000E+00    1.300000E+10  0.02000  9.691E-06    0   0.5047   age193_m62            0.0000     3.4260E+02    11.5879  -1.0000   114.0835
 31      0.0000     0.0000E+00    0.0000E+00    1.000000E+06  0.05000  2.651E-02    0   0.9998   age020_m72            0.0000     1.4891E+02    11.1121   3.9653    73.1733
 32      0.0000     0.0000E+00    0.0000E+00    3.160000E+06  0.05000  4.817E-02    0   0.9577   age045_m72            0.0000     8.2954E+01     9.4377   3.6305    78.8867
 33      0.0000     0.0000E+00    0.0000E+00    5.010000E+06  0.05000  3.101E-02    0   0.9147   age055_m72            0.0000     7.2412E+01     9.3890   3.2644    81.5206
 34      0.0000     0.0000E+00    0.0000E+00    1.000000E+07  0.05000  8.954E-03    0   0.8524   age070_m72            0.0000     9.6502E+01     9.2703   3.5048    80.3521
 35      0.0000     0.0000E+00    0.0000E+00    2.512000E+07  0.05000  4.207E-03    0   0.7902   age090_m72            0.0000     4.7312E+01     6.6053   2.9823    88.7175
 36      0.0000     0.0000E+00    0.0000E+00    4.000000E+07  0.05000  3.198E-03    0   0.7618   age104_m72            0.0000     1.0825E+02     4.3483   2.2674   103.8344
 37      0.0000     0.0000E+00    0.0000E+00    1.015200E+08  0.05000  1.716E-03    0   0.7092   age116_m72            0.0000     2.6773E+02     6.4777   1.8499   113.1844
 38      0.0000     0.0000E+00    0.0000E+00    2.861200E+08  0.05000  7.047E-04    0   0.6618   age125_m72            0.0000     4.5132E+02    10.7843   0.8322   129.6722
 39      0.0000     0.0000E+00    0.0000E+00    6.405400E+08  0.05000  2.633E-04    0   0.6253   age132_m72            0.0000     1.6265E+02    10.1588   0.0000   130.5567
 40      0.0000     0.0000E+00    0.0000E+00    9.047900E+08  0.05000  1.484E-04    0   0.6088   age135_m72            0.0000     2.8334E+01     6.4934  -0.2799   119.6320
 41      0.0000     0.0000E+00    0.0000E+00    1.434000E+09  0.05000  7.827E-05    0   0.5847   age139_m72            0.0000     5.5086E+01     6.0166  -0.6022   113.6295
 42      0.0000     0.0000E+00    0.0000E+00    2.500000E+09  0.05000  3.759E-05    0   0.5583   age150_m72            0.0000     1.4964E+02     6.4810  -0.9029   112.3459
 43      0.0000     0.0000E+00    0.0000E+00    5.000000E+09  0.05000  1.548E-05    0   0.5320   age161_m72            0.0000     3.2001E+02    13.6234  -1.0000   110.7667
 44      0.0000     0.0000E+00    0.0000E+00    1.100000E+10  0.05000  6.532E-06    0   0.5070   age185_m72            0.0000     6.7605E+02    25.5142  -1.0000   107.4730
 45      0.0000     0.0000E+00    0.0000E+00    1.300000E+10  0.05000  5.316E-06    0   0.5018   age193_m72            0.0000     8.4667E+02    28.9875  -1.0000   106.0324


## Synthesis Results - Average & Chains ##

# j      x_j: min, <> & last-chain-values for 1 ...  7 chains
  1      0.0000      0.0056      0.0000      0.0008      0.0000      0.0000      0.0000      0.0000      0.1102
  2      9.2402      7.6603      7.6604      8.1860      7.7925      7.9024      7.9787      7.7699      7.9348
  3      0.0000      0.0702      0.1944      0.0000      0.0000      0.1303      0.0000      0.1156      0.0000
  4      2.1404      1.8168      1.7888      1.8782      2.2143      1.8437      2.2272      1.7328      2.1467
  5      0.0000      0.1717      0.1703      0.2176      0.0440      0.0000      0.0000      0.2894      0.1884
  6      0.0000      0.0624      0.0000      0.0000      0.0574      0.0000      0.0000      0.0000      0.0000
  7     12.3465     13.9013     13.6990     13.8967     13.9092     13.9697     13.8328     13.8940     13.9038
  8      0.0000      0.0175      0.0507      0.0000      0.0000      0.0000      0.0000      0.0000      0.0000
  9      0.0000      0.0524      0.1912      0.0000      0.0000      0.0125      0.1105      0.0098      0.0000
 10      0.0000      0.1078      0.1707      0.0871      0.0000      0.0000      0.0000      0.2614      0.0000
 11      0.0000      0.0624      0.0000      0.0000      0.0000      0.0000      0.0000      0.0932      0.0000
 12     41.7792     39.0038     39.4583     39.4938     39.4063     39.4410     38.7558     39.1239     39.5650
 13     37.8088     34.9702     34.7163     34.5591     35.2591     34.7870     35.9520     34.8599     35.4697
 14      0.0662      4.8819      4.8944      4.8923      4.7314      4.9273      4.6326      5.0331      3.8386
 15      0.0000      0.0450      0.0000      0.0000      0.0000      0.0000      0.0000      0.0000      0.0000
 16      0.0000      0.0038      0.0000      0.0000      0.0000      0.0000      0.0000      0.0000      0.0000
 17      0.0000      0.0114      0.0044      0.0000      0.0000      0.0009      0.0000      0.0000      0.0033
 18      0.0000      0.0815      0.0336      0.1289      0.1109      0.2628      0.0000      0.0625      0.0000
 19      0.0000      0.0312      0.0000      0.0000      0.0000      0.0000      0.0366      0.0000      0.0000
 20      0.0000      0.0096      0.0000      0.0041      0.0000      0.0000      0.0000      0.0000      0.0000
 21      0.0000      0.0209      0.0000      0.0000      0.0000      0.0045      0.0000      0.0000      0.0000
 22      0.0000      0.0218      0.0000      0.0000      0.0000      0.0443      0.0000      0.0000      0.0000
 23      0.0000      0.0117      0.0000      0.0000      0.0656      0.0000      0.0000      0.0000      0.0000
 24      0.0000      0.0117      0.0000      0.0000      0.0000      0.0000      0.0000      0.0000      0.0000
 25      0.0000      0.0325      0.0000      0.0000      0.0000      0.0023      0.0000      0.0000      0.0000
 26      0.0000      0.1215      0.0000      0.0000      0.0000      0.0111      0.0000      0.0000      0.2662
 27      0.0000      0.1016      0.1218      0.0000      0.0000      0.0000      0.0389      0.1429      0.0000
 28      0.0000      0.0205      0.0000      0.0000      0.0000      0.0000      0.0000      0.0000      0.0000
 29      0.0000      0.0138      0.0000      0.0000      0.0000      0.0000      0.0000      0.0000      0.0000
 30      0.0000      0.0056      0.0000      0.0000      0.0000      0.0000      0.0000      0.0000      0.0000
 31      0.0000      0.0079      0.0000      0.0000      0.0000      0.0000      0.0000      0.0000      0.0000
 32      0.0000      0.0337      0.1040      0.0000      0.0000      0.1034      0.0000      0.1131      0.0000
 33      0.0000      0.1009      0.2156      0.0754      0.0000      0.0000      0.0000      0.0917      0.0000
 34      0.0000      0.0055      0.0000      0.0000      0.0000      0.0000      0.0000      0.0000      0.0000
 35      0.0000      0.0068      0.0000      0.0000      0.0391      0.0000      0.0011      0.0000      0.0000
 36      0.0000      0.0133      0.0000      0.0000      0.0000      0.0000      0.0000      0.0000      0.0000
 37      0.0000      0.0203      0.0000      0.0000      0.0000      0.0000      0.0000      0.0000      0.0000
 38      0.0000      0.0117      0.0000      0.0000      0.0000      0.0000      0.0000      0.0032      0.0000
 39      0.0000      0.0171      0.0000      0.0000      0.0000      0.0490      0.0000      0.0000      0.0000
 40      0.0000      0.0398      0.0316      0.0000      0.0000      0.0000      0.0000      0.0000      0.0993
 41      0.0000      0.0414      0.0000      0.0000      0.0000      0.0000      0.0000      0.0090      0.0597
 42      0.0000      0.0130      0.1029      0.0243      0.0000      0.0932      0.0000      0.0000      0.0000
 43      0.0000      0.0190      0.0000      0.1137      0.0000      0.0000      0.0000      0.0000      0.0000
 44      0.0000      0.0060      0.0000      0.0000      0.0000      0.0000      0.0000      0.0000      0.0000
 45      0.0000      0.0037      0.0000      0.0000      0.0000      0.0026      0.0000      0.0000      0.0000

# j      m_j: min, <> & last-chain-values for 1 ...  7 chains
  1  0.0000E+00  6.9242E-05  0.0000E+00  1.0517E-05  0.0000E+00  0.0000E+00  0.0000E+00  0.0000E+00  1.3999E-03
  2  3.4515E-02  2.5886E-02  2.6012E-02  2.7819E-02  2.6508E-02  2.6839E-02  2.7057E-02  2.6321E-02  2.7557E-02
  3  0.0000E+00  3.6182E-04  1.0068E-03  0.0000E+00  0.0000E+00  6.7496E-04  0.0000E+00  5.9710E-04  0.0000E+00
  4  2.2708E-02  1.7437E-02  1.7252E-02  1.8128E-02  2.1393E-02  1.7785E-02  2.1451E-02  1.6672E-02  2.1174E-02
  5  0.0000E+00  3.8107E-03  3.7980E-03  4.8562E-03  9.8328E-04  0.0000E+00  0.0000E+00  6.4373E-03  4.2976E-03
  6  0.0000E+00  1.9255E-03  0.0000E+00  0.0000E+00  1.7818E-03  0.0000E+00  0.0000E+00  0.0000E+00  0.0000E+00
  7  5.9696E-01  6.0806E-01  6.0213E-01  6.1129E-01  6.1245E-01  6.1413E-01  6.0718E-01  6.0923E-01  6.2503E-01
  8  0.0000E+00  1.4759E-03  4.3001E-03  0.0000E+00  0.0000E+00  0.0000E+00  0.0000E+00  0.0000E+00  0.0000E+00
  9  0.0000E+00  8.8077E-03  3.2289E-02  0.0000E+00  0.0000E+00  2.1108E-03  1.8636E-02  1.6583E-03  0.0000E+00
 10  0.0000E+00  2.5294E-02  4.0236E-02  2.0535E-02  0.0000E+00  0.0000E+00  0.0000E+00  6.1470E-02  0.0000E+00
 11  0.0000E+00  2.5725E-02  0.0000E+00  0.0000E+00  0.0000E+00  0.0000E+00  0.0000E+00  3.8501E-02  0.0000E+00
 12  3.5372E+01  2.9874E+01  3.0369E+01  3.0420E+01  3.0383E+01  3.0361E+01  2.9788E+01  3.0040E+01  3.1144E+01
 13  6.3747E+01  5.3340E+01  5.3211E+01  5.3010E+01  5.4139E+01  5.3328E+01  5.5030E+01  5.3302E+01  5.5602E+01
 14  2.2747E-01  1.5177E+01  1.5290E+01  1.5295E+01  1.4807E+01  1.5395E+01  1.4452E+01  1.5685E+01  1.2264E+01
 15  0.0000E+00  1.6195E-01  0.0000E+00  0.0000E+00  0.0000E+00  0.0000E+00  0.0000E+00  0.0000E+00  0.0000E+00
 16  0.0000E+00  2.6467E-05  0.0000E+00  0.0000E+00  0.0000E+00  0.0000E+00  0.0000E+00  0.0000E+00  0.0000E+00
 17  0.0000E+00  4.0918E-05  1.6023E-05  0.0000E+00  0.0000E+00  3.2854E-06  0.0000E+00  0.0000E+00  1.2101E-05
 18  0.0000E+00  3.2476E-04  1.3450E-04  5.1642E-04  4.4483E-04  1.0526E-03  0.0000E+00  2.4966E-04  0.0000E+00
 19  0.0000E+00  3.7122E-04  0.0000E+00  0.0000E+00  0.0000E+00  0.0000E+00  4.3732E-04  0.0000E+00  0.0000E+00
 20  0.0000E+00  2.5501E-04  0.0000E+00  1.0960E-04  0.0000E+00  0.0000E+00  0.0000E+00  0.0000E+00  0.0000E+00
 21  0.0000E+00  6.6478E-04  0.0000E+00  0.0000E+00  0.0000E+00  1.4307E-04  0.0000E+00  0.0000E+00  0.0000E+00
 22  0.0000E+00  1.1542E-03  0.0000E+00  0.0000E+00  0.0000E+00  2.3551E-03  0.0000E+00  0.0000E+00  0.0000E+00
 23  0.0000E+00  1.2152E-03  0.0000E+00  0.0000E+00  6.8704E-03  0.0000E+00  0.0000E+00  0.0000E+00  0.0000E+00
 24  0.0000E+00  2.7857E-03  0.0000E+00  0.0000E+00  0.0000E+00  0.0000E+00  0.0000E+00  0.0000E+00  0.0000E+00
 25  0.0000E+00  1.1899E-02  0.0000E+00  0.0000E+00  0.0000E+00  8.4859E-04  0.0000E+00  0.0000E+00  0.0000E+00
 26  0.0000E+00  8.3959E-02  0.0000E+00  0.0000E+00  0.0000E+00  7.7065E-03  0.0000E+00  0.0000E+00  1.8909E-01
 27  0.0000E+00  1.4248E-01  1.7170E-01  0.0000E+00  0.0000E+00  0.0000E+00  5.4708E-02  2.0100E-01  0.0000E+00
 28  0.0000E+00  5.8292E-02  0.0000E+00  0.0000E+00  0.0000E+00  0.0000E+00  0.0000E+00  0.0000E+00  0.0000E+00
 29  0.0000E+00  8.2676E-02  0.0000E+00  0.0000E+00  0.0000E+00  0.0000E+00  0.0000E+00  0.0000E+00  0.0000E+00
 30  0.0000E+00  4.0008E-02  0.0000E+00  0.0000E+00  0.0000E+00  0.0000E+00  0.0000E+00  0.0000E+00  0.0000E+00
 31  0.0000E+00  4.0774E-05  0.0000E+00  0.0000E+00  0.0000E+00  0.0000E+00  0.0000E+00  0.0000E+00  0.0000E+00
 32  0.0000E+00  9.2256E-05  2.8598E-04  0.0000E+00  0.0000E+00  2.8447E-04  0.0000E+00  3.1025E-04  0.0000E+00
 33  0.0000E+00  4.0971E-04  8.7951E-04  3.0789E-04  0.0000E+00  0.0000E+00  0.0000E+00  3.7315E-04  0.0000E+00
