###################################################################
## OUTPUT of StarlightChains_v04.for    [Cid@UFSC - 01/Apr/2007] ##
###################################################################

## Some input info
NGC6553_a_1.cxt                          [arq_obs]
Base.BC03.N                              [arq_base]
NGC6553_a_1.msk                          [arq_masks]
StCv04.C11.config                        [arq_config]
   45                                    [N_base]
    0                                    [N_YAV_components = # of components with extra extinction!]
    0                                    [i_FitPowerLaw (1/0 = Yes/No)]
-9.99                                    [alpha_PowerLaw]
CCM                                      [red_law_option]
 1.458241                                [q_norm = A(l_norm)/A(V)]

## (Re)Sampling Parameters
 3359.00                                 [l_ini (A)]
 6428.00                                 [l_fin (A)]
    1.00                                 [dl    (A)]     (OBS: dl_cushion =    50.00 A)

## Normalization info
 4020.00                                 [l_norm (A) - for base]
 4010.00                                 [llow_norm (A) - window for f_obs]
 4060.00                                 [lupp_norm (A) - window for f_obs]
3.120735E-15                             [fobs_norm (in input units)]

## S/N
 4730.00                                 [llow_SN (A) - window for S/N]
 4780.00                                 [lupp_SN (A) - window for S/N]
  23.083                                 [S/N in S/N window]
  11.394                                 [S/N in norm. window]
 239.013                                 [S/N_err in S/N window]
 117.980                                 [S/N_err in norm. window]
  1.0000                                 [fscale_chi2]

## etc...
  2147483599                             [idum_orig]
  3066                                   [NOl_eff]
  1739                                   [Nl_eff]
  1327    NSIGMA                         [Ntot_cliped & clip_method]
  1218700                                [Nglobal_steps]
   7                                     [N_chains]
  16                                     [NEX0s_base = N_base in EX0s-fits]
 0   0   1       98   2.0   2.803E+02    [Clip-Bug, RC-Crash & Burn-In warning-flags, n_censored_weights, wei_nsig_threshold & wei_limit]
    14     14.055     14.043      0.012  [idt_all, wdt_TotTime, wdt_UsrTime & wdt_SysTime (sec)]

## Synthesis Results - Best model ##

 2.45208E+00                             [chi2/Nl_eff]
     2.30995                             [adev (%)]

    96.41380                             [sum-of-x (%)]
 9.16811E-14                             [Flux_tot (units of input spectrum!)]
 5.45767E-09                             [Mini_tot (???)]
 2.75889E-09                             [Mcor_tot (???)]

 -21.90                                  [v0_min  (km/s)]
   0.00                                  [vd_min  (km/s)]
 2.5440                                  [AV_min  (mag)]
 0.0000                                  [YAV_min (mag)]

# j     x_j(%)      Mini_j(%)     Mcor_j(%)     age_j(yr)     Z_j      (L/M)_j    YAV?  Mstars   component_j        a/Fe...       SSP_chi2r SSP_adev(%)   SSP_AV   SSP_x(%)
  1      7.7843     1.2175E-02    2.4085E-02    1.000000E+06  0.00400  1.114E-02    0   1.0000   age020_m42            0.0000     2.0218E+03    47.3450   4.0000   114.6971
  2      5.1715     2.2123E-03    4.3759E-03    3.160000E+06  0.00400  4.073E-02    0   0.9999   age045_m42            0.0000     6.6818E+02    28.0805   4.0000   118.4529
  3      8.6475     5.9459E-03    1.1160E-02    5.010000E+06  0.00400  2.534E-02    0   0.9488   age055_m42            0.0000     1.1361E+03    36.4392   4.0000   118.3077
  4      2.5119     3.4435E-03    6.0367E-03    1.000000E+07  0.00400  1.271E-02    0   0.8862   age070_m42            0.0000     4.0964E+02    20.2483   4.0000   110.9662
  5      0.0000     0.0000E+00    0.0000E+00    2.512000E+07  0.00400  5.070E-03    0   0.8174   age090_m42            0.0000     3.0911E+02    17.4031   4.0000   110.1755
  6      0.0000     0.0000E+00    0.0000E+00    4.000000E+07  0.00400  3.505E-03    0   0.7851   age104_m42            0.0000     1.5719E+02    11.2745   4.0000   105.9492
  7      0.0000     0.0000E+00    0.0000E+00    1.015200E+08  0.00400  2.268E-03    0   0.7207   age116_m42            0.0000     3.4031E+02    17.2648   4.0000   111.7237
  8      0.0000     0.0000E+00    0.0000E+00    2.861200E+08  0.00400  1.079E-03    0   0.6613   age125_m42            0.0000     2.9978E+02    12.4415   3.9306   103.0841
  9      0.0000     0.0000E+00    0.0000E+00    6.405400E+08  0.00400  5.077E-04    0   0.6197   age132_m42            0.0000     3.0604E+02    12.6583   3.5706   107.1451
 10      0.0000     0.0000E+00    0.0000E+00    9.047900E+08  0.00400  3.535E-04    0   0.6024   age135_m42            0.0000     2.4141E+02    11.8573   3.3171   106.9460
 11      0.0000     0.0000E+00    0.0000E+00    1.434000E+09  0.00400  1.910E-04    0   0.5716   age139_m42            0.0000     1.5666E+02    10.9486   2.7872   105.5110
 12      0.0000     0.0000E+00    0.0000E+00    2.500000E+09  0.00400  9.818E-05    0   0.5463   age150_m42            0.0000     9.3172E+01    10.0984   2.4707   101.9677
 13      0.0000     0.0000E+00    0.0000E+00    5.000000E+09  0.00400  4.718E-05    0   0.5228   age161_m42            0.0000     6.6814E+01     9.2890   2.2934    99.2569
 14      6.7883     5.3639E+00    5.2843E+00    1.100000E+10  0.00400  2.205E-05    0   0.4980   age185_m42            0.0000     7.3327E+01    10.0485   2.0303    96.7827
 15      6.4458     5.9643E+00    5.8132E+00    1.300000E+10  0.00400  1.883E-05    0   0.4927   age193_m42            0.0000     7.4733E+01    10.0705   2.0148    96.6227
 16      6.0632     5.3113E-03    1.0507E-02    1.000000E+06  0.02000  1.989E-02    0   1.0000   age020_m62            0.0000     1.9641E+03    46.5371   4.0000   115.6287
 17      3.9748     1.8360E-03    3.5804E-03    3.160000E+06  0.02000  3.772E-02    0   0.9858   age045_m62            0.0000     1.7421E+03    44.0666   4.0000   117.3938
 18      0.0029     1.5618E-06    2.8862E-06    5.010000E+06  0.02000  3.227E-02    0   0.9342   age055_m62            0.0000     9.5997E+02    33.6577   4.0000   119.5208
 19      4.1658     7.1792E-03    1.2428E-02    1.000000E+07  0.02000  1.011E-02    0   0.8751   age070_m62            0.0000     4.8679E+02    20.0928   4.0000   110.1307
 20      0.0000     0.0000E+00    0.0000E+00    2.512000E+07  0.02000  4.206E-03    0   0.8099   age090_m62            0.0000     3.7374E+02    18.8693   4.0000   108.5284
 21      0.0000     0.0000E+00    0.0000E+00    4.000000E+07  0.02000  3.373E-03    0   0.7799   age104_m62            0.0000     2.7757E+02    15.8613   4.0000   111.7973
 22      0.0000     0.0000E+00    0.0000E+00    1.015200E+08  0.02000  1.878E-03    0   0.7221   age116_m62            0.0000     3.3436E+02    16.6819   4.0000   113.7021
 23      0.0000     0.0000E+00    0.0000E+00    2.861200E+08  0.02000  8.869E-04    0   0.6700   age125_m62            0.0000     3.9193E+02    13.3871   3.9785   106.8442
 24      0.0000     0.0000E+00    0.0000E+00    6.405400E+08  0.02000  3.657E-04    0   0.6322   age132_m62            0.0000     3.0269E+02    13.7366   3.2668   109.7992
 25      0.0000     0.0000E+00    0.0000E+00    9.047900E+08  0.02000  2.312E-04    0   0.6152   age135_m62            0.0000     2.1722E+02    12.8315   2.8744   109.4674
 26      0.0000     0.0000E+00    0.0000E+00    1.434000E+09  0.02000  1.168E-04    0   0.5865   age139_m62            0.0000     1.1906E+02    11.2114   2.4154   105.3036
 27      0.0000     0.0000E+00    0.0000E+00    2.500000E+09  0.02000  5.505E-05    0   0.5610   age150_m62            0.0000     9.6035E+01    11.3119   2.0244   102.7870
 28      0.0000     0.0000E+00    0.0000E+00    5.000000E+09  0.02000  2.596E-05    0   0.5353   age161_m62            0.0000     1.2421E+02    12.7879   1.6910   102.0585
 29     10.1715     1.5160E+01    1.5304E+01    1.100000E+10  0.02000  1.169E-05    0   0.5103   age185_m62            0.0000     1.7883E+02    14.2784   1.3392   102.4871
 30     17.1533     3.0840E+01    3.0791E+01    1.300000E+10  0.02000  9.691E-06    0   0.5047   age193_m62            0.0000     1.9062E+02    14.4561   1.3000   102.4778
 31      1.3245     8.7052E-04    1.7217E-03    1.000000E+06  0.05000  2.651E-02    0   0.9998   age020_m72            0.0000     1.9213E+03    46.4483   4.0000   116.8726
 32      0.0000     0.0000E+00    0.0000E+00    3.160000E+06  0.05000  4.817E-02    0   0.9577   age045_m72            0.0000     1.4457E+03    41.1156   4.0000   119.7721
 33      0.0000     0.0000E+00    0.0000E+00    5.010000E+06  0.05000  3.101E-02    0   0.9147   age055_m72            0.0000     9.9448E+02    33.9038   4.0000   118.8228
 34      0.0000     0.0000E+00    0.0000E+00    1.000000E+07  0.05000  8.954E-03    0   0.8524   age070_m72            0.0000     1.2407E+03    38.4058   4.0000   120.3346
 35      0.0000     0.0000E+00    0.0000E+00    2.512000E+07  0.05000  4.207E-03    0   0.7902   age090_m72            0.0000     7.1466E+02    29.5659   4.0000   119.8489
 36      0.0000     0.0000E+00    0.0000E+00    4.000000E+07  0.05000  3.198E-03    0   0.7618   age104_m72            0.0000     4.2466E+02    20.6618   4.0000   117.6165
 37      0.0000     0.0000E+00    0.0000E+00    1.015200E+08  0.05000  1.716E-03    0   0.7092   age116_m72            0.0000     3.9552E+02    18.4014   4.0000   115.6256
 38      0.0000     0.0000E+00    0.0000E+00    2.861200E+08  0.05000  7.047E-04    0   0.6618   age125_m72            0.0000     3.7535E+02    13.6500   3.7693   106.8695
 39      0.0000     0.0000E+00    0.0000E+00    6.405400E+08  0.05000  2.633E-04    0   0.6253   age132_m72            0.0000     2.4880E+02    13.0998   2.9010   108.8310
 40      0.0000     0.0000E+00    0.0000E+00    9.047900E+08  0.05000  1.484E-04    0   0.6088   age135_m72            0.0000     1.5422E+02    12.3178   2.3747   104.9131
 41      0.0000     0.0000E+00    0.0000E+00    1.434000E+09  0.05000  7.827E-05    0   0.5847   age139_m72            0.0000     1.2487E+02    12.6579   1.9476   102.1273
 42      0.0000     0.0000E+00    0.0000E+00    2.500000E+09  0.05000  3.759E-05    0   0.5583   age150_m72            0.0000     1.3509E+02    13.2594   1.6133   101.4880
 43      1.9564     2.2020E+00    2.3174E+00    5.000000E+09  0.05000  1.548E-05    0   0.5320   age161_m72            0.0000     1.8823E+02    13.6590   1.2579    99.6567
 44     10.2941     2.7458E+01    2.7539E+01    1.100000E+10  0.05000  6.532E-06    0   0.5070   age185_m72            0.0000     2.8733E+02    15.5771   0.9194    97.4991
 45      3.9579     1.2972E+01    1.2877E+01    1.300000E+10  0.05000  5.316E-06    0   0.5018   age193_m72            0.0000     3.3052E+02    16.3719   0.8161    96.8228


## Synthesis Results - Average & Chains ##

# j      x_j: min, <> & last-chain-values for 1 ...  7 chains
  1      7.7843      7.7425      7.8129      7.7990      7.7575      7.7364      7.6109      7.9967      7.7942
  2      5.1715      3.0977      3.1210      3.1697      3.0417      3.2860      3.3874      3.0866      3.4724
  3      8.6475      8.3661      8.5272      8.4294      8.4077      8.4190      8.1897      8.4895      8.4615
  4      2.5119      2.3350      2.4640      2.3778      2.3451      2.3241      2.4603      2.3917      2.1958
  5      0.0000      0.0940      0.1456      0.0720      0.1243      0.0000      0.0694      0.0000      0.3603
  6      0.0000      0.0348      0.0000      0.0000      0.0000      0.1553      0.0000      0.2458      0.0000
  7      0.0000      0.0391      0.1111      0.1200      0.1724      0.0027      0.0000      0.1076      0.0000
  8      0.0000      0.0726      0.1670      0.0456      0.0832      0.0883      0.1289      0.0000      0.0322
  9      0.0000      0.0654      0.1414      0.0356      0.0035      0.0423      0.0495      0.2095      0.0000
 10      0.0000      0.0529      0.0921      0.0000      0.0000      0.0000      0.0000      0.0000      0.0000
 11      0.0000      0.0403      0.1189      0.0000      0.1037      0.0000      0.0000      0.2532      0.0943
 12      0.0000      0.0407      0.0000      0.0298      0.0000      0.0000      0.0000      0.0000      0.0000
 13      0.0000      0.0540      0.0000      0.0000      0.0000      0.0000      0.0503      0.0000      0.0000
 14      6.7883      6.4972      6.1251      6.5040      6.1864      6.3317      6.8156      6.0458      6.5784
 15      6.4458      5.9780      6.1849      5.8269      6.2077      5.9803      5.8636      6.2008      6.0408
 16      6.0632      6.0408      6.0985      6.0252      5.9315      6.0566      6.1207      6.1861      6.0777
 17      3.9748      4.4521      4.4435      4.4233      4.5115      4.4230      4.2974      4.3898      4.5171
 18      0.0029      0.7228      0.7523      0.8240      0.8769      0.7742      0.7398      0.6862      0.3373
 19      4.1658      3.7584      3.6841      3.8546      3.7704      3.8088      3.9816      3.7602      3.8537
 20      0.0000      0.0318      0.0000      0.0319      0.0000      0.0097      0.0000      0.0000      0.0000
 21      0.0000      0.0420      0.0000      0.0000      0.0000      0.0000      0.0000      0.0000      0.0000
 22      0.0000      0.0400      0.0000      0.0555      0.0978      0.0000      0.0364      0.0000      0.0953
 23      0.0000      0.0489      0.0000      0.3990      0.0662      0.2921      0.0000      0.0000      0.2002
 24      0.0000      0.0270      0.0000      0.0000      0.0000      0.0000      0.1883      0.0286      0.0000
 25      0.0000      0.0197      0.0000      0.0000      0.1142      0.0000      0.0181      0.0000      0.0000
 26      0.0000      0.0218      0.0000      0.0000      0.0000      0.0000      0.0000      0.0000      0.0000
 27      0.0000      0.0159      0.0000      0.0000      0.0000      0.0000      0.0000      0.0000      0.0000
 28      0.0000      0.0143      0.0000      0.0000      0.0247      0.0000      0.0000      0.0070      0.0000
 29     10.1715     12.0569     11.9822     11.7812     11.8160     11.3445     11.7160     11.7430     11.9408
 30     17.1533     18.1966     18.2792     18.2241     18.1318     18.2663     17.8880     18.3845     17.9182
 31      1.3245      1.7718      1.6971      1.8107      1.9873      1.7356      1.8341      1.4921      1.7513
 32      0.0000      0.0197      0.0000      0.0000      0.0031      0.0751      0.0062      0.0000      0.0121
 33      0.0000      0.2269      0.1365      0.0508      0.0000      0.2110      0.2330      0.2486      0.0000
 34      0.0000      0.0257      0.0000      0.0000      0.0000      0.0741      0.0000      0.0000      0.0730
 35      0.0000      0.0210      0.0000      0.0000      0.1881      0.0043      0.0000      0.0239      0.0000
 36      0.0000      0.0310      0.0000      0.0000      0.0000      0.0000      0.0000      0.0310      0.0000
 37      0.0000      0.0692      0.0574      0.0422      0.0000      0.3194      0.1609      0.0000      0.0000
 38      0.0000      0.0309      0.0000      0.0000      0.0000      0.0000      0.0000      0.0000      0.0987
 39      0.0000      0.0361      0.0000      0.0002      0.0000      0.0025      0.0226      0.0000      0.0000
 40      0.0000      0.0383      0.0000      0.0000      0.0357      0.0000      0.0000      0.0000      0.0000
 41      0.0000      0.0139      0.0000      0.0000      0.0000      0.0000      0.0000      0.0000      0.0000
 42      0.0000      0.0126      0.0000      0.0000      0.0000      0.0000      0.0010      0.0000      0.0000
 43      1.9564      1.2620      1.2877      1.4695      1.2718      1.3115      1.4871      1.3729      1.2262
 44     10.2941      9.6363      9.7479      9.8129      9.6844      9.9193      9.7260      9.6836      9.7792
 45      3.9579      3.3619      3.3609      3.3556      3.5709      3.5556      3.4755      3.4489      3.5765

# j      m_j: min, <> & last-chain-values for 1 ...  7 chains
  1  2.4085E-02  2.4046E-02  2.4215E-02  2.4188E-02  2.4026E-02  2.3954E-02  2.3658E-02  2.4782E-02  2.4105E-02
  2  4.3759E-03  2.6310E-03  2.6455E-03  2.6885E-03  2.5764E-03  2.7824E-03  2.8796E-03  2.6159E-03  2.9369E-03
  3  1.1160E-02  1.0837E-02  1.1024E-02  1.0904E-02  1.0862E-02  1.0873E-02  1.0619E-02  1.0974E-02  1.0915E-02
  4  6.0367E-03  5.6326E-03  5.9317E-03  5.7280E-03  5.6416E-03  5.5893E-03  5.9402E-03  5.7569E-03  5.2747E-03
  5  0.0000E+00  5.2413E-04  8.1029E-04  4.0131E-04  6.9131E-04  0.0000E+00  3.8746E-04  0.0000E+00  2.0014E-03
  6  0.0000E+00  2.6990E-04  0.0000E+00  0.0000E+00  0.0000E+00  1.1995E-03  0.0000E+00  1.9007E-03  0.0000E+00
  7  0.0000E+00  4.2963E-04  1.2188E-03  1.3179E-03  1.8902E-03  2.9636E-05  0.0000E+00  1.1803E-03  0.0000E+00
  8  0.0000E+00  1.5386E-03  3.5332E-03  9.6518E-04  1.7592E-03  1.8670E-03  2.7350E-03  0.0000E+00  6.7985E-04
  9  0.0000E+00  2.7626E-03  5.9590E-03  1.5022E-03  1.4792E-04  1.7806E-03  2.0916E-03  8.8276E-03  0.0000E+00
 10  0.0000E+00  3.1209E-03  5.4182E-03  0.0000E+00  0.0000E+00  0.0000E+00  0.0000E+00  0.0000E+00  0.0000E+00
 11  0.0000E+00  4.1706E-03  1.2288E-02  0.0000E+00  1.0704E-02  0.0000E+00  0.0000E+00  2.6162E-02  9.7177E-03
 12  0.0000E+00  7.8301E-03  0.0000E+00  5.7353E-03  0.0000E+00  0.0000E+00  0.0000E+00  0.0000E+00  0.0000E+00
 13  0.0000E+00  2.0698E-02  0.0000E+00  0.0000E+00  0.0000E+00  0.0000E+00  1.9282E-02  0.0000E+00  0.0000E+00
 14  5.2843E+00  5.0768E+00  4.7763E+00  5.0751E+00  4.8207E+00  4.9324E+00  5.3304E+00  4.7139E+00  5.1186E+00
 15  5.8132E+00  5.4116E+00  5.5876E+00  5.2676E+00  5.6043E+00  5.3973E+00  5.3129E+00  5.6012E+00  5.4456E+00
 16  1.0507E-02  1.0507E-02  1.0586E-02  1.0466E-02  1.0289E-02  1.0503E-02  1.0656E-02  1.0737E-02  1.0527E-02
 17  3.5804E-03  4.0255E-03  4.0096E-03  3.9940E-03  4.0681E-03  3.9871E-03  3.8891E-03  3.9606E-03  4.0672E-03
 18  2.8862E-06  7.2393E-04  7.5193E-04  8.2419E-04  8.7584E-04  7.7310E-04  7.4159E-04  6.8582E-04  3.3644E-04
 19  1.2428E-02  1.1255E-02  1.1010E-02  1.1527E-02  1.1260E-02  1.1371E-02  1.1934E-02  1.1236E-02  1.1492E-02
 20  0.0000E+00  2.1189E-04  0.0000E+00  2.1193E-04  0.0000E+00  6.4589E-05  0.0000E+00  0.0000E+00  0.0000E+00
 21  0.0000E+00  3.3586E-04  0.0000E+00  0.0000E+00  0.0000E+00  0.0000E+00  0.0000E+00  0.0000E+00  0.0000E+00
 22  0.0000E+00  5.3254E-04  0.0000E+00  7.3769E-04  1.2976E-03  0.0000E+00  4.8468E-04  0.0000E+00  1.2622E-03
 23  0.0000E+00  1.2793E-03  0.0000E+00  1.0413E-02  1.7246E-03  7.6122E-03  0.0000E+00  0.0000E+00  5.2094E-03
 24  0.0000E+00  1.6134E-03  0.0000E+00  0.0000E+00  0.0000E+00  0.0000E+00  1.1273E-02  1.7054E-03  0.0000E+00
 25  0.0000E+00  1.8120E-03  0.0000E+00  0.0000E+00  1.0482E-02  0.0000E+00  1.6634E-03  0.0000E+00  0.0000E+00
 26  0.0000E+00  3.7890E-03  0.0000E+00  0.0000E+00  0.0000E+00  0.0000E+00  0.0000E+00  0.0000E+00  0.0000E+00
 27  0.0000E+00  5.6044E-03  0.0000E+00  0.0000E+00  0.0000E+00  0.0000E+00  0.0000E+00  0.0000E+00  0.0000E+00
 28  0.0000E+00  1.0193E-02  0.0000E+00  0.0000E+00  1.7575E-02  0.0000E+00  0.0000E+00  4.9481E-03  0.0000E+00
 29  1.5304E+01  1.8209E+01  1.8060E+01  1.7768E+01  1.7797E+01  1.7081E+01  1.7710E+01  1.7697E+01  1.7958E+01
 30  3.0791E+01  3.2786E+01  3.2869E+01  3.2791E+01  3.2581E+01  3.2812E+01  3.2260E+01  3.3054E+01  3.2150E+01
 31  1.7217E-03  2.3118E-03  2.2099E-03  2.3594E-03  2.5859E-03  2.2577E-03  2.3953E-03  1.9427E-03  2.2755E-03
 32  0.0000E+00  1.3579E-05  0.0000E+00  0.0000E+00  2.1154E-06  5.1498E-05  4.2703E-06  0.0000E+00  8.2610E-06
 33  0.0000E+00  2.3151E-04  1.3904E-04  5.1820E-05  0.0000E+00  2.1466E-04  2.3795E-04  2.5311E-04  0.0000E+00
