###################################################################
## OUTPUT of StarlightChains_v04.for    [Cid@UFSC - 01/Apr/2007] ##
###################################################################

## Some input info
NGC6624_a_2.cxt                          [arq_obs]
Base.BC03.N                              [arq_base]
NGC6624_a_2.msk                          [arq_masks]
StCv04.C11.config                        [arq_config]
   45                                    [N_base]
    0                                    [N_YAV_components = # of components with extra extinction!]
    0                                    [i_FitPowerLaw (1/0 = Yes/No)]
-9.99                                    [alpha_PowerLaw]
CCM                                      [red_law_option]
 1.458241                                [q_norm = A(l_norm)/A(V)]

## (Re)Sampling Parameters
 3359.00                                 [l_ini (A)]
 6428.00                                 [l_fin (A)]
    1.00                                 [dl    (A)]     (OBS: dl_cushion =    50.00 A)

## Normalization info
 4020.00                                 [l_norm (A) - for base]
 4010.00                                 [llow_norm (A) - window for f_obs]
 4060.00                                 [lupp_norm (A) - window for f_obs]
2.206219E-14                             [fobs_norm (in input units)]

## S/N
 4730.00                                 [llow_SN (A) - window for S/N]
 4780.00                                 [lupp_SN (A) - window for S/N]
  40.676                                 [S/N in S/N window]
  27.417                                 [S/N in norm. window]
 123.712                                 [S/N_err in S/N window]
  83.385                                 [S/N_err in norm. window]
  1.0000                                 [fscale_chi2]

## etc...
  2147483596                             [idum_orig]
  3068                                   [NOl_eff]
  1074                                   [Nl_eff]
  1994    NSIGMA                         [Ntot_cliped & clip_method]
   912800                                [Nglobal_steps]
   7                                     [N_chains]
  13                                     [NEX0s_base = N_base in EX0s-fits]
 0   0   1      121   2.0   9.130E+02    [Clip-Bug, RC-Crash & Burn-In warning-flags, n_censored_weights, wei_nsig_threshold & wei_limit]
    10     10.285     10.281      0.004  [idt_all, wdt_TotTime, wdt_UsrTime & wdt_SysTime (sec)]

## Synthesis Results - Best model ##

 2.73665E+00                             [chi2/Nl_eff]
     1.33088                             [adev (%)]

    97.89046                             [sum-of-x (%)]
 5.37688E-14                             [Flux_tot (units of input spectrum!)]
 1.92805E-09                             [Mini_tot (???)]
 9.80643E-10                             [Mcor_tot (???)]

  24.26                                  [v0_min  (km/s)]
  58.55                                  [vd_min  (km/s)]
 0.6791                                  [AV_min  (mag)]
 0.0000                                  [YAV_min (mag)]

# j     x_j(%)      Mini_j(%)     Mcor_j(%)     age_j(yr)     Z_j      (L/M)_j    YAV?  Mstars   component_j        a/Fe...       SSP_chi2r SSP_adev(%)   SSP_AV   SSP_x(%)
  1      0.0000     0.0000E+00    0.0000E+00    1.000000E+06  0.00400  1.114E-02    0   1.0000   age020_m42            0.0000     1.0948E+03    24.1967   4.0000    86.0530
  2      0.0000     0.0000E+00    0.0000E+00    3.160000E+06  0.00400  4.073E-02    0   0.9999   age045_m42            0.0000     2.0366E+02    11.9005   3.8278    90.1387
  3      0.0000     0.0000E+00    0.0000E+00    5.010000E+06  0.00400  2.534E-02    0   0.9488   age055_m42            0.0000     3.5097E+02    14.5418   4.0000    87.8076
  4      0.0000     0.0000E+00    0.0000E+00    1.000000E+07  0.00400  1.271E-02    0   0.8862   age070_m42            0.0000     2.8466E+02    14.4820   3.4560    87.2499
  5      0.0000     0.0000E+00    0.0000E+00    2.512000E+07  0.00400  5.070E-03    0   0.8174   age090_m42            0.0000     2.6511E+02    13.9268   3.3244    88.8231
  6      0.0000     0.0000E+00    0.0000E+00    4.000000E+07  0.00400  3.505E-03    0   0.7851   age104_m42            0.0000     2.0979E+02    12.2131   3.0074    91.8148
  7      0.0000     0.0000E+00    0.0000E+00    1.015200E+08  0.00400  2.268E-03    0   0.7207   age116_m42            0.0000     3.0391E+02    11.8016   2.8914   105.3646
  8      0.0000     0.0000E+00    0.0000E+00    2.861200E+08  0.00400  1.079E-03    0   0.6613   age125_m42            0.0000     3.0494E+02    11.4034   2.3917   107.8360
  9      0.0000     0.0000E+00    0.0000E+00    6.405400E+08  0.00400  5.077E-04    0   0.6197   age132_m42            0.0000     3.2230E+02    11.3220   2.0015   113.0526
 10      0.0000     0.0000E+00    0.0000E+00    9.047900E+08  0.00400  3.535E-04    0   0.6024   age135_m42            0.0000     2.2347E+02     9.6058   1.7745   111.7292
 11      0.0007     1.1033E-04    1.2400E-04    1.434000E+09  0.00400  1.910E-04    0   0.5716   age139_m42            0.0000     1.0499E+02     6.3565   1.2780   109.1605
 12      1.0226     2.9674E-01    3.1872E-01    2.500000E+09  0.00400  9.818E-05    0   0.5463   age150_m42            0.0000     2.7454E+01     3.3086   1.0383   102.9542
 13     29.7200     1.7946E+01    1.8446E+01    5.000000E+09  0.00400  4.718E-05    0   0.5228   age161_m42            0.0000     8.3710E+00     2.0112   0.8903    98.9184
 14     51.6104     6.6681E+01    6.5288E+01    1.100000E+10  0.00400  2.205E-05    0   0.4980   age185_m42            0.0000     3.8462E+00     1.6386   0.6368    96.4635
 15      0.7057     1.0677E+00    1.0343E+00    1.300000E+10  0.00400  1.883E-05    0   0.4927   age193_m42            0.0000     5.0055E+00     1.8646   0.6211    96.2686
 16      0.0000     0.0000E+00    0.0000E+00    1.000000E+06  0.02000  1.989E-02    0   1.0000   age020_m62            0.0000     1.0309E+03    23.4290   4.0000    86.5502
 17      0.0000     0.0000E+00    0.0000E+00    3.160000E+06  0.02000  3.772E-02    0   0.9858   age045_m62            0.0000     8.1222E+02    21.1546   4.0000    87.5524
 18      0.0000     0.0000E+00    0.0000E+00    5.010000E+06  0.02000  3.227E-02    0   0.9342   age055_m62            0.0000     2.5891E+02    13.5466   4.0000    88.3923
 19      1.4088     3.9697E-03    6.8301E-03    1.000000E+07  0.02000  1.011E-02    0   0.8751   age070_m62            0.0000     4.8069E+02    18.1030   3.5108    82.1836
 20      0.0000     0.0000E+00    0.0000E+00    2.512000E+07  0.02000  4.206E-03    0   0.8099   age090_m62            0.0000     3.9198E+02    16.2295   3.4487    82.8782
 21      0.0000     0.0000E+00    0.0000E+00    4.000000E+07  0.02000  3.373E-03    0   0.7799   age104_m62            0.0000     2.2874E+02    12.7492   3.2012    93.7598
 22      0.0000     0.0000E+00    0.0000E+00    1.015200E+08  0.02000  1.878E-03    0   0.7221   age116_m62            0.0000     2.8556E+02    12.0884   2.9343   105.0496
 23      0.0000     0.0000E+00    0.0000E+00    2.861200E+08  0.02000  8.869E-04    0   0.6700   age125_m62            0.0000     4.5367E+02    12.9362   2.3807   113.7196
 24      0.0000     0.0000E+00    0.0000E+00    6.405400E+08  0.02000  3.657E-04    0   0.6322   age132_m62            0.0000     2.9221E+02     9.9823   1.7051   116.7252
 25      0.0000     0.0000E+00    0.0000E+00    9.047900E+08  0.02000  2.312E-04    0   0.6152   age135_m62            0.0000     1.6779E+02     7.5623   1.3480   114.9292
 26      0.0000     0.0000E+00    0.0000E+00    1.434000E+09  0.02000  1.168E-04    0   0.5865   age139_m62            0.0000     4.5466E+01     4.2263   0.9770   107.1707
 27      1.8926     9.7942E-01    1.0803E+00    2.500000E+09  0.02000  5.505E-05    0   0.5610   age150_m62            0.0000     1.7361E+01     2.8077   0.6185   103.5895
 28      1.4764     1.6202E+00    1.7052E+00    5.000000E+09  0.02000  2.596E-05    0   0.5353   age161_m62            0.0000     3.6083E+01     4.3409   0.2859   103.4596
 29      0.0058     1.4232E-02    1.4279E-02    1.100000E+10  0.02000  1.169E-05    0   0.5103   age185_m62            0.0000     8.2148E+01     6.6286  -0.0795   104.7816
 30      0.5469     1.6078E+00    1.5954E+00    1.300000E+10  0.02000  9.691E-06    0   0.5047   age193_m62            0.0000     9.2071E+01     7.0064  -0.1241   104.9632
 31      0.0000     0.0000E+00    0.0000E+00    1.000000E+06  0.05000  2.651E-02    0   0.9998   age020_m72            0.0000     1.0029E+03    23.0622   4.0000    87.6348
 32      0.0000     0.0000E+00    0.0000E+00    3.160000E+06  0.05000  4.817E-02    0   0.9577   age045_m72            0.0000     5.5512E+02    17.9172   4.0000    89.7584
 33      0.0000     0.0000E+00    0.0000E+00    5.010000E+06  0.05000  3.101E-02    0   0.9147   age055_m72            0.0000     3.3279E+02    14.6544   4.0000    86.4932
 34      0.0000     0.0000E+00    0.0000E+00    1.000000E+07  0.05000  8.954E-03    0   0.8524   age070_m72            0.0000     4.3437E+02    15.8687   4.0000    89.2947
 35      0.0000     0.0000E+00    0.0000E+00    2.512000E+07  0.05000  4.207E-03    0   0.7902   age090_m72            0.0000     2.3002E+02    12.7087   3.9128    88.8381
 36      0.0000     0.0000E+00    0.0000E+00    4.000000E+07  0.05000  3.198E-03    0   0.7618   age104_m72            0.0000     2.2651E+02    11.4205   3.3363    99.5084
 37      0.0000     0.0000E+00    0.0000E+00    1.015200E+08  0.05000  1.716E-03    0   0.7092   age116_m72            0.0000     3.2034E+02    12.2774   3.0133   105.6123
 38      0.0000     0.0000E+00    0.0000E+00    2.861200E+08  0.05000  7.047E-04    0   0.6618   age125_m72            0.0000     4.3170E+02    11.9831   2.1715   114.2333
 39      0.0000     0.0000E+00    0.0000E+00    6.405400E+08  0.05000  2.633E-04    0   0.6253   age132_m72            0.0000     2.1931E+02     8.4349   1.3328   115.9088
 40      0.0000     0.0000E+00    0.0000E+00    9.047900E+08  0.05000  1.484E-04    0   0.6088   age135_m72            0.0000     7.6323E+01     5.3395   0.8878   109.0573
 41      0.1096     3.9897E-02    4.5865E-02    1.434000E+09  0.05000  7.827E-05    0   0.5847   age139_m72            0.0000     3.8819E+01     3.9618   0.5157   104.6137
 42      6.9645     5.2783E+00    5.7938E+00    2.500000E+09  0.05000  3.759E-05    0   0.5583   age150_m72            0.0000     4.7369E+01     4.8888   0.2009   103.4221
 43      2.4263     4.4652E+00    4.6705E+00    5.000000E+09  0.05000  1.548E-05    0   0.5320   age161_m72            0.0000     8.8601E+01     6.6393  -0.2078   102.9729
 44      0.0000     0.0000E+00    0.0000E+00    1.100000E+10  0.05000  6.532E-06    0   0.5070   age185_m72            0.0000     1.6718E+02     8.9498  -0.5929   102.8255
 45      0.0000     0.0000E+00    0.0000E+00    1.300000E+10  0.05000  5.316E-06    0   0.5018   age193_m72            0.0000     2.0589E+02     9.8787  -0.7147   102.9597


## Synthesis Results - Average & Chains ##

# j      x_j: min, <> & last-chain-values for 1 ...  7 chains
  1      0.0000      0.0325      0.0000      0.0000      0.0000      0.0000      0.0000      0.0000      0.0000
  2      0.0000      0.2597      0.1549      0.4590      0.2365      0.5656      0.4261      0.3375      0.3716
  3      0.0000      0.0504      0.2018      0.0607      0.0505      0.0686      0.0866      0.1366      0.0000
  4      0.0000      0.0812      0.0000      0.1937      0.0520      0.0000      0.0000      0.0000      0.0507
  5      0.0000      0.2217      0.0000      0.2548      0.0000      0.5606      0.5209      0.0629      0.4171
  6      0.0000      0.0192      0.0000      0.0000      0.0000      0.0000      0.0633      0.0000      0.0000
  7      0.0000      0.0194      0.0000      0.0000      0.0000      0.0000      0.0755      0.0000      0.0000
  8      0.0000      0.0211      0.0000      0.0010      0.0230      0.0000      0.0000      0.0000      0.0000
  9      0.0000      0.0328      0.0100      0.0000      0.0000      0.0000      0.0000      0.0000      0.0000
 10      0.0000      0.1912      0.2680      0.1311      0.4509      0.0000      0.0000      0.0000      0.0000
 11      0.0007      0.6715      0.5736      0.6834      0.5446      0.6023      0.5642      0.6437      0.1494
 12      1.0226      2.4164      2.7283      1.7644      2.3378      2.8369      2.7336      1.8209      3.3463
 13     29.7200     20.8672     20.7931     21.8396     22.1780     21.2243     21.7962     22.2860     20.8226
 14     51.6104     48.5263     48.6085     48.7408     47.7322     49.0160     47.5731     48.3489     48.3786
 15      0.7057     10.0230      9.8816      9.5191      9.6418      9.0871      9.1503      8.9520      9.6480
 16      0.0000      0.0954      0.1615      0.1463      0.0000      0.0000      0.1932      0.0087      0.2230
 17      0.0000      0.0818      0.0000      0.1857      0.0000      0.0000      0.0000      0.0000      0.1871
 18      0.0000      0.1322      0.1591      0.4100      0.3818      0.0695      0.1083      0.2491      0.1141
 19      1.4088      0.2471      0.3597      0.0365      0.2050      0.3747      0.4276      0.5700      0.3480
 20      0.0000      0.0433      0.0000      0.0000      0.0000      0.0350      0.0000      0.0000      0.0000
 21      0.0000      0.0174      0.0000      0.0000      0.0000      0.0000      0.0000      0.0000      0.0340
 22      0.0000      0.0187      0.0000      0.0000      0.0000      0.0035      0.0000      0.0000      0.0000
 23      0.0000      0.0083      0.0368      0.0000      0.0000      0.0000      0.0000      0.0000      0.0000
 24      0.0000      0.0144      0.0000      0.0000      0.0000      0.0490      0.0000      0.0000      0.0000
 25      0.0000      0.0446      0.0000      0.0000      0.0000      0.0000      0.0000      0.0000      0.0000
 26      0.0000      0.5012      0.4797      0.0000      0.0232      0.6300      0.2359      0.4951      0.6351
 27      1.8926      2.9567      3.9481      2.9469      3.1424      2.9766      3.3062      3.4585      2.6581
 28      1.4764      0.6626      0.0000      0.5631      0.9004      0.2518      1.3434      1.0529      0.6334
 29      0.0058      1.1728      1.0292      1.1902      1.0138      1.0765      0.8380      0.9592      0.9668
 30      0.5469      3.3159      3.1494      3.3213      3.2784      3.3114      3.5708      2.8717      2.5680
 31      0.0000      0.0493      0.2056      0.0000      0.1739      0.0000      0.0211      0.0000      0.0000
 32      0.0000      0.0512      0.0000      0.0000      0.0000      0.0000      0.0139      0.0497      0.0000
 33      0.0000      0.0903      0.1162      0.0824      0.0631      0.1395      0.0000      0.0466      0.0000
 34      0.0000      0.1461      0.0000      0.0000      0.4998      0.0000      0.0692      0.2033      0.0000
 35      0.0000      0.0306      0.1589      0.0017      0.0000      0.1104      0.0000      0.0000      0.0000
 36      0.0000      0.0150      0.0000      0.0000      0.0000      0.0000      0.0000      0.0000      0.0000
 37      0.0000      0.0183      0.0000      0.0000      0.0000      0.0000      0.0000      0.0347      0.0000
 38      0.0000      0.0129      0.0000      0.0000      0.0000      0.0000      0.0000      0.0000      0.0456
 39      0.0000      0.0317      0.0084      0.0197      0.0000      0.0000      0.0000      0.0000      0.0000
 40      0.0000      0.0889      0.1645      0.0762      0.0240      0.0000      0.0000      0.0000      0.0000
 41      0.1096      1.4063      0.4025      1.8978      1.4342      0.6378      1.3651      1.5305      2.3964
 42      6.9645      2.1833      3.5059      2.5132      2.7382      3.3874      2.1136      2.8727      2.1750
 43      2.4263      0.9372      0.8585      0.8787      0.7366      0.9825      1.3830      1.0180      1.7516
 44      0.0000      0.1522      0.0000      0.0000      0.1326      0.0000      0.0000      0.0000      0.0000
 45      0.0000      0.0445      0.0000      0.0000      0.0000      0.0000      0.0000      0.0000      0.0000

# j      m_j: min, <> & last-chain-values for 1 ...  7 chains
  1  0.0000E+00  1.4836E-04  0.0000E+00  0.0000E+00  0.0000E+00  0.0000E+00  0.0000E+00  0.0000E+00  0.0000E+00
  2  0.0000E+00  3.2403E-04  1.9592E-04  5.7703E-04  2.9856E-04  7.1392E-04  5.3731E-04  4.3040E-04  4.7391E-04
  3  0.0000E+00  9.5935E-05  3.8921E-04  1.1634E-04  9.7226E-05  1.3206E-04  1.6664E-04  2.6566E-04  0.0000E+00
  4  0.0000E+00  2.8793E-04  0.0000E+00  6.9171E-04  1.8663E-04  0.0000E+00  0.0000E+00  0.0000E+00  1.8375E-04
  5  0.0000E+00  1.8172E-03  0.0000E+00  2.1035E-03  0.0000E+00  4.6477E-03  4.3143E-03  5.2637E-04  3.4938E-03
  6  0.0000E+00  2.1836E-04  0.0000E+00  0.0000E+00  0.0000E+00  0.0000E+00  7.2873E-04  0.0000E+00  0.0000E+00
  7  0.0000E+00  3.1397E-04  0.0000E+00  0.0000E+00  0.0000E+00  0.0000E+00  1.2325E-03  0.0000E+00  0.0000E+00
  8  0.0000E+00  6.5811E-04  0.0000E+00  3.0911E-05  7.2380E-04  0.0000E+00  0.0000E+00  0.0000E+00  0.0000E+00
  9  0.0000E+00  2.0323E-03  6.2849E-04  0.0000E+00  0.0000E+00  0.0000E+00  0.0000E+00  0.0000E+00  0.0000E+00
 10  0.0000E+00  1.6561E-02  2.3527E-02  1.1440E-02  3.9521E-02  0.0000E+00  0.0000E+00  0.0000E+00  0.0000E+00
 11  1.2400E-04  1.0215E-01  8.8427E-02  1.0474E-01  8.3828E-02  9.2681E-02  8.6730E-02  1.0006E-01  2.3231E-02
 12  3.1872E-01  6.8342E-01  7.8205E-01  5.0276E-01  6.6901E-01  8.1165E-01  7.8133E-01  5.2627E-01  9.6738E-01
 13  1.8446E+01  1.1753E+01  1.1870E+01  1.2393E+01  1.2639E+01  1.2093E+01  1.2407E+01  1.2827E+01  1.1988E+01
 14  6.5288E+01  5.5707E+01  5.6555E+01  5.6374E+01  5.5444E+01  5.6922E+01  5.5192E+01  5.6717E+01  5.6768E+01
 15  1.0343E+00  1.3330E+01  1.3320E+01  1.2755E+01  1.2975E+01  1.2226E+01  1.2299E+01  1.2166E+01  1.3116E+01
 16  0.0000E+00  2.4372E-04  4.1823E-04  3.7667E-04  0.0000E+00  0.0000E+00  4.9909E-04  2.2771E-05  5.8261E-04
 17  0.0000E+00  1.0873E-04  0.0000E+00  2.4857E-04  0.0000E+00  0.0000E+00  0.0000E+00  0.0000E+00  2.5403E-04
 18  0.0000E+00  1.9456E-04  2.3722E-04  6.0790E-04  5.6845E-04  1.0346E-04  1.6110E-04  3.7452E-04  1.7154E-04
 19  6.8301E-03  1.0870E-03  1.6038E-03  1.6177E-04  9.1271E-04  1.6675E-03  1.9014E-03  2.5628E-03  1.5650E-03
 20  0.0000E+00  4.2352E-04  0.0000E+00  0.0000E+00  0.0000E+00  3.4610E-04  0.0000E+00  0.0000E+00  0.0000E+00
 21  0.0000E+00  2.0393E-04  0.0000E+00  0.0000E+00  0.0000E+00  0.0000E+00  0.0000E+00  0.0000E+00  4.0864E-04
 22  0.0000E+00  3.6502E-04  0.0000E+00  0.0000E+00  0.0000E+00  6.8434E-05  0.0000E+00  0.0000E+00  0.0000E+00
 23  0.0000E+00  3.1819E-04  1.4337E-03  0.0000E+00  0.0000E+00  0.0000E+00  0.0000E+00  0.0000E+00  0.0000E+00
 24  0.0000E+00  1.2690E-03  0.0000E+00  0.0000E+00  0.0000E+00  4.3539E-03  0.0000E+00  0.0000E+00  0.0000E+00
 25  0.0000E+00  6.0361E-03  0.0000E+00  0.0000E+00  0.0000E+00  0.0000E+00  0.0000E+00  0.0000E+00  0.0000E+00
 26  0.0000E+00  1.2792E-01  1.2410E-01  0.0000E+00  5.9891E-03  1.6267E-01  6.0842E-02  1.2913E-01  1.6570E-01
 27  1.0803E+00  1.5315E+00  2.0727E+00  1.5379E+00  1.6470E+00  1.5597E+00  1.7308E+00  1.8306E+00  1.4073E+00
 28  1.7052E+00  6.9450E-01  0.0000E+00  5.9461E-01  9.5490E-01  2.6703E-01  1.4229E+00  1.1277E+00  6.7860E-01
 29  1.4279E-02  2.6023E+00  2.3144E+00  2.6608E+00  2.2759E+00  2.4162E+00  1.8790E+00  2.1749E+00  2.1926E+00
 30  1.5954E+00  8.7776E+00  8.4497E+00  8.8581E+00  8.7812E+00  8.8675E+00  9.5528E+00  7.7681E+00  6.9485E+00
 31  0.0000E+00  9.4539E-05  3.9954E-04  0.0000E+00  3.3721E-04  0.0000E+00  4.0784E-05  0.0000E+00  0.0000E+00
 32  0.0000E+00  5.1711E-05  0.0000E+00  0.0000E+00  0.0000E+00  0.0000E+00  1.4222E-05  5.1342E-05  0.0000E+00
 33  0.0000E+00  1.3534E-04  1.7655E-04  1.2444E-04  9.5774E-05  2.1163E-04  0.0000E+00  7.1380E-05  0.0000E+00
