###################################################################
## OUTPUT of StarlightChains_v04.for    [Cid@UFSC - 01/Apr/2007] ##
###################################################################

## Some input info
NGC6652_b_1.cxt                          [arq_obs]
Base.BC03.N                              [arq_base]
NGC6652_b_1.msk                          [arq_masks]
StCv04.C11.config                        [arq_config]
   45                                    [N_base]
    0                                    [N_YAV_components = # of components with extra extinction!]
    0                                    [i_FitPowerLaw (1/0 = Yes/No)]
-9.99                                    [alpha_PowerLaw]
CCM                                      [red_law_option]
 1.458241                                [q_norm = A(l_norm)/A(V)]

## (Re)Sampling Parameters
 3359.00                                 [l_ini (A)]
 6428.00                                 [l_fin (A)]
    1.00                                 [dl    (A)]     (OBS: dl_cushion =    50.00 A)

## Normalization info
 4020.00                                 [l_norm (A) - for base]
 4010.00                                 [llow_norm (A) - window for f_obs]
 4060.00                                 [lupp_norm (A) - window for f_obs]
1.611308E-14                             [fobs_norm (in input units)]

## S/N
 4730.00                                 [llow_SN (A) - window for S/N]
 4780.00                                 [lupp_SN (A) - window for S/N]
  60.034                                 [S/N in S/N window]
  49.598                                 [S/N in norm. window]
  73.857                                 [S/N_err in S/N window]
  61.019                                 [S/N_err in norm. window]
  1.0000                                 [fscale_chi2]

## etc...
  2147483591                             [idum_orig]
  3066                                   [NOl_eff]
  1938                                   [Nl_eff]
  1128    NSIGMA                         [Ntot_cliped & clip_method]
   704480                                [Nglobal_steps]
   7                                     [N_chains]
  11                                     [NEX0s_base = N_base in EX0s-fits]
 0   0   1      173   2.0   7.711E+02    [Clip-Bug, RC-Crash & Burn-In warning-flags, n_censored_weights, wei_nsig_threshold & wei_limit]
     8      8.629      8.629      0.000  [idt_all, wdt_TotTime, wdt_UsrTime & wdt_SysTime (sec)]

## Synthesis Results - Best model ##

 2.17996E+00                             [chi2/Nl_eff]
     1.79690                             [adev (%)]

   101.03499                             [sum-of-x (%)]
 1.88091E-14                             [Flux_tot (units of input spectrum!)]
 3.71673E-10                             [Mini_tot (???)]
 1.91868E-10                             [Mcor_tot (???)]

  25.42                                  [v0_min  (km/s)]
  56.38                                  [vd_min  (km/s)]
 0.1075                                  [AV_min  (mag)]
 0.0000                                  [YAV_min (mag)]

# j     x_j(%)      Mini_j(%)     Mcor_j(%)     age_j(yr)     Z_j      (L/M)_j    YAV?  Mstars   component_j        a/Fe...       SSP_chi2r SSP_adev(%)   SSP_AV   SSP_x(%)
  1      0.0000     0.0000E+00    0.0000E+00    1.000000E+06  0.00400  1.114E-02    0   1.0000   age020_m42            0.0000     2.2444E+02    14.4528   4.0000    70.4605
  2      0.0000     0.0000E+00    0.0000E+00    3.160000E+06  0.00400  4.073E-02    0   0.9999   age045_m42            0.0000     7.3428E+01     9.8477   3.0444    87.6056
  3      0.0000     0.0000E+00    0.0000E+00    5.010000E+06  0.00400  2.534E-02    0   0.9488   age055_m42            0.0000     1.2766E+02    12.9177   3.5610    78.1900
  4      0.0000     0.0000E+00    0.0000E+00    1.000000E+07  0.00400  1.271E-02    0   0.8862   age070_m42            0.0000     1.1382E+02    12.6434   2.7488    82.5082
  5      0.0000     0.0000E+00    0.0000E+00    2.512000E+07  0.00400  5.070E-03    0   0.8174   age090_m42            0.0000     1.0399E+02    12.0400   2.6141    84.0834
  6      0.0000     0.0000E+00    0.0000E+00    4.000000E+07  0.00400  3.505E-03    0   0.7851   age104_m42            0.0000     7.7472E+01    10.1742   2.2632    88.0369
  7      0.0000     0.0000E+00    0.0000E+00    1.015200E+08  0.00400  2.268E-03    0   0.7207   age116_m42            0.0000     1.1714E+02     8.1347   1.8974   110.3316
  8      0.0000     0.0000E+00    0.0000E+00    2.861200E+08  0.00400  1.079E-03    0   0.6613   age125_m42            0.0000     1.1680E+02     8.2358   1.3923   112.9138
  9      3.6096     3.5611E-01    4.2749E-01    6.405400E+08  0.00400  5.077E-04    0   0.6197   age132_m42            0.0000     1.2636E+02     8.5505   1.0025   118.3287
 10      0.9403     1.3323E-01    1.5547E-01    9.047900E+08  0.00400  3.535E-04    0   0.6024   age135_m42            0.0000     7.1723E+01     6.7709   0.8373   114.5627
 11     25.7637     6.7563E+00    7.4810E+00    1.434000E+09  0.00400  1.910E-04    0   0.5716   age139_m42            0.0000     2.2974E+01     4.1819   0.3903   109.7322
 12     30.3777     1.5498E+01    1.6400E+01    2.500000E+09  0.00400  9.818E-05    0   0.5463   age150_m42            0.0000     2.6844E+00     1.7864   0.2287   100.7087
 13      1.9469     2.0669E+00    2.0932E+00    5.000000E+09  0.00400  4.718E-05    0   0.5228   age161_m42            0.0000     7.9019E+00     2.6442   0.1230    95.2227
 14     30.5034     6.9290E+01    6.6844E+01    1.100000E+10  0.00400  2.205E-05    0   0.4980   age185_m42            0.0000     1.8804E+01     3.6895  -0.1131    92.1354
 15      0.0000     0.0000E+00    0.0000E+00    1.300000E+10  0.00400  1.883E-05    0   0.4927   age193_m42            0.0000     2.1869E+01     3.9362  -0.1233    91.7223
 16      0.0000     0.0000E+00    0.0000E+00    1.000000E+06  0.02000  1.989E-02    0   1.0000   age020_m62            0.0000     2.1738E+02    14.4484   4.0000    70.7582
 17      0.0000     0.0000E+00    0.0000E+00    3.160000E+06  0.02000  3.772E-02    0   0.9858   age045_m62            0.0000     1.9099E+02    15.1165   4.0000    71.6097
 18      0.0000     0.0000E+00    0.0000E+00    5.010000E+06  0.02000  3.227E-02    0   0.9342   age055_m62            0.0000     9.7255E+01    11.4347   3.3614    82.8235
 19      0.0000     0.0000E+00    0.0000E+00    1.000000E+07  0.02000  1.011E-02    0   0.8751   age070_m62            0.0000     2.0704E+02    16.5013   2.8928    75.2749
 20      0.0000     0.0000E+00    0.0000E+00    2.512000E+07  0.02000  4.206E-03    0   0.8099   age090_m62            0.0000     1.6966E+02    14.6851   2.8078    76.8705
 21      0.0000     0.0000E+00    0.0000E+00    4.000000E+07  0.02000  3.373E-03    0   0.7799   age104_m62            0.0000     7.2761E+01     9.8013   2.4451    90.7610
 22      0.0000     0.0000E+00    0.0000E+00    1.015200E+08  0.02000  1.878E-03    0   0.7221   age116_m62            0.0000     9.5816E+01     7.9756   1.9956   108.1634
 23      0.0000     0.0000E+00    0.0000E+00    2.861200E+08  0.02000  8.869E-04    0   0.6700   age125_m62            0.0000     2.1706E+02    10.7509   1.2822   122.6878
 24      0.0000     0.0000E+00    0.0000E+00    6.405400E+08  0.02000  3.657E-04    0   0.6322   age132_m62            0.0000     1.2410E+02     8.9435   0.6642   123.4625
 25      0.0000     0.0000E+00    0.0000E+00    9.047900E+08  0.02000  2.312E-04    0   0.6152   age135_m62            0.0000     5.6790E+01     6.3264   0.3827   118.6599
 26      0.0000     7.7689E-06    8.8264E-06    1.434000E+09  0.02000  1.168E-04    0   0.5865   age139_m62            0.0000     6.8278E+00     2.6178   0.1258   106.3756
 27      0.0010     9.1710E-04    9.9664E-04    2.500000E+09  0.02000  5.505E-05    0   0.5610   age150_m62            0.0000     8.4459E+00     3.0074  -0.1968   101.4344
 28      0.0000     0.0000E+00    0.0000E+00    5.000000E+09  0.02000  2.596E-05    0   0.5353   age161_m62            0.0000     2.5978E+01     4.7152  -0.5259   101.0167
 29      0.0000     0.0000E+00    0.0000E+00    1.100000E+10  0.02000  1.169E-05    0   0.5103   age185_m62            0.0000     5.2595E+01     6.5426  -0.9033   102.5258
 30      0.0000     0.0000E+00    0.0000E+00    1.300000E+10  0.02000  9.691E-06    0   0.5047   age193_m62            0.0000     5.8633E+01     6.8623  -0.9498   102.6887
 31      0.0000     0.0000E+00    0.0000E+00    1.000000E+06  0.05000  2.651E-02    0   0.9998   age020_m72            0.0000     2.0771E+02    13.9651   4.0000    71.6944
 32      0.0000     0.0000E+00    0.0000E+00    3.160000E+06  0.05000  4.817E-02    0   0.9577   age045_m72            0.0000     1.4990E+02    13.6252   3.8315    75.8691
 33      0.0000     0.0000E+00    0.0000E+00    5.010000E+06  0.05000  3.101E-02    0   0.9147   age055_m72            0.0000     1.4127E+02    13.3840   3.4656    78.5156
 34      0.0000     0.0000E+00    0.0000E+00    1.000000E+07  0.05000  8.954E-03    0   0.8524   age070_m72            0.0000     1.4241E+02    13.2288   3.7273    76.7039
 35      0.0000     0.0000E+00    0.0000E+00    2.512000E+07  0.05000  4.207E-03    0   0.7902   age090_m72            0.0000     8.5312E+01    10.4405   3.2012    84.7310
 36      0.0000     0.0000E+00    0.0000E+00    4.000000E+07  0.05000  3.198E-03    0   0.7618   age104_m72            0.0000     5.9766E+01     7.1857   2.4716    99.9685
 37      0.0000     0.0000E+00    0.0000E+00    1.015200E+08  0.05000  1.716E-03    0   0.7092   age116_m72            0.0000     1.1363E+02     8.3120   2.0422   109.7705
 38      0.0000     0.0000E+00    0.0000E+00    2.861200E+08  0.05000  7.047E-04    0   0.6618   age125_m72            0.0000     2.0838E+02    10.8567   1.0597   123.5633
 39      0.0000     0.0000E+00    0.0000E+00    6.405400E+08  0.05000  2.633E-04    0   0.6253   age132_m72            0.0000     8.6926E+01     7.8689   0.3105   121.4949
 40      0.0000     0.0000E+00    0.0000E+00    9.047900E+08  0.05000  1.484E-04    0   0.6088   age135_m72            0.0000     1.7952E+01     4.0069  -0.0222   110.1405
 41      6.6683     4.2673E+00    4.8333E+00    1.434000E+09  0.05000  7.827E-05    0   0.5847   age139_m72            0.0000     1.3641E+01     3.7643  -0.3338   103.4790
 42      1.2241     1.6311E+00    1.7641E+00    2.500000E+09  0.05000  3.759E-05    0   0.5583   age150_m72            0.0000     2.9677E+01     5.0490  -0.6231   101.2873
 43      0.0000     0.0000E+00    0.0000E+00    5.000000E+09  0.05000  1.548E-05    0   0.5320   age161_m72            0.0000     5.4640E+01     6.7275  -1.0000   100.0499
 44      0.0000     0.0000E+00    0.0000E+00    1.100000E+10  0.05000  6.532E-06    0   0.5070   age185_m72            0.0000     1.6217E+02    12.0541  -1.0000    93.1845
 45      0.0000     0.0000E+00    0.0000E+00    1.300000E+10  0.05000  5.316E-06    0   0.5018   age193_m72            0.0000     2.2821E+02    14.1668  -1.0000    90.8229


## Synthesis Results - Average & Chains ##

# j      x_j: min, <> & last-chain-values for 1 ...  7 chains
  1      0.0000      0.0051      0.0000      0.0000      0.0000      0.0000      0.0000      0.0000      0.0000
  2      0.0000      0.0403      0.0000      0.1094      0.0000      0.0000      0.0000      0.0000      0.1212
  3      0.0000      0.0036      0.0000      0.0000      0.1236      0.0000      0.0000      0.0000      0.0000
  4      0.0000      0.0306      0.0000      0.0000      0.0000      0.0000      0.0000      0.0000      0.0000
  5      0.0000      0.0188      0.0000      0.0000      0.0000      0.0000      0.0000      0.0000      0.0000
  6      0.0000      0.0115      0.1004      0.0000      0.0000      0.0197      0.0000      0.0967      0.0000
  7      0.0000      0.2488      0.4812      0.5238      0.5333      0.3884      0.2341      0.0916      0.3254
  8      0.0000      0.0676      0.0000      0.0000      0.0000      0.0000      0.0000      0.0115      0.4296
  9      3.6096      5.1643      4.6953      5.1893      5.3177      4.8191      4.5811      5.6985      5.1183
 10      0.9403      1.8280      1.5411      1.0674      1.4769      1.3726      2.1497      1.7732      1.5744
 11     25.7637     33.8973     33.9180     33.7157     33.3270     33.4074     33.4923     31.9021     31.9175
 12     30.3777      4.9028      8.1398      7.7571      6.2263      8.3072      7.5749      8.1249      7.6545
 13      1.9469      2.5377      2.5942      3.6801      3.0538      3.8670      3.3386      3.1682      3.7796
 14     30.5034     44.1324     41.5052     40.9287     42.6362     40.9966     42.7535     42.1860     41.2094
 15      0.0000      0.0937      0.0356      0.0782      0.0000      0.0000      0.0401      0.0000      0.0000
 16      0.0000      0.0021      0.0000      0.0000      0.0000      0.0000      0.0000      0.0000      0.0000
 17      0.0000      0.0019      0.0021      0.0000      0.0000      0.0000      0.0000      0.0000      0.0000
 18      0.0000      0.0055      0.0000      0.0000      0.0000      0.0000      0.0000      0.0000      0.0278
 19      0.0000      0.0073      0.0000      0.0000      0.0000      0.0000      0.0000      0.0000      0.0000
 20      0.0000      0.0034      0.0000      0.0000      0.0000      0.0000      0.0000      0.0000      0.0000
 21      0.0000      0.0085      0.0000      0.0000      0.0000      0.0000      0.0000      0.0000      0.0000
 22      0.0000      0.0343      0.0000      0.0000      0.0278      0.0000      0.0000      0.0000      0.2181
 23      0.0000      0.0220      0.0000      0.0000      0.0000      0.0000      0.0000      0.0000      0.0000
 24      0.0000      0.0580      0.0000      0.0000      0.0000      0.0239      0.0000      0.0000      0.0861
 25      0.0000      0.1186      0.1704      0.3270      0.0000      0.0000      0.2199      0.0000      0.0925
 26      0.0000      0.8809      1.1635      0.5860      0.3921      0.7599      0.2132      0.7389      0.5791
 27      0.0010      1.4861      1.9845      1.4427      1.8807      0.8522      1.3136      1.4877      2.0738
 28      0.0000      0.7034      0.7786      1.1813      0.4547      0.7081      0.2409      1.0144      0.7557
 29      0.0000      0.0958      0.0000      0.0000      0.0000      0.1478      0.0423      0.0000      0.0459
 30      0.0000      0.0727      0.0000      0.0000      0.0000      0.0000      0.3283      0.0000      0.1590
 31      0.0000      0.0018      0.0000      0.0168      0.0000      0.0000      0.0000      0.0000      0.0000
 32      0.0000      0.0111      0.0000      0.0000      0.0000      0.0000      0.0000      0.0000      0.0000
 33      0.0000      0.0030      0.0000      0.0000      0.0000      0.0050      0.0000      0.0000      0.0000
 34      0.0000      0.0048      0.0000      0.0000      0.0000      0.0000      0.0036      0.0000      0.0000
 35      0.0000      0.0040      0.0000      0.0000      0.0000      0.0000      0.0000      0.0000      0.0000
 36      0.0000      0.0092      0.0000      0.0000      0.0521      0.0000      0.0000      0.0000      0.0000
 37      0.0000      0.0561      0.0000      0.0744      0.0000      0.0000      0.0000      0.0000      0.0000
 38      0.0000      0.0219      0.0000      0.0000      0.0000      0.0000      0.0000      0.0000      0.0000
 39      0.0000      0.6631      0.0000      0.1877      0.6221      0.0000      0.5568      0.9808      0.2065
 40      0.0000      0.5736      0.2086      0.0371      0.0000      1.7800      0.9672      0.0000      0.8827
 41      6.6683      2.4602      2.8089      2.6844      4.2223      2.8860      2.2252      3.1092      3.1707
 42      1.2241      0.6666      0.9288      1.4141      0.6529      0.7446      0.7654      0.6787      0.5527
 43      0.0000      0.0302      0.0000      0.0000      0.0022      0.0000      0.0000      0.0000      0.0551
 44      0.0000      0.0166      0.0000      0.0000      0.0000      0.0000      0.0000      0.0000      0.0136
 45      0.0000      0.0167      0.0000      0.0000      0.0000      0.0000      0.0000      0.0000      0.0000

# j      m_j: min, <> & last-chain-values for 1 ...  7 chains
  1  0.0000E+00  3.7112E-05  0.0000E+00  0.0000E+00  0.0000E+00  0.0000E+00  0.0000E+00  0.0000E+00  0.0000E+00
  2  0.0000E+00  7.9571E-05  0.0000E+00  2.2308E-04  0.0000E+00  0.0000E+00  0.0000E+00  0.0000E+00  2.4597E-04
  3  0.0000E+00  1.0790E-05  0.0000E+00  0.0000E+00  3.8121E-04  0.0000E+00  0.0000E+00  0.0000E+00  0.0000E+00
  4  0.0000E+00  1.7145E-04  0.0000E+00  0.0000E+00  0.0000E+00  0.0000E+00  0.0000E+00  0.0000E+00  0.0000E+00
  5  0.0000E+00  2.4389E-04  0.0000E+00  0.0000E+00  0.0000E+00  0.0000E+00  0.0000E+00  0.0000E+00  0.0000E+00
  6  0.0000E+00  2.0635E-04  1.8733E-03  0.0000E+00  0.0000E+00  3.6935E-04  0.0000E+00  1.7850E-03  0.0000E+00
  7  0.0000E+00  6.3535E-03  1.2736E-02  1.3822E-02  1.3964E-02  1.0313E-02  6.0596E-03  2.3982E-03  8.5506E-03
  8  0.0000E+00  3.3290E-03  0.0000E+00  0.0000E+00  0.0000E+00  0.0000E+00  0.0000E+00  5.8221E-04  2.1770E-02
  9  4.2749E-01  5.0663E-01  4.7735E-01  5.2603E-01  5.3481E-01  4.9148E-01  4.5550E-01  5.7294E-01  5.1659E-01
 10  1.5547E-01  2.5037E-01  2.1874E-01  1.5106E-01  2.0737E-01  1.9543E-01  2.9841E-01  2.4890E-01  2.2185E-01
 11  7.4810E+00  8.1532E+00  8.4545E+00  8.3794E+00  8.2178E+00  8.3536E+00  8.1650E+00  7.8642E+00  7.8983E+00
 12  1.6400E+01  2.1926E+00  3.7724E+00  3.5845E+00  2.8545E+00  3.8622E+00  3.4335E+00  3.7239E+00  3.5219E+00
 13  2.0932E+00  2.2601E+00  2.3943E+00  3.3866E+00  2.7882E+00  3.5803E+00  3.0136E+00  2.8917E+00  3.4631E+00
 14  6.6844E+01  8.0109E+01  7.8076E+01  7.6766E+01  7.9341E+01  7.7364E+01  7.8658E+01  7.8481E+01  7.6960E+01
 15  0.0000E+00  1.9714E-01  7.7635E-02  1.6984E-01  0.0000E+00  0.0000E+00  8.5572E-02  0.0000E+00  0.0000E+00
 16  0.0000E+00  8.4362E-06  0.0000E+00  0.0000E+00  0.0000E+00  0.0000E+00  0.0000E+00  0.0000E+00  0.0000E+00
 17  0.0000E+00  3.9245E-06  4.5127E-06  0.0000E+00  0.0000E+00  0.0000E+00  0.0000E+00  0.0000E+00  0.0000E+00
 18  0.0000E+00  1.2850E-05  0.0000E+00  0.0000E+00  0.0000E+00  0.0000E+00  0.0000E+00  0.0000E+00  6.6655E-05
 19  0.0000E+00  5.0972E-05  0.0000E+00  0.0000E+00  0.0000E+00  0.0000E+00  0.0000E+00  0.0000E+00  0.0000E+00
 20  0.0000E+00  5.2382E-05  0.0000E+00  0.0000E+00  0.0000E+00  0.0000E+00  0.0000E+00  0.0000E+00  0.0000E+00
 21  0.0000E+00  1.5876E-04  0.0000E+00  0.0000E+00  0.0000E+00  0.0000E+00  0.0000E+00  0.0000E+00  0.0000E+00
 22  0.0000E+00  1.0594E-03  0.0000E+00  0.0000E+00  8.7941E-04  0.0000E+00  0.0000E+00  0.0000E+00  6.9342E-03
 23  0.0000E+00  1.3352E-03  0.0000E+00  0.0000E+00  0.0000E+00  0.0000E+00  0.0000E+00  0.0000E+00  0.0000E+00
 24  0.0000E+00  8.0576E-03  0.0000E+00  0.0000E+00  0.0000E+00  3.4576E-03  0.0000E+00  0.0000E+00  1.2312E-02
 25  0.0000E+00  2.5372E-02  3.7771E-02  7.2250E-02  0.0000E+00  0.0000E+00  4.7663E-02  0.0000E+00  2.0357E-02
 26  8.8264E-06  3.5552E-01  4.8663E-01  2.4437E-01  1.6224E-01  3.1881E-01  8.7226E-02  3.0562E-01  2.4044E-01
 27  9.9664E-04  1.2172E+00  1.6844E+00  1.2210E+00  1.5792E+00  7.2565E-01  1.0905E+00  1.2488E+00  1.7475E+00
 28  0.0000E+00  1.1657E+00  1.3373E+00  2.0228E+00  7.7246E-01  1.2200E+00  4.0460E-01  1.7229E+00  1.2885E+00
 29  0.0000E+00  3.3613E-01  0.0000E+00  0.0000E+00  0.0000E+00  5.3891E-01  1.5045E-01  0.0000E+00  1.6568E-01
 30  0.0000E+00  3.0415E-01  0.0000E+00  0.0000E+00  0.0000E+00  0.0000E+00  1.3927E+00  0.0000E+00  6.8477E-01
 31  0.0000E+00  5.5256E-06  0.0000E+00  5.2618E-05  0.0000E+00  0.0000E+00  0.0000E+00  0.0000E+00  0.0000E+00
 32  0.0000E+00  1.7668E-05  0.0000E+00  0.0000E+00  0.0000E+00  0.0000E+00  0.0000E+00  0.0000E+00  0.0000E+00
 33  0.0000E+00  7.1843E-06  0.0000E+00  0.0000E+00  0.0000E+00  1.2334E-05  0.0000E+00  0.0000E+00  0.0000E+00
