###################################################################
## OUTPUT of StarlightChains_v04.for    [Cid@UFSC - 01/Apr/2007] ##
###################################################################

## Some input info
NGC6528_c_1.cxt                          [arq_obs]
Base.BC03.N                              [arq_base]
NGC6528_c_1.msk                          [arq_masks]
StCv04.C11.config                        [arq_config]
   45                                    [N_base]
    0                                    [N_YAV_components = # of components with extra extinction!]
    0                                    [i_FitPowerLaw (1/0 = Yes/No)]
-9.99                                    [alpha_PowerLaw]
CCM                                      [red_law_option]
 1.458241                                [q_norm = A(l_norm)/A(V)]

## (Re)Sampling Parameters
 3359.00                                 [l_ini (A)]
 6428.00                                 [l_fin (A)]
    1.00                                 [dl    (A)]     (OBS: dl_cushion =    50.00 A)

## Normalization info
 4020.00                                 [l_norm (A) - for base]
 4010.00                                 [llow_norm (A) - window for f_obs]
 4060.00                                 [lupp_norm (A) - window for f_obs]
3.081180E-15                             [fobs_norm (in input units)]

## S/N
 4730.00                                 [llow_SN (A) - window for S/N]
 4780.00                                 [lupp_SN (A) - window for S/N]
  26.871                                 [S/N in S/N window]
  13.196                                 [S/N in norm. window]
 236.951                                 [S/N_err in S/N window]
 116.363                                 [S/N_err in norm. window]
  1.0000                                 [fscale_chi2]

## etc...
  2147483602                             [idum_orig]
  3069                                   [NOl_eff]
  1267                                   [Nl_eff]
  1802    NSIGMA                         [Ntot_cliped & clip_method]
  1215340                                [Nglobal_steps]
   7                                     [N_chains]
  16                                     [NEX0s_base = N_base in EX0s-fits]
 0   0   1       80   2.0   2.880E+02    [Clip-Bug, RC-Crash & Burn-In warning-flags, n_censored_weights, wei_nsig_threshold & wei_limit]
    13     12.458     12.454      0.004  [idt_all, wdt_TotTime, wdt_UsrTime & wdt_SysTime (sec)]

## Synthesis Results - Best model ##

 2.35274E+00                             [chi2/Nl_eff]
     2.49240                             [adev (%)]

   101.11834                             [sum-of-x (%)]
 3.23421E-14                             [Flux_tot (units of input spectrum!)]
 2.43862E-09                             [Mini_tot (???)]
 1.23527E-09                             [Mcor_tot (???)]

 -34.01                                  [v0_min  (km/s)]
 112.69                                  [vd_min  (km/s)]
 1.7422                                  [AV_min  (mag)]
 0.0000                                  [YAV_min (mag)]

# j     x_j(%)      Mini_j(%)     Mcor_j(%)     age_j(yr)     Z_j      (L/M)_j    YAV?  Mstars   component_j        a/Fe...       SSP_chi2r SSP_adev(%)   SSP_AV   SSP_x(%)
  1      2.6381     3.1060E-03    6.1317E-03    1.000000E+06  0.00400  1.114E-02    0   1.0000   age020_m42            0.0000     2.7298E+03    52.8571   4.0000   104.1552
  2      3.5983     1.1587E-03    2.2872E-03    3.160000E+06  0.00400  4.073E-02    0   0.9999   age045_m42            0.0000     9.2282E+02    29.8364   4.0000   113.3265
  3      3.0005     1.5530E-03    2.9090E-03    5.010000E+06  0.00400  2.534E-02    0   0.9488   age055_m42            0.0000     1.5767E+03    40.2317   4.0000   110.8924
  4      4.1289     4.2607E-03    7.4541E-03    1.000000E+07  0.00400  1.271E-02    0   0.8862   age070_m42            0.0000     6.6702E+02    20.9722   4.0000   106.4554
  5      1.0843     2.8051E-03    4.5265E-03    2.512000E+07  0.00400  5.070E-03    0   0.8174   age090_m42            0.0000     5.3305E+02    17.6064   4.0000   106.0938
  6      0.0000     0.0000E+00    0.0000E+00    4.000000E+07  0.00400  3.505E-03    0   0.7851   age104_m42            0.0000     3.1104E+02    11.6766   4.0000   103.0206
  7      0.0000     0.0000E+00    0.0000E+00    1.015200E+08  0.00400  2.268E-03    0   0.7207   age116_m42            0.0000     4.4921E+02    14.6214   4.0000   109.8596
  8      0.0000     0.0000E+00    0.0000E+00    2.861200E+08  0.00400  1.079E-03    0   0.6613   age125_m42            0.0000     3.9549E+02    12.4223   3.7894   105.2101
  9      0.0000     0.0000E+00    0.0000E+00    6.405400E+08  0.00400  5.077E-04    0   0.6197   age132_m42            0.0000     3.9938E+02    12.6684   3.4309   109.4802
 10      0.0000     0.0000E+00    0.0000E+00    9.047900E+08  0.00400  3.535E-04    0   0.6024   age135_m42            0.0000     3.0972E+02    11.2321   3.1858   109.0326
 11      0.0000     0.0000E+00    0.0000E+00    1.434000E+09  0.00400  1.910E-04    0   0.5716   age139_m42            0.0000     1.6813E+02     8.7685   2.6548   107.6204
 12      0.0000     0.0000E+00    0.0000E+00    2.500000E+09  0.00400  9.818E-05    0   0.5463   age150_m42            0.0000     7.5696E+01     6.3155   2.3547   103.5760
 13      0.0000     0.0000E+00    0.0000E+00    5.000000E+09  0.00400  4.718E-05    0   0.5228   age161_m42            0.0000     4.0996E+01     5.0124   2.1861   100.5113
 14      7.9322     4.7183E+00    4.6387E+00    1.100000E+10  0.00400  2.205E-05    0   0.4980   age185_m42            0.0000     1.9282E+01     4.5482   1.9134    98.2747
 15      3.4429     2.3981E+00    2.3325E+00    1.300000E+10  0.00400  1.883E-05    0   0.4927   age193_m42            0.0000     1.7836E+01     4.4863   1.8988    98.0748
 16      0.8218     5.4191E-04    1.0698E-03    1.000000E+06  0.02000  1.989E-02    0   1.0000   age020_m62            0.0000     2.6600E+03    51.9314   4.0000   105.1019
 17      0.0000     0.0000E+00    0.0000E+00    3.160000E+06  0.02000  3.772E-02    0   0.9858   age045_m62            0.0000     2.3811E+03    49.1970   4.0000   107.5128
 18      1.2560     5.1051E-04    9.4150E-04    5.010000E+06  0.02000  3.227E-02    0   0.9342   age055_m62            0.0000     1.3304E+03    36.7425   4.0000   113.0313
 19      0.9951     1.2909E-03    2.2302E-03    1.000000E+07  0.02000  1.011E-02    0   0.8751   age070_m62            0.0000     8.4100E+02    21.6957   4.0000   104.2432
 20      0.0000     0.0000E+00    0.0000E+00    2.512000E+07  0.02000  4.206E-03    0   0.8099   age090_m62            0.0000     6.6975E+02    19.9694   4.0000   103.6335
 21      0.0000     0.0000E+00    0.0000E+00    4.000000E+07  0.02000  3.373E-03    0   0.7799   age104_m62            0.0000     4.5061E+02    15.0842   4.0000   108.3788
 22      0.0000     0.0000E+00    0.0000E+00    1.015200E+08  0.02000  1.878E-03    0   0.7221   age116_m62            0.0000     4.5302E+02    13.7901   4.0000   111.5384
 23      0.0000     0.0000E+00    0.0000E+00    2.861200E+08  0.02000  8.869E-04    0   0.6700   age125_m62            0.0000     5.0392E+02    13.8214   3.8196   109.6906
 24      0.0000     0.0000E+00    0.0000E+00    6.405400E+08  0.02000  3.657E-04    0   0.6322   age132_m62            0.0000     3.3215E+02    11.9208   3.1007   113.3701
 25      0.0000     0.0000E+00    0.0000E+00    9.047900E+08  0.02000  2.312E-04    0   0.6152   age135_m62            0.0000     2.1475E+02     9.9328   2.7242   112.5698
 26      0.0000     0.0000E+00    0.0000E+00    1.434000E+09  0.02000  1.168E-04    0   0.5865   age139_m62            0.0000     8.5886E+01     6.7488   2.2926   107.3744
 27      0.0000     0.0000E+00    0.0000E+00    2.500000E+09  0.02000  5.505E-05    0   0.5610   age150_m62            0.0000     3.3425E+01     5.4749   1.9061   104.7390
 28      0.0000     0.0000E+00    0.0000E+00    5.000000E+09  0.02000  2.596E-05    0   0.5353   age161_m62            0.0000     2.4930E+01     6.4513   1.5552   104.5887
 29     28.0554     3.1477E+01    3.1711E+01    1.100000E+10  0.02000  1.169E-05    0   0.5103   age185_m62            0.0000     5.3778E+01     8.6886   1.1839   105.5585
 30     33.9931     4.6006E+01    4.5839E+01    1.300000E+10  0.02000  9.691E-06    0   0.5047   age193_m62            0.0000     6.2054E+01     9.0142   1.1405   105.6406
 31      1.2426     6.1480E-04    1.2135E-03    1.000000E+06  0.05000  2.651E-02    0   0.9998   age020_m72            0.0000     2.6160E+03    51.8684   4.0000   106.3951
 32      0.0000     0.0000E+00    0.0000E+00    3.160000E+06  0.05000  4.817E-02    0   0.9577   age045_m72            0.0000     1.9978E+03    45.8123   4.0000   111.0104
 33      0.0000     0.0000E+00    0.0000E+00    5.010000E+06  0.05000  3.101E-02    0   0.9147   age055_m72            0.0000     1.4322E+03    37.6606   4.0000   111.5491
 34      0.0000     0.0000E+00    0.0000E+00    1.000000E+07  0.05000  8.954E-03    0   0.8524   age070_m72            0.0000     1.7487E+03    42.8122   4.0000   111.9566
 35      0.0000     0.0000E+00    0.0000E+00    2.512000E+07  0.05000  4.207E-03    0   0.7902   age090_m72            0.0000     1.0162E+03    32.0410   4.0000   114.0793
 36      0.0000     0.0000E+00    0.0000E+00    4.000000E+07  0.05000  3.198E-03    0   0.7618   age104_m72            0.0000     5.6003E+02    19.3929   4.0000   114.4732
 37      0.0000     0.0000E+00    0.0000E+00    1.015200E+08  0.05000  1.716E-03    0   0.7092   age116_m72            0.0000     5.1019E+02    15.7945   4.0000   113.3046
 38      0.0000     0.0000E+00    0.0000E+00    2.861200E+08  0.05000  7.047E-04    0   0.6618   age125_m72            0.0000     4.6142E+02    13.1637   3.6076   109.9307
 39      0.0000     0.0000E+00    0.0000E+00    6.405400E+08  0.05000  2.633E-04    0   0.6253   age132_m72            0.0000     2.4699E+02    10.3635   2.7347   112.3594
 40      0.0000     0.0000E+00    0.0000E+00    9.047900E+08  0.05000  1.484E-04    0   0.6088   age135_m72            0.0000     1.0235E+02     7.8454   2.2203   108.0034
 41      0.0000     0.0000E+00    0.0000E+00    1.434000E+09  0.05000  7.827E-05    0   0.5847   age139_m72            0.0000     4.0177E+01     6.7740   1.8047   104.8631
 42      0.0000     0.0000E+00    0.0000E+00    2.500000E+09  0.05000  3.759E-05    0   0.5583   age150_m72            0.0000     2.9628E+01     7.1015   1.4730   104.1768
 43      3.9484     3.3454E+00    3.5135E+00    5.000000E+09  0.05000  1.548E-05    0   0.5320   age161_m72            0.0000     6.4422E+01     8.7012   1.0789   103.0048
 44      0.5433     1.0909E+00    1.0919E+00    1.100000E+10  0.05000  6.532E-06    0   0.5070   age185_m72            0.0000     1.4137E+02    11.9202   0.6856   102.1430
 45      4.4374     1.0948E+01    1.0846E+01    1.300000E+10  0.05000  5.316E-06    0   0.5018   age193_m72            0.0000     1.7786E+02    13.2054   0.5607   101.9962


## Synthesis Results - Average & Chains ##

# j      x_j: min, <> & last-chain-values for 1 ...  7 chains
  1      2.6381      2.6370      2.5616      2.5224      2.6066      2.6213      2.5615      2.7404      2.5914
  2      3.5983      2.6374      2.9107      2.7735      2.7482      2.6934      2.6348      3.0975      2.8571
  3      3.0005      3.1138      3.1392      2.9460      3.3678      3.0551      2.9382      3.1607      3.2953
  4      4.1289      3.6532      3.7247      3.8905      3.6489      3.8607      3.6742      3.5154      3.5185
  5      1.0843      0.8360      0.8373      1.0293      0.9369      0.9767      1.0798      1.0851      0.7925
  6      0.0000      0.0207      0.0875      0.0000      0.0000      0.0000      0.0000      0.0000      0.0000
  7      0.0000      0.0240      0.0000      0.0000      0.0000      0.0000      0.0000      0.0000      0.0325
  8      0.0000      0.0655      0.0529      0.0375      0.0000      0.1049      0.0312      0.5587      0.2554
  9      0.0000      0.0525      0.0730      0.2597      0.0000      0.0000      0.3681      0.0000      0.0192
 10      0.0000      0.1194      0.2229      0.0000      0.5109      0.0761      0.0000      0.0000      0.3977
 11      0.0000      0.0583      0.2100      0.0000      0.0766      0.2172      0.0000      0.0000      0.0214
 12      0.0000      0.2158      0.1131      0.0562      0.0000      0.5503      0.0000      0.0823      0.0000
 13      0.0000      0.4310      0.5862      0.0359      0.1607      0.5900      0.9969      0.4746      0.1344
 14      7.9322      7.1436      7.1206      7.5593      7.4662      6.5108      5.8461      6.9124      7.0079
 15      3.4429      3.7451      4.0149      3.7651      3.9764      3.7074      4.4264      3.6305      3.8830
 16      0.8218      1.0884      1.1332      1.0311      1.0517      1.1174      0.9226      1.0969      1.1274
 17      0.0000      0.3784      0.4551      0.3375      0.4068      0.3824      0.2698      0.3925      0.4165
 18      1.2560      1.0883      1.0548      1.0859      1.1700      0.9883      1.3751      1.1227      1.1008
 19      0.9951      0.6716      0.7558      0.7651      0.8635      0.6976      0.6662      0.3249      0.7082
 20      0.0000      0.0274      0.0796      0.0000      0.0000      0.0000      0.0000      0.0000      0.0000
 21      0.0000      0.0788      0.0000      0.3243      0.0000      0.0683      0.1737      0.0000      0.1107
 22      0.0000      0.0188      0.0000      0.0000      0.0163      0.0000      0.0000      0.0000      0.0000
 23      0.0000      0.0175      0.0000      0.0000      0.0000      0.0000      0.0000      0.0087      0.0545
 24      0.0000      0.0274      0.0990      0.0097      0.0000      0.0000      0.0000      0.0000      0.1212
 25      0.0000      0.0601      0.0406      0.0000      0.0000      0.0000      0.0000      0.0000      0.0000
 26      0.0000      0.0705      0.0000      0.0000      0.0303      0.0116      0.0000      0.0000      0.0000
 27      0.0000      0.1697      0.0000      0.0000      0.0318      0.4582      0.0000      0.0000      0.0000
 28      0.0000      0.3260      0.1219      0.0209      0.0344      0.3226      0.2372      0.1768      0.0000
 29     28.0554     28.3024     27.8551     28.4694     28.2564     28.1961     27.8652     28.3212     29.3527
 30     33.9931     34.7976     34.4057     35.3253     35.2013     34.5615     34.8841     35.0525     34.2229
 31      1.2426      1.4587      1.3762      1.4190      1.2514      1.4076      1.6760      1.4749      1.3812
 32      0.0000      0.1395      0.0000      0.1771      0.0000      0.1077      0.1740      0.0000      0.1968
 33      0.0000      0.0387      0.0000      0.0211      0.0000      0.0515      0.0000      0.1074      0.0000
 34      0.0000      0.0668      0.0000      0.0000      0.0781      0.0828      0.0000      0.0350      0.0000
 35      0.0000      0.0393      0.0000      0.0000      0.0000      0.0000      0.1362      0.0000      0.0000
 36      0.0000      0.0198      0.0000      0.0000      0.0000      0.0000      0.0000      0.0000      0.0000
 37      0.0000      0.0294      0.0000      0.0000      0.0000      0.0000      0.0000      0.0000      0.0000
 38      0.0000      0.0150      0.0000      0.1726      0.0071      0.0000      0.0000      0.0000      0.0000
 39      0.0000      0.0580      0.0000      0.0000      0.0000      0.0000      0.0000      0.1017      0.0000
 40      0.0000      0.0896      0.0000      0.0656      0.1219      0.0377      0.0000      0.0000      0.0000
 41      0.0000      0.1929      0.0810      0.0000      0.0598      0.1908      0.4708      0.3967      0.0000
 42      0.0000      0.3541      0.6438      0.0000      0.0000      0.0000      0.1121      0.0000      0.3666
 43      3.9484      1.2380      1.6213      1.4884      1.6103      1.5487      2.2733      1.7488      1.8101
 44      0.5433      0.8433      0.9604      0.8827      0.8008      1.1744      0.9158      0.8192      0.8020
 45      4.4374      4.7157      4.8062      4.7189      4.6473      4.7947      4.4686      4.7719      4.6458

# j      m_j: min, <> & last-chain-values for 1 ...  7 chains
  1  6.1317E-03  6.0946E-03  5.9266E-03  5.7763E-03  5.9970E-03  6.0392E-03  5.9343E-03  6.3059E-03  5.9714E-03
  2  2.2872E-03  1.6670E-03  1.8417E-03  1.7370E-03  1.7292E-03  1.6971E-03  1.6694E-03  1.9493E-03  1.8005E-03
  3  2.9090E-03  3.0018E-03  3.0295E-03  2.8140E-03  3.2320E-03  2.9359E-03  2.8393E-03  3.0338E-03  3.1672E-03
  4  7.4541E-03  6.5581E-03  6.6936E-03  6.9202E-03  6.5208E-03  6.9088E-03  6.6116E-03  6.2833E-03  6.2974E-03
  5  4.5265E-03  3.4701E-03  3.4793E-03  4.2334E-03  3.8715E-03  4.0416E-03  4.4931E-03  4.4845E-03  3.2798E-03
  6  0.0000E+00  1.1935E-04  5.0513E-04  0.0000E+00  0.0000E+00  0.0000E+00  0.0000E+00  0.0000E+00  0.0000E+00
  7  0.0000E+00  1.9629E-04  0.0000E+00  0.0000E+00  0.0000E+00  0.0000E+00  0.0000E+00  0.0000E+00  2.6508E-04
  8  0.0000E+00  1.0343E-03  8.3520E-04  5.8688E-04  0.0000E+00  1.6502E-03  4.9414E-04  8.7784E-03  4.0181E-03
  9  0.0000E+00  1.6498E-03  2.2955E-03  8.0863E-03  0.0000E+00  0.0000E+00  1.1596E-02  0.0000E+00  6.0086E-04
 10  0.0000E+00  5.2389E-03  9.7880E-03  0.0000E+00  2.2316E-02  3.3300E-03  0.0000E+00  0.0000E+00  1.7395E-02
 11  0.0000E+00  4.4922E-03  1.6202E-02  0.0000E+00  5.8759E-03  1.6684E-02  0.0000E+00  0.0000E+00  1.6461E-03
 12  0.0000E+00  3.0921E-02  1.6220E-02  7.9709E-03  0.0000E+00  7.8586E-02  0.0000E+00  1.1745E-02  0.0000E+00
 13  0.0000E+00  1.2296E-01  1.6743E-01  1.0147E-02  4.5628E-02  1.6779E-01  2.8510E-01  1.3482E-01  3.8238E-02
 14  4.6387E+00  4.1540E+00  4.1450E+00  4.3554E+00  4.3218E+00  3.7741E+00  3.4076E+00  4.0020E+00  4.0628E+00
 15  2.3325E+00  2.5230E+00  2.7076E+00  2.5132E+00  2.6667E+00  2.4897E+00  2.9891E+00  2.4351E+00  2.6081E+00
 16  1.0698E-03  1.4089E-03  1.4684E-03  1.3224E-03  1.3552E-03  1.4419E-03  1.1971E-03  1.4137E-03  1.4550E-03
 17  0.0000E+00  2.5465E-04  3.0657E-04  2.2504E-04  2.7248E-04  2.5649E-04  1.8200E-04  2.6293E-04  2.7943E-04
 18  9.4150E-04  8.1118E-04  7.8701E-04  8.0197E-04  8.6813E-04  7.3431E-04  1.0274E-03  8.3314E-04  8.1805E-04
 19  2.2302E-03  1.4967E-03  1.6862E-03  1.6895E-03  1.9158E-03  1.5498E-03  1.4883E-03  7.2081E-04  1.5735E-03
 20  0.0000E+00  1.3605E-04  3.9498E-04  0.0000E+00  0.0000E+00  0.0000E+00  0.0000E+00  0.0000E+00  0.0000E+00
 21  0.0000E+00  4.6886E-04  0.0000E+00  1.9129E-03  0.0000E+00  4.0503E-04  1.0365E-03  0.0000E+00  6.5679E-04
 22  0.0000E+00  1.8612E-04  0.0000E+00  0.0000E+00  1.6043E-04  0.0000E+00  0.0000E+00  0.0000E+00  0.0000E+00
 23  0.0000E+00  3.4077E-04  0.0000E+00  0.0000E+00  0.0000E+00  0.0000E+00  0.0000E+00  1.6929E-04  1.0562E-03
 24  0.0000E+00  1.2214E-03  4.4114E-03  4.2745E-04  0.0000E+00  0.0000E+00  0.0000E+00  0.0000E+00  5.3794E-03
 25  0.0000E+00  4.1181E-03  2.7873E-03  0.0000E+00  0.0000E+00  0.0000E+00  0.0000E+00  0.0000E+00  0.0000E+00
 26  0.0000E+00  9.1169E-03  0.0000E+00  0.0000E+00  3.9049E-03  1.4889E-03  0.0000E+00  0.0000E+00  0.0000E+00
 27  0.0000E+00  4.4532E-02  0.0000E+00  0.0000E+00  8.3015E-03  1.1984E-01  0.0000E+00  0.0000E+00  0.0000E+00
 28  0.0000E+00  1.7305E-01  6.4801E-02  1.1006E-02  1.8171E-02  1.7075E-01  1.2625E-01  9.3460E-02  0.0000E+00
 29  3.1711E+01  3.1810E+01  3.1340E+01  3.1704E+01  3.1614E+01  3.1590E+01  3.1393E+01  3.1692E+01  3.2891E+01
 30  4.5839E+01  4.6659E+01  4.6183E+01  4.6933E+01  4.6987E+01  4.6196E+01  4.6887E+01  4.6796E+01  4.5751E+01
 31  1.2135E-03  1.4164E-03  1.3377E-03  1.3653E-03  1.2096E-03  1.3625E-03  1.6314E-03  1.4259E-03  1.3371E-03
 32  0.0000E+00  7.1427E-05  0.0000E+00  8.9826E-05  0.0000E+00  5.4976E-05  8.9291E-05  0.0000E+00  1.0045E-04
 33  0.0000E+00  2.9376E-05  0.0000E+00  1.5873E-05  0.0000E+00  3.8984E-05  0.0000E+00  8.1200E-05  0.0000E+00
