###################################################################
## OUTPUT of StarlightChains_v04.for    [Cid@UFSC - 01/Apr/2007] ##
###################################################################

## Some input info
NGC6356_a_1.cxt                          [arq_obs]
Base.BC03.N                              [arq_base]
NGC6356_a_1.msk                          [arq_masks]
StCv04.C11.config                        [arq_config]
   45                                    [N_base]
    0                                    [N_YAV_components = # of components with extra extinction!]
    0                                    [i_FitPowerLaw (1/0 = Yes/No)]
-9.99                                    [alpha_PowerLaw]
CCM                                      [red_law_option]
 1.458241                                [q_norm = A(l_norm)/A(V)]

## (Re)Sampling Parameters
 3359.00                                 [l_ini (A)]
 6428.00                                 [l_fin (A)]
    1.00                                 [dl    (A)]     (OBS: dl_cushion =    50.00 A)

## Normalization info
 4020.00                                 [l_norm (A) - for base]
 4010.00                                 [llow_norm (A) - window for f_obs]
 4060.00                                 [lupp_norm (A) - window for f_obs]
1.105556E-14                             [fobs_norm (in input units)]

## S/N
 4730.00                                 [llow_SN (A) - window for S/N]
 4780.00                                 [lupp_SN (A) - window for S/N]
  43.679                                 [S/N in S/N window]
  28.435                                 [S/N in norm. window]
  64.165                                 [S/N_err in S/N window]
  41.771                                 [S/N_err in norm. window]
  1.0000                                 [fscale_chi2]

## etc...
  2147483612                             [idum_orig]
  3068                                   [NOl_eff]
  1650                                   [Nl_eff]
  1418    NSIGMA                         [Ntot_cliped & clip_method]
   841400                                [Nglobal_steps]
   7                                     [N_chains]
  11                                     [NEX0s_base = N_base in EX0s-fits]
 0   0   1      257   2.0   8.798E+02    [Clip-Bug, RC-Crash & Burn-In warning-flags, n_censored_weights, wei_nsig_threshold & wei_limit]
     9      9.464      9.456      0.008  [idt_all, wdt_TotTime, wdt_UsrTime & wdt_SysTime (sec)]

## Synthesis Results - Best model ##

 2.74325E+00                             [chi2/Nl_eff]
     1.80509                             [adev (%)]

   102.11608                             [sum-of-x (%)]
 3.00797E-14                             [Flux_tot (units of input spectrum!)]
 1.44319E-09                             [Mini_tot (???)]
 7.41085E-10                             [Mcor_tot (???)]

   8.27                                  [v0_min  (km/s)]
  71.09                                  [vd_min  (km/s)]
 0.7296                                  [AV_min  (mag)]
 0.0000                                  [YAV_min (mag)]

# j     x_j(%)      Mini_j(%)     Mcor_j(%)     age_j(yr)     Z_j      (L/M)_j    YAV?  Mstars   component_j        a/Fe...       SSP_chi2r SSP_adev(%)   SSP_AV   SSP_x(%)
  1      0.0000     0.0000E+00    0.0000E+00    1.000000E+06  0.00400  1.114E-02    0   1.0000   age020_m42            0.0000     1.4676E+03    31.0009   4.0000    77.6341
  2      5.3248     2.6683E-03    5.1958E-03    3.160000E+06  0.00400  4.073E-02    0   0.9999   age045_m42            0.0000     3.9325E+02     7.7746   4.0000    88.4947
  3      0.0000     0.0000E+00    0.0000E+00    5.010000E+06  0.00400  2.534E-02    0   0.9488   age055_m42            0.0000     6.3463E+02    16.7855   4.0000    84.4118
  4      7.9533     1.2772E-02    2.2042E-02    1.000000E+07  0.00400  1.271E-02    0   0.8862   age070_m42            0.0000     4.4465E+02     9.9576   3.6795    85.3820
  5      0.0000     0.0000E+00    0.0000E+00    2.512000E+07  0.00400  5.070E-03    0   0.8174   age090_m42            0.0000     4.1339E+02     9.5291   3.5418    87.0827
  6      0.0000     0.0000E+00    0.0000E+00    4.000000E+07  0.00400  3.505E-03    0   0.7851   age104_m42            0.0000     3.7068E+02     8.2826   3.2070    90.2252
  7      0.0000     0.0000E+00    0.0000E+00    1.015200E+08  0.00400  2.268E-03    0   0.7207   age116_m42            0.0000     9.8863E+02     8.1343   3.1390    98.4193
  8      0.0000     0.0000E+00    0.0000E+00    2.861200E+08  0.00400  1.079E-03    0   0.6613   age125_m42            0.0000     9.9253E+02     8.3953   2.6045   101.1907
  9      0.0000     0.0000E+00    0.0000E+00    6.405400E+08  0.00400  5.077E-04    0   0.6197   age132_m42            0.0000     1.0102E+03     8.7741   2.2395   105.0267
 10      0.9294     5.3662E-02    6.2952E-02    9.047900E+08  0.00400  3.535E-04    0   0.6024   age135_m42            0.0000     7.2466E+02     7.7052   2.0038   104.8729
 11      0.0000     0.0000E+00    0.0000E+00    1.434000E+09  0.00400  1.910E-04    0   0.5716   age139_m42            0.0000     3.8353E+02     5.5935   1.4662   105.3374
 12      0.0000     0.0000E+00    0.0000E+00    2.500000E+09  0.00400  9.818E-05    0   0.5463   age150_m42            0.0000     1.1556E+02     3.3404   1.1944   102.4125
 13      0.0000     0.0000E+00    0.0000E+00    5.000000E+09  0.00400  4.718E-05    0   0.5228   age161_m42            0.0000     3.5854E+01     2.4086   1.0363    99.9376
 14     28.1045     2.6015E+01    2.5229E+01    1.100000E+10  0.00400  2.205E-05    0   0.4980   age185_m42            0.0000     1.2717E+01     2.5468   0.7599    99.3607
 15      0.0000     0.0000E+00    0.0000E+00    1.300000E+10  0.00400  1.883E-05    0   0.4927   age193_m42            0.0000     1.4175E+01     2.6103   0.7416    99.3866
 16      0.0000     0.0000E+00    0.0000E+00    1.000000E+06  0.02000  1.989E-02    0   1.0000   age020_m62            0.0000     1.3992E+03    30.1674   4.0000    78.3405
 17      0.0000     0.0000E+00    0.0000E+00    3.160000E+06  0.02000  3.772E-02    0   0.9858   age045_m62            0.0000     1.1941E+03    26.9806   4.0000    80.3660
 18      0.3120     1.9734E-04    3.5901E-04    5.010000E+06  0.02000  3.227E-02    0   0.9342   age055_m62            0.0000     5.3908E+02    13.1445   4.0000    86.4861
 19      0.9827     1.9839E-03    3.3809E-03    1.000000E+07  0.02000  1.011E-02    0   0.8751   age070_m62            0.0000     5.7797E+02    13.2802   3.7296    81.9314
 20      0.0000     0.0000E+00    0.0000E+00    2.512000E+07  0.02000  4.206E-03    0   0.8099   age090_m62            0.0000     5.0416E+02    11.3755   3.6460    83.2544
 21      0.0000     0.0000E+00    0.0000E+00    4.000000E+07  0.02000  3.373E-03    0   0.7799   age104_m62            0.0000     4.5460E+02     8.4614   3.4139    91.1261
 22      0.0000     0.0000E+00    0.0000E+00    1.015200E+08  0.02000  1.878E-03    0   0.7221   age116_m62            0.0000     9.1683E+02     8.2619   3.1763    98.4342
 23      0.0000     0.0000E+00    0.0000E+00    2.861200E+08  0.02000  8.869E-04    0   0.6700   age125_m62            0.0000     1.4351E+03     9.6992   2.5963   105.9009
 24      0.0000     0.0000E+00    0.0000E+00    6.405400E+08  0.02000  3.657E-04    0   0.6322   age132_m62            0.0000     9.7270E+02     8.8411   1.8640   111.3251
 25      0.0000     0.0000E+00    0.0000E+00    9.047900E+08  0.02000  2.312E-04    0   0.6152   age135_m62            0.0000     5.8555E+02     7.2832   1.4968   111.2369
 26      0.0000     0.0000E+00    0.0000E+00    1.434000E+09  0.02000  1.168E-04    0   0.5865   age139_m62            0.0000     1.7990E+02     4.2756   1.1032   107.0514
 27      0.0000     0.0000E+00    0.0000E+00    2.500000E+09  0.02000  5.505E-05    0   0.5610   age150_m62            0.0000     5.3188E+01     3.5254   0.7272   105.8706
 28     31.3303     2.4633E+01    2.5678E+01    5.000000E+09  0.02000  2.596E-05    0   0.5353   age161_m62            0.0000     5.6179E+01     4.8347   0.3630   107.9331
 29     11.2344     1.9615E+01    1.9493E+01    1.100000E+10  0.02000  1.169E-05    0   0.5103   age185_m62            0.0000     1.3449E+02     6.6542  -0.0456   111.6095
 30     10.9717     2.3108E+01    2.2712E+01    1.300000E+10  0.02000  9.691E-06    0   0.5047   age193_m62            0.0000     1.5607E+02     6.9545  -0.0998   112.2585
 31      0.0000     0.0000E+00    0.0000E+00    1.000000E+06  0.05000  2.651E-02    0   0.9998   age020_m72            0.0000     1.3707E+03    29.9689   4.0000    79.3430
 32      0.0000     0.0000E+00    0.0000E+00    3.160000E+06  0.05000  4.817E-02    0   0.9577   age045_m72            0.0000     9.2608E+02    22.9911   4.0000    83.5536
 33      0.0000     0.0000E+00    0.0000E+00    5.010000E+06  0.05000  3.101E-02    0   0.9147   age055_m72            0.0000     5.9642E+02    13.8674   4.0000    85.1710
 34      0.0000     0.0000E+00    0.0000E+00    1.000000E+07  0.05000  8.954E-03    0   0.8524   age070_m72            0.0000     7.6142E+02    19.4049   4.0000    84.9837
 35      0.0000     0.0000E+00    0.0000E+00    2.512000E+07  0.05000  4.207E-03    0   0.7902   age090_m72            0.0000     4.2956E+02     8.8229   4.0000    88.6633
 36      0.0000     0.0000E+00    0.0000E+00    4.000000E+07  0.05000  3.198E-03    0   0.7618   age104_m72            0.0000     6.6579E+02     7.3461   3.5573    95.0757
 37      0.0000     0.0000E+00    0.0000E+00    1.015200E+08  0.05000  1.716E-03    0   0.7092   age116_m72            0.0000     1.0113E+03     8.5000   3.2538    98.6529
 38      0.0000     0.0000E+00    0.0000E+00    2.861200E+08  0.05000  7.047E-04    0   0.6618   age125_m72            0.0000     1.3534E+03     9.3243   2.3747   107.1557
 39      0.0000     0.0000E+00    0.0000E+00    6.405400E+08  0.05000  2.633E-04    0   0.6253   age132_m72            0.0000     7.2962E+02     7.8104   1.4795   111.7082
 40      0.0000     0.0000E+00    0.0000E+00    9.047900E+08  0.05000  1.484E-04    0   0.6088   age135_m72            0.0000     2.6639E+02     5.5359   1.0016   108.5431
 41      0.0000     0.0000E+00    0.0000E+00    1.434000E+09  0.05000  7.827E-05    0   0.5847   age139_m72            0.0000     8.5881E+01     4.8162   0.6101   107.1384
 42      0.0000     0.0000E+00    0.0000E+00    2.500000E+09  0.05000  3.759E-05    0   0.5583   age150_m72            0.0000     7.3092E+01     5.2997   0.2747   107.8923
 43      4.9727     6.5566E+00    6.7928E+00    5.000000E+09  0.05000  1.548E-05    0   0.5320   age161_m72            0.0000     1.4383E+02     6.7651  -0.1746   109.2458
 44      0.0003     9.5881E-04    9.4666E-04    1.100000E+10  0.05000  6.532E-06    0   0.5070   age185_m72            0.0000     2.5836E+02     9.5037  -0.6324   112.0727
 45      0.0000     0.0000E+00    0.0000E+00    1.300000E+10  0.05000  5.316E-06    0   0.5018   age193_m72            0.0000     3.1769E+02    10.5976  -0.7852   113.3818


## Synthesis Results - Average & Chains ##

# j      x_j: min, <> & last-chain-values for 1 ...  7 chains
  1      0.0000      0.0360      0.0263      0.0710      0.0000      0.0000      0.0000      0.0000      0.0000
  2      5.3248      4.6309      4.8196      4.6699      4.7608      4.9913      4.6507      4.6267      4.7713
  3      0.0000      0.1590      0.1657      0.2220      0.2596      0.0000      0.3307      0.1261      0.1507
  4      7.9533      7.9539      8.2582      7.6724      8.4235      8.0116      8.0848      7.9266      8.1341
  5      0.0000      0.1302      0.1992      0.3242      0.0195      0.0392      0.0000      0.1232      0.2467
  6      0.0000      0.0443      0.0000      0.0137      0.0233      0.0000      0.0000      0.1332      0.0000
  7      0.0000      0.0350      0.0000      0.0000      0.1413      0.0000      0.0000      0.0000      0.0000
  8      0.0000      0.0174      0.0000      0.0000      0.0000      0.0000      0.0000      0.0000      0.0000
  9      0.0000      0.0747      0.0000      0.0967      0.0602      0.2976      0.0000      0.0000      0.0000
 10      0.9294      0.2790      0.5010      0.4889      0.3136      0.1907      0.3927      0.7277      0.3818
 11      0.0000      0.1537      0.1299      0.4286      0.0000      0.0943      0.2340      0.1754      0.1725
 12      0.0000      0.2112      0.1906      0.0807      0.1292      0.4310      0.1657      0.0000      0.4885
 13      0.0000      0.3542      0.7774      0.2787      0.5101      0.6089      1.2129      0.2457      0.5322
 14     28.1045     27.7895     28.1334     27.5334     27.7492     27.4035     27.8679     27.8075     27.8202
 15      0.0000      0.5152      0.5550      0.6533      0.8563      0.6230      0.3757      0.3211      0.5026
 16      0.0000      0.0332      0.0031      0.0000      0.0282      0.0955      0.0058      0.0923      0.0164
 17      0.0000      0.0407      0.0350      0.0260      0.0224      0.0000      0.0000      0.0000      0.0000
 18      0.3120      0.3899      0.3925      0.3765      0.5291      0.4845      0.3786      0.4214      0.3480
 19      0.9827      0.1748      0.1587      0.0000      0.0000      0.1420      0.2096      0.3625      0.2340
 20      0.0000      0.0275      0.0000      0.0000      0.0000      0.0000      0.0000      0.0000      0.0000
 21      0.0000      0.0255      0.0187      0.0000      0.0000      0.0000      0.0000      0.0000      0.0000
 22      0.0000      0.0195      0.0000      0.0000      0.0000      0.0000      0.0000      0.0000      0.0000
 23      0.0000      0.0137      0.0000      0.0000      0.0000      0.0000      0.0000      0.0000      0.0000
 24      0.0000      0.0175      0.0000      0.0000      0.0000      0.0000      0.0000      0.0000      0.0000
 25      0.0000      0.0326      0.0000      0.0000      0.0000      0.0000      0.0000      0.0000      0.0000
 26      0.0000      0.0265      0.0000      0.0112      0.0000      0.0104      0.0000      0.0000      0.0000
 27      0.0000      0.0675      0.0000      0.0000      0.0000      0.0000      0.0000      0.0000      0.0467
 28     31.3303     32.3900     31.3182     32.0199     32.5934     32.0170     31.7393     32.2569     32.2233
 29     11.2344     11.8789     11.2670     11.8780     12.0310     11.9918     11.8080     11.7864     11.9073
 30     10.9717     11.5337     12.5510     11.6974     11.9018     10.9349     11.6733     11.8780     11.6555
 31      0.0000      0.1340      0.1169      0.1432      0.1506      0.1130      0.2416      0.1604      0.1162
 32      0.0000      0.1008      0.0000      0.1444      0.0000      0.0248      0.0707      0.0797      0.1248
 33      0.0000      0.1400      0.0641      0.5146      0.0000      0.2102      0.0975      0.1508      0.0044
 34      0.0000      0.0753      0.0034      0.0000      0.0000      0.1526      0.0000      0.0000      0.0000
 35      0.0000      0.0239      0.0000      0.0000      0.0000      0.0043      0.0158      0.1104      0.0171
 36      0.0000      0.0189      0.0000      0.0000      0.0000      0.0000      0.0000      0.0000      0.0000
 37      0.0000      0.0385      0.0000      0.0000      0.0000      0.0040      0.0000      0.0000      0.0000
 38      0.0000      0.0148      0.0000      0.0000      0.0000      0.0000      0.0000      0.0000      0.0000
 39      0.0000      0.0202      0.0000      0.0000      0.0000      0.0000      0.1128      0.0000      0.0000
 40      0.0000      0.0298      0.0059      0.0000      0.0000      0.0000      0.0000      0.0000      0.0000
 41      0.0000      0.0439      0.0000      0.1630      0.0000      0.0000      0.0728      0.0000      0.0487
 42      0.0000      0.1861      0.1123      0.3528      0.0000      0.4411      0.0000      0.1641      0.0000
 43      4.9727      1.1255      1.4818      1.1841      1.3603      1.8998      1.4934      1.8752      1.2884
 44      0.0003      0.5812      0.4369      0.6917      0.2892      0.3991      0.5979      0.6222      0.3840
 45      0.0000      0.6123      0.4080      0.4584      0.0000      0.5500      0.2891      0.0000      0.5693

# j      m_j: min, <> & last-chain-values for 1 ...  7 chains
  1  0.0000E+00  1.2518E-04  9.1730E-05  2.4723E-04  0.0000E+00  0.0000E+00  0.0000E+00  0.0000E+00  0.0000E+00
  2  5.1958E-03  4.4048E-03  4.5897E-03  4.4477E-03  4.5956E-03  4.7977E-03  4.4609E-03  4.4452E-03  4.5543E-03
  3  0.0000E+00  2.3061E-04  2.4062E-04  3.2247E-04  3.8223E-04  0.0000E+00  4.8378E-04  1.8475E-04  2.1943E-04
  4  2.2042E-02  2.1488E-02  2.2336E-02  2.0754E-02  2.3094E-02  2.1872E-02  2.2025E-02  2.1630E-02  2.2051E-02
  5  0.0000E+00  8.1352E-04  1.2460E-03  2.0279E-03  1.2342E-04  2.4727E-04  0.0000E+00  7.7767E-04  1.5464E-03
  6  0.0000E+00  3.8477E-04  0.0000E+00  1.1894E-04  2.0500E-04  0.0000E+00  0.0000E+00  1.1673E-03  0.0000E+00
  7  0.0000E+00  4.3090E-04  0.0000E+00  0.0000E+00  1.7656E-03  0.0000E+00  0.0000E+00  0.0000E+00  0.0000E+00
  8  0.0000E+00  4.1317E-04  0.0000E+00  0.0000E+00  0.0000E+00  0.0000E+00  0.0000E+00  0.0000E+00  0.0000E+00
  9  0.0000E+00  3.5341E-03  0.0000E+00  4.5808E-03  2.8869E-03  1.4224E-02  0.0000E+00  0.0000E+00  0.0000E+00
 10  6.2952E-02  1.8424E-02  3.3119E-02  3.2323E-02  2.1014E-02  1.2727E-02  2.6147E-02  4.8531E-02  2.5296E-02
 11  0.0000E+00  1.7824E-02  1.5075E-02  4.9767E-02  0.0000E+00  1.1048E-02  2.7365E-02  2.0544E-02  2.0074E-02
 12  0.0000E+00  4.5526E-02  4.1150E-02  1.7413E-02  2.8272E-02  9.3893E-02  3.6034E-02  0.0000E+00  1.0568E-01
 13  0.0000E+00  1.5207E-01  3.3414E-01  1.1981E-01  2.2225E-01  2.6417E-01  5.2513E-01  1.0654E-01  2.2930E-01
 14  2.5229E+01  2.4317E+01  2.4648E+01  2.4125E+01  2.4643E+01  2.4233E+01  2.4592E+01  2.4579E+01  2.4430E+01
 15  0.0000E+00  5.2235E-01  5.6333E-01  6.6314E-01  8.8101E-01  6.3830E-01  3.8405E-01  3.2885E-01  5.1131E-01
 16  0.0000E+00  6.4761E-05  6.1197E-06  0.0000E+00  5.5770E-05  1.8792E-04  1.1355E-05  1.8161E-04  3.2032E-05
 17  0.0000E+00  4.1169E-05  3.5461E-05  2.6314E-05  2.3065E-05  0.0000E+00  0.0000E+00  0.0000E+00  0.0000E+00
 18  3.5901E-04  4.3731E-04  4.4072E-04  4.2290E-04  6.0225E-04  5.4921E-04  4.2828E-04  4.7747E-04  3.9173E-04
 19  3.3809E-03  5.8628E-04  5.3296E-04  0.0000E+00  0.0000E+00  4.8138E-04  7.0889E-04  1.2278E-03  7.8747E-04
 20  0.0000E+00  2.0519E-04  0.0000E+00  0.0000E+00  0.0000E+00  0.0000E+00  0.0000E+00  0.0000E+00  0.0000E+00
 21  0.0000E+00  2.2839E-04  1.6792E-04  0.0000E+00  0.0000E+00  0.0000E+00  0.0000E+00  0.0000E+00  0.0000E+00
 22  0.0000E+00  2.9041E-04  0.0000E+00  0.0000E+00  0.0000E+00  0.0000E+00  0.0000E+00  0.0000E+00  0.0000E+00
 23  0.0000E+00  3.9966E-04  0.0000E+00  0.0000E+00  0.0000E+00  0.0000E+00  0.0000E+00  0.0000E+00  0.0000E+00
 24  0.0000E+00  1.1734E-03  0.0000E+00  0.0000E+00  0.0000E+00  0.0000E+00  0.0000E+00  0.0000E+00  0.0000E+00
 25  0.0000E+00  3.3640E-03  0.0000E+00  0.0000E+00  0.0000E+00  0.0000E+00  0.0000E+00  0.0000E+00  0.0000E+00
 26  0.0000E+00  5.1637E-03  0.0000E+00  2.1792E-03  0.0000E+00  2.0498E-03  0.0000E+00  0.0000E+00  0.0000E+00
 27  0.0000E+00  2.6658E-02  0.0000E+00  0.0000E+00  0.0000E+00  0.0000E+00  0.0000E+00  0.0000E+00  1.8514E-02
 28  2.5678E+01  2.5877E+01  2.5051E+01  2.5615E+01  2.6427E+01  2.5849E+01  2.5571E+01  2.6031E+01  2.5835E+01
 29  1.9493E+01  2.0091E+01  1.9079E+01  2.0116E+01  2.0651E+01  2.0496E+01  2.0140E+01  2.0136E+01  2.0210E+01
 30  2.2712E+01  2.3273E+01  2.5356E+01  2.3634E+01  2.4372E+01  2.2297E+01  2.3753E+01  2.4210E+01  2.3601E+01
 31  0.0000E+00  1.9578E-04  1.7096E-04  2.0952E-04  2.2339E-04  1.6689E-04  3.5602E-04  2.3679E-04  1.7038E-04
 32  0.0000E+00  7.7665E-05  0.0000E+00  1.1135E-04  0.0000E+00  1.9297E-05  5.4915E-05  6.1999E-05  9.6445E-05
 33  0.0000E+00  1.6002E-04  7.3389E-05  5.8885E-04  0.0000E+00  2.4282E-04  1.1243E-04  1.7411E-04  5.0014E-06
