###################################################################
## OUTPUT of StarlightChains_v04.for    [Cid@UFSC - 01/Apr/2007] ##
###################################################################

## Some input info
NGC6342_a_1.cxt                          [arq_obs]
Base.BC03.N                              [arq_base]
NGC6342_a_1.msk                          [arq_masks]
StCv04.C11.config                        [arq_config]
   45                                    [N_base]
    0                                    [N_YAV_components = # of components with extra extinction!]
    0                                    [i_FitPowerLaw (1/0 = Yes/No)]
-9.99                                    [alpha_PowerLaw]
CCM                                      [red_law_option]
 1.458241                                [q_norm = A(l_norm)/A(V)]

## (Re)Sampling Parameters
 3359.00                                 [l_ini (A)]
 6428.00                                 [l_fin (A)]
    1.00                                 [dl    (A)]     (OBS: dl_cushion =    50.00 A)

## Normalization info
 4020.00                                 [l_norm (A) - for base]
 4010.00                                 [llow_norm (A) - window for f_obs]
 4060.00                                 [lupp_norm (A) - window for f_obs]
2.158412E-15                             [fobs_norm (in input units)]

## S/N
 4730.00                                 [llow_SN (A) - window for S/N]
 4780.00                                 [lupp_SN (A) - window for S/N]
  41.172                                 [S/N in S/N window]
  28.335                                 [S/N in norm. window]
 118.442                                 [S/N_err in S/N window]
  81.514                                 [S/N_err in norm. window]
  1.0000                                 [fscale_chi2]

## etc...
  2147483615                             [idum_orig]
  3068                                   [NOl_eff]
   974                                   [Nl_eff]
  2094    NSIGMA                         [Ntot_cliped & clip_method]
   774620                                [Nglobal_steps]
   7                                     [N_chains]
  10                                     [NEX0s_base = N_base in EX0s-fits]
 0   0   1      115   2.0   8.706E+02    [Clip-Bug, RC-Crash & Burn-In warning-flags, n_censored_weights, wei_nsig_threshold & wei_limit]
    10      9.442      9.438      0.004  [idt_all, wdt_TotTime, wdt_UsrTime & wdt_SysTime (sec)]

## Synthesis Results - Best model ##

 2.73080E+00                             [chi2/Nl_eff]
     1.44639                             [adev (%)]

    97.77805                             [sum-of-x (%)]
 8.27135E-15                             [Flux_tot (units of input spectrum!)]
 2.25796E-10                             [Mini_tot (???)]
 1.15178E-10                             [Mcor_tot (???)]

  -1.06                                  [v0_min  (km/s)]
  77.55                                  [vd_min  (km/s)]
 1.0170                                  [AV_min  (mag)]
 0.0000                                  [YAV_min (mag)]

# j     x_j(%)      Mini_j(%)     Mcor_j(%)     age_j(yr)     Z_j      (L/M)_j    YAV?  Mstars   component_j        a/Fe...       SSP_chi2r SSP_adev(%)   SSP_AV   SSP_x(%)
  1      0.0000     0.0000E+00    0.0000E+00    1.000000E+06  0.00400  1.114E-02    0   1.0000   age020_m42            0.0000     1.8540E+03    26.3574   4.0000    81.8481
  2      0.0000     0.0000E+00    0.0000E+00    3.160000E+06  0.00400  4.073E-02    0   0.9999   age045_m42            0.0000     1.0871E+02     8.1816   3.9867    85.9577
  3      0.0000     0.0000E+00    0.0000E+00    5.010000E+06  0.00400  2.534E-02    0   0.9488   age055_m42            0.0000     4.3927E+02    14.0682   4.0000    86.2081
  4      0.0000     0.0000E+00    0.0000E+00    1.000000E+07  0.00400  1.271E-02    0   0.8862   age070_m42            0.0000     1.8212E+02    11.2604   3.6186    82.1820
  5      0.0000     0.0000E+00    0.0000E+00    2.512000E+07  0.00400  5.070E-03    0   0.8174   age090_m42            0.0000     1.6907E+02    10.8410   3.4893    83.7989
  6      0.0000     0.0000E+00    0.0000E+00    4.000000E+07  0.00400  3.505E-03    0   0.7851   age104_m42            0.0000     1.2942E+02     9.3722   3.1639    87.5120
  7      0.0000     0.0000E+00    0.0000E+00    1.015200E+08  0.00400  2.268E-03    0   0.7207   age116_m42            0.0000     2.8282E+02    10.1806   2.9585   106.9607
  8      0.0000     0.0000E+00    0.0000E+00    2.861200E+08  0.00400  1.079E-03    0   0.6613   age125_m42            0.0000     2.8804E+02    10.1411   2.4597   109.5069
  9      2.6879     1.9835E-01    2.4096E-01    6.405400E+08  0.00400  5.077E-04    0   0.6197   age132_m42            0.0000     3.1933E+02    10.3123   2.0710   114.9834
 10      4.5256     4.7962E-01    5.6641E-01    9.047900E+08  0.00400  3.535E-04    0   0.6024   age135_m42            0.0000     2.0070E+02     8.3878   1.8691   112.4470
 11      1.8837     3.6948E-01    4.1403E-01    1.434000E+09  0.00400  1.910E-04    0   0.5716   age139_m42            0.0000     8.3052E+01     5.5738   1.3977   109.2060
 12      7.9326     3.0270E+00    3.2418E+00    2.500000E+09  0.00400  9.818E-05    0   0.5463   age150_m42            0.0000     1.2162E+01     2.3346   1.1944   101.3356
 13     48.1632     3.8245E+01    3.9197E+01    5.000000E+09  0.00400  4.718E-05    0   0.5228   age161_m42            0.0000     3.2311E+00     1.4987   1.0620    96.5110
 14     26.0066     4.4187E+01    4.3139E+01    1.100000E+10  0.00400  2.205E-05    0   0.4980   age185_m42            0.0000     1.3100E+01     2.6594   0.8181    94.1347
 15      5.1364     1.0219E+01    9.8708E+00    1.300000E+10  0.00400  1.883E-05    0   0.4927   age193_m42            0.0000     1.6646E+01     2.9497   0.8053    93.8188
 16      0.0000     0.0000E+00    0.0000E+00    1.000000E+06  0.02000  1.989E-02    0   1.0000   age020_m62            0.0000     1.7370E+03    25.4123   4.0000    82.4454
 17      0.0000     0.0000E+00    0.0000E+00    3.160000E+06  0.02000  3.772E-02    0   0.9858   age045_m62            0.0000     1.3257E+03    22.6357   4.0000    84.2096
 18      0.0000     0.0000E+00    0.0000E+00    5.010000E+06  0.02000  3.227E-02    0   0.9342   age055_m62            0.0000     2.2601E+02    11.2010   4.0000    87.6279
 19      0.0000     0.0000E+00    0.0000E+00    1.000000E+07  0.02000  1.011E-02    0   0.8751   age070_m62            0.0000     3.6943E+02    14.6489   3.7058    75.3963
 20      0.0000     0.0000E+00    0.0000E+00    2.512000E+07  0.02000  4.206E-03    0   0.8099   age090_m62            0.0000     2.8577E+02    12.9580   3.6393    76.7098
 21      0.0000     0.0000E+00    0.0000E+00    4.000000E+07  0.02000  3.373E-03    0   0.7799   age104_m62            0.0000     1.2929E+02     9.3662   3.3532    89.8258
 22      0.0000     0.0000E+00    0.0000E+00    1.015200E+08  0.02000  1.878E-03    0   0.7221   age116_m62            0.0000     2.2944E+02     9.5700   3.0185   105.4712
 23      0.0000     0.0000E+00    0.0000E+00    2.861200E+08  0.02000  8.869E-04    0   0.6700   age125_m62            0.0000     4.9893E+02    12.5088   2.4177   117.6488
 24      0.0000     0.0000E+00    0.0000E+00    6.405400E+08  0.02000  3.657E-04    0   0.6322   age132_m62            0.0000     3.2357E+02    10.2147   1.7768   119.9499
 25      0.0000     0.0000E+00    0.0000E+00    9.047900E+08  0.02000  2.312E-04    0   0.6152   age135_m62            0.0000     1.7634E+02     7.6219   1.4493   116.7625
 26      0.0000     0.0000E+00    0.0000E+00    1.434000E+09  0.02000  1.168E-04    0   0.5865   age139_m62            0.0000     3.7048E+01     3.7297   1.1269   106.3800
 27      0.0000     0.0000E+00    0.0000E+00    2.500000E+09  0.02000  5.505E-05    0   0.5610   age150_m62            0.0000     1.8734E+01     3.1980   0.7901   102.2843
 28      0.7296     1.0529E+00    1.1050E+00    5.000000E+09  0.02000  2.596E-05    0   0.5353   age161_m62            0.0000     4.5691E+01     5.0727   0.4558   102.9915
 29      0.6844     2.1932E+00    2.1941E+00    1.100000E+10  0.02000  1.169E-05    0   0.5103   age185_m62            0.0000     9.5420E+01     7.0639   0.0808   105.4869
 30      0.0000     0.0000E+00    0.0000E+00    1.300000E+10  0.02000  9.691E-06    0   0.5047   age193_m62            0.0000     1.0528E+02     7.3562   0.0341   105.8405
 31      0.0000     0.0000E+00    0.0000E+00    1.000000E+06  0.05000  2.651E-02    0   0.9998   age020_m72            0.0000     1.7086E+03    25.0991   4.0000    83.6165
 32      0.0000     0.0000E+00    0.0000E+00    3.160000E+06  0.05000  4.817E-02    0   0.9577   age045_m72            0.0000     8.5907E+02    18.8145   4.0000    87.5549
 33      0.0000     0.0000E+00    0.0000E+00    5.010000E+06  0.05000  3.101E-02    0   0.9147   age055_m72            0.0000     3.3739E+02    12.6436   4.0000    84.7063
 34      0.0000     0.0000E+00    0.0000E+00    1.000000E+07  0.05000  8.954E-03    0   0.8524   age070_m72            0.0000     6.3971E+02    16.3152   4.0000    87.1294
 35      0.0000     0.0000E+00    0.0000E+00    2.512000E+07  0.05000  4.207E-03    0   0.7902   age090_m72            0.0000     1.4115E+02     9.1574   4.0000    86.0356
 36      0.0000     0.0000E+00    0.0000E+00    4.000000E+07  0.05000  3.198E-03    0   0.7618   age104_m72            0.0000     1.4831E+02     8.3562   3.4546    98.1073
 37      0.0000     0.0000E+00    0.0000E+00    1.015200E+08  0.05000  1.716E-03    0   0.7092   age116_m72            0.0000     2.7711E+02    10.1930   3.0883   106.5763
 38      0.0000     0.0000E+00    0.0000E+00    2.861200E+08  0.05000  7.047E-04    0   0.6618   age125_m72            0.0000     4.9813E+02    12.3028   2.2135   118.5630
 39      0.0000     0.0000E+00    0.0000E+00    6.405400E+08  0.05000  2.633E-04    0   0.6253   age132_m72            0.0000     2.4740E+02     8.7145   1.4200   118.8568
 40      0.0000     0.0000E+00    0.0000E+00    9.047900E+08  0.05000  1.484E-04    0   0.6088   age135_m72            0.0000     7.6981E+01     5.1890   1.0208   109.7731
 41      0.0000     0.0000E+00    0.0000E+00    1.434000E+09  0.05000  7.827E-05    0   0.5847   age139_m72            0.0000     4.2171E+01     4.4497   0.6786   104.3907
 42      0.0282     2.8100E-02    3.0756E-02    2.500000E+09  0.05000  3.759E-05    0   0.5583   age150_m72            0.0000     5.6344E+01     5.5681   0.3754   102.9756
 43      0.0000     0.0000E+00    0.0000E+00    5.000000E+09  0.05000  1.548E-05    0   0.5320   age161_m72            0.0000     1.0366E+02     7.1704  -0.0443   103.4450
 44      0.0000     0.0000E+00    0.0000E+00    1.100000E+10  0.05000  6.532E-06    0   0.5070   age185_m72            0.0000     1.7753E+02     9.0253  -0.4566   105.7315
 45      0.0000     0.0000E+00    0.0000E+00    1.300000E+10  0.05000  5.316E-06    0   0.5018   age193_m72            0.0000     2.1452E+02     9.8198  -0.5898   106.8605


## Synthesis Results - Average & Chains ##

# j      x_j: min, <> & last-chain-values for 1 ...  7 chains
  1      0.0000      0.0199      0.0000      0.0000      0.0000      0.0000      0.0238      0.0000      0.0000
  2      0.0000      0.0469      0.0000      0.0404      0.0000      0.2627      0.0000      0.0000      0.0000
  3      0.0000      0.0845      0.0000      0.0000      0.0000      0.0730      0.1706      0.0679      0.0805
  4      0.0000      0.2179      0.2439      0.1219      0.2056      0.1904      0.2745      0.1922      0.7516
  5      0.0000      0.1142      0.0000      0.3384      0.0847      0.0545      0.0769      0.3398      0.0915
  6      0.0000      0.0325      0.0256      0.0000      0.0000      0.0000      0.0000      0.0000      0.0000
  7      0.0000      0.0478      0.0000      0.0443      0.0328      0.0000      0.0000      0.0549      0.0000
  8      0.0000      0.0356      0.0000      0.0000      0.0000      0.0000      0.0000      0.0077      0.0000
  9      2.6879      2.8831      3.1032      2.8659      2.9383      3.2936      3.1386      2.8222      2.6807
 10      4.5256      3.6400      3.8060      3.5116      3.8684      3.6516      4.0295      3.6024      3.3808
 11      1.8837      5.4757      5.3754      5.6877      5.4158      4.9213      5.0946      5.2984      5.8734
 12      7.9326     11.2664     11.7527     11.7485     11.4935     11.3028     11.2413     12.8178     11.2730
 13     48.1632     30.7362     31.0610     30.9330     30.6129     31.6617     30.7501     30.9433     31.4855
 14     26.0066     28.3793     27.8810     27.9886     28.3641     28.0959     28.3057     28.0236     27.9617
 15      5.1364     10.7089      9.8605     10.3418     10.7442     10.2837     10.2680      9.5180     10.0129
 16      0.0000      0.0231      0.1419      0.0000      0.1091      0.0182      0.0000      0.0455      0.0000
 17      0.0000      0.0156      0.0000      0.0000      0.0000      0.0000      0.0000      0.0998      0.0000
 18      0.0000      0.1278      0.3062      0.2983      0.3229      0.1646      0.1278      0.1404      0.1069
 19      0.0000      0.1240      0.0042      0.1660      0.2458      0.1870      0.4760      0.0843      0.0000
 20      0.0000      0.0257      0.1021      0.0143      0.0000      0.0000      0.0000      0.0000      0.0000
 21      0.0000      0.0388      0.0000      0.0000      0.0000      0.0000      0.0000      0.0000      0.0000
 22      0.0000      0.0228      0.0000      0.0000      0.0000      0.0000      0.0000      0.0000      0.0000
 23      0.0000      0.0233      0.0197      0.1011      0.0000      0.0000      0.0000      0.0000      0.0000
 24      0.0000      0.0412      0.0000      0.0000      0.0000      0.0000      0.0000      0.0000      0.2454
 25      0.0000      0.0287      0.0000      0.0000      0.0000      0.0000      0.0000      0.0000      0.0553
 26      0.0000      0.1061      0.0000      0.0491      0.0000      0.0000      0.0000      0.1391      0.0000
 27      0.0000      0.4440      0.5226      0.0000      0.4870      1.0202      0.5479      0.0037      0.2726
 28      0.7296      0.7992      0.4732      1.7120      0.8187      0.6153      1.1156      1.3939      0.7429
 29      0.6844      0.4642      1.1553      0.6497      0.4140      0.7866      0.4382      0.7423      0.4943
 30      0.0000      0.3843      0.2151      0.1958      0.4417      0.4604      0.6701      0.3957      0.5356
 31      0.0000      0.0124      0.0000      0.0051      0.0000      0.0000      0.0000      0.0000      0.0000
 32      0.0000      0.0860      0.1927      0.0000      0.0604      0.1400      0.0000      0.0000      0.2223
 33      0.0000      0.0359      0.1375      0.0594      0.0000      0.0000      0.0000      0.0846      0.0000
 34      0.0000      0.0368      0.0000      0.1041      0.0319      0.0000      0.0000      0.0000      0.0000
 35      0.0000      0.0303      0.0000      0.0000      0.0000      0.0000      0.0000      0.1564      0.0000
 36      0.0000      0.0430      0.0000      0.1604      0.0000      0.0000      0.0084      0.0000      0.0000
 37      0.0000      0.0209      0.0000      0.0111      0.0000      0.0000      0.0000      0.0000      0.0000
 38      0.0000      0.0199      0.0639      0.0000      0.0697      0.0135      0.0000      0.0000      0.0000
 39      0.0000      0.0329      0.0000      0.0000      0.0000      0.0000      0.0000      0.0007      0.0000
 40      0.0000      0.1201      0.1515      0.0000      0.0000      0.0000      0.1797      0.0000      0.1281
 41      0.0000      0.4963      0.0000      0.4554      0.5634      0.4420      0.5716      0.1101      0.6402
 42      0.0282      0.5511      1.3761      0.3494      0.5900      0.2463      0.4214      0.8475      0.8821
 43      0.0000      0.0463      0.0000      0.0000      0.0000      0.0000      0.0000      0.0000      0.0000
 44      0.0000      0.0252      0.0000      0.0000      0.0057      0.0068      0.0000      0.0000      0.0292
 45      0.0000      0.0125      0.0000      0.0000      0.0000      0.0066      0.0000      0.0000      0.0000

# j      m_j: min, <> & last-chain-values for 1 ...  7 chains
  1  0.0000E+00  1.2522E-04  0.0000E+00  0.0000E+00  0.0000E+00  0.0000E+00  1.4950E-04  0.0000E+00  0.0000E+00
  2  0.0000E+00  8.0463E-05  0.0000E+00  6.9855E-05  0.0000E+00  4.5039E-04  0.0000E+00  0.0000E+00  0.0000E+00
  3  0.0000E+00  2.2132E-04  0.0000E+00  0.0000E+00  0.0000E+00  1.9088E-04  4.4622E-04  1.7938E-04  2.1218E-04
  4  0.0000E+00  1.0625E-03  1.1964E-03  5.9865E-04  1.0040E-03  9.2691E-04  1.3375E-03  9.4520E-04  3.6887E-03
  5  0.0000E+00  1.2874E-03  0.0000E+00  3.8418E-03  9.5672E-04  6.1326E-04  8.6660E-04  3.8639E-03  1.0385E-03
  6  0.0000E+00  5.0910E-04  4.0366E-04  0.0000E+00  0.0000E+00  0.0000E+00  0.0000E+00  0.0000E+00  0.0000E+00
  7  0.0000E+00  1.0626E-03  0.0000E+00  9.9176E-04  7.3110E-04  0.0000E+00  0.0000E+00  1.2301E-03  0.0000E+00
  8  0.0000E+00  1.5280E-03  0.0000E+00  0.0000E+00  0.0000E+00  0.0000E+00  0.0000E+00  3.3099E-04  0.0000E+00
  9  2.4096E-01  2.4611E-01  2.6645E-01  2.4629E-01  2.5120E-01  2.8075E-01  2.6768E-01  2.4299E-01  2.3033E-01
 10  5.6641E-01  4.3381E-01  4.5625E-01  4.2133E-01  4.6171E-01  4.3457E-01  4.7981E-01  4.3303E-01  4.0554E-01
 11  4.1403E-01  1.1460E+00  1.1316E+00  1.1984E+00  1.1352E+00  1.0285E+00  1.0653E+00  1.1185E+00  1.2373E+00
 12  3.2418E+00  4.3842E+00  4.6002E+00  4.6027E+00  4.4792E+00  4.3922E+00  4.3706E+00  5.0310E+00  4.4154E+00
 13  3.9197E+01  2.3819E+01  2.4212E+01  2.4134E+01  2.3759E+01  2.4502E+01  2.3809E+01  2.4187E+01  2.4559E+01
 14  4.3139E+01  4.4825E+01  4.4296E+01  4.4506E+01  4.4867E+01  4.4315E+01  4.4669E+01  4.4645E+01  4.4453E+01
 15  9.8708E+00  1.9596E+01  1.8150E+01  1.9052E+01  1.9690E+01  1.8792E+01  1.8773E+01  1.7568E+01  1.8442E+01
 16  0.0000E+00  8.1135E-05  5.0199E-04  0.0000E+00  3.8428E-04  6.3820E-05  0.0000E+00  1.6121E-04  0.0000E+00
 17  0.0000E+00  2.8430E-05  0.0000E+00  0.0000E+00  0.0000E+00  0.0000E+00  0.0000E+00  1.8402E-04  0.0000E+00
 18  0.0000E+00  2.5868E-04  6.2360E-04  6.0809E-04  6.5465E-04  3.3270E-04  2.5860E-04  2.8674E-04  2.1779E-04
 19  0.0000E+00  7.5073E-04  2.5687E-05  1.0116E-03  1.4902E-03  1.1303E-03  2.8788E-03  5.1481E-04  0.0000E+00
 20  0.0000E+00  3.4552E-04  1.3825E-03  1.9351E-04  0.0000E+00  0.0000E+00  0.0000E+00  0.0000E+00  0.0000E+00
 21  0.0000E+00  6.2719E-04  0.0000E+00  0.0000E+00  0.0000E+00  0.0000E+00  0.0000E+00  0.0000E+00  0.0000E+00
 22  0.0000E+00  6.1181E-04  0.0000E+00  0.0000E+00  0.0000E+00  0.0000E+00  0.0000E+00  0.0000E+00  0.0000E+00
 23  0.0000E+00  1.2304E-03  1.0450E-03  5.3768E-03  0.0000E+00  0.0000E+00  0.0000E+00  0.0000E+00  0.0000E+00
 24  0.0000E+00  4.9808E-03  0.0000E+00  0.0000E+00  0.0000E+00  0.0000E+00  0.0000E+00  0.0000E+00  2.9858E-02
 25  0.0000E+00  5.3434E-03  0.0000E+00  0.0000E+00  0.0000E+00  0.0000E+00  0.0000E+00  0.0000E+00  1.0352E-02
 26  0.0000E+00  3.7262E-02  0.0000E+00  1.7342E-02  0.0000E+00  0.0000E+00  0.0000E+00  4.9258E-02  0.0000E+00
 27  0.0000E+00  3.1647E-01  3.7461E-01  0.0000E+00  3.4758E-01  7.2606E-01  3.9011E-01  2.6889E-03  1.9558E-01
 28  1.1050E+00  1.1525E+00  6.8635E-01  2.4855E+00  1.1823E+00  8.8612E-01  1.6074E+00  2.0274E+00  1.0784E+00
 29  2.1941E+00  1.4172E+00  3.5478E+00  1.9968E+00  1.2658E+00  2.3980E+00  1.3365E+00  2.2858E+00  1.5190E+00
 30  0.0000E+00  1.3998E+00  7.8814E-01  7.1791E-01  1.6113E+00  1.6746E+00  2.4384E+00  1.4536E+00  1.9636E+00
 31  0.0000E+00  3.2754E-05  0.0000E+00  1.3663E-05  0.0000E+00  0.0000E+00  0.0000E+00  0.0000E+00  0.0000E+00
 32  0.0000E+00  1.1964E-04  2.6946E-04  0.0000E+00  8.4167E-05  1.9436E-04  0.0000E+00  0.0000E+00  3.1109E-04
 33  0.0000E+00  7.4120E-05  2.8536E-04  1.2330E-04  0.0000E+00  0.0000E+00  0.0000E+00  1.7601E-04  0.0000E+00
