###################################################################
## OUTPUT of StarlightChains_v04.for    [Cid@UFSC - 01/Apr/2007] ##
###################################################################

## Some input info
NGC6569_a_1.cxt                          [arq_obs]
Base.BC03.N                              [arq_base]
NGC6569_a_1.msk                          [arq_masks]
StCv04.C11.config                        [arq_config]
   45                                    [N_base]
    0                                    [N_YAV_components = # of components with extra extinction!]
    0                                    [i_FitPowerLaw (1/0 = Yes/No)]
-9.99                                    [alpha_PowerLaw]
CCM                                      [red_law_option]
 1.458241                                [q_norm = A(l_norm)/A(V)]

## (Re)Sampling Parameters
 3359.00                                 [l_ini (A)]
 6428.00                                 [l_fin (A)]
    1.00                                 [dl    (A)]     (OBS: dl_cushion =    50.00 A)

## Normalization info
 4020.00                                 [l_norm (A) - for base]
 4010.00                                 [llow_norm (A) - window for f_obs]
 4060.00                                 [lupp_norm (A) - window for f_obs]
3.450800E-15                             [fobs_norm (in input units)]

## S/N
 4730.00                                 [llow_SN (A) - window for S/N]
 4780.00                                 [lupp_SN (A) - window for S/N]
  49.160                                 [S/N in S/N window]
  30.918                                 [S/N in norm. window]
 207.538                                 [S/N_err in S/N window]
 130.528                                 [S/N_err in norm. window]
  1.0000                                 [fscale_chi2]

## etc...
  2147483598                             [idum_orig]
  3069                                   [NOl_eff]
   697                                   [Nl_eff]
  2372    NSIGMA                         [Ntot_cliped & clip_method]
  1286460                                [Nglobal_steps]
   7                                     [N_chains]
  12                                     [NEX0s_base = N_base in EX0s-fits]
 0   0   1       50   2.0   3.259E+02    [Clip-Bug, RC-Crash & Burn-In warning-flags, n_censored_weights, wei_nsig_threshold & wei_limit]
    14     13.820     13.820      0.000  [idt_all, wdt_TotTime, wdt_UsrTime & wdt_SysTime (sec)]

## Synthesis Results - Best model ##

 2.80315E+00                             [chi2/Nl_eff]
     1.56781                             [adev (%)]

    98.49367                             [sum-of-x (%)]
 4.38586E-14                             [Flux_tot (units of input spectrum!)]
 9.03311E-10                             [Mini_tot (???)]
 4.64492E-10                             [Mcor_tot (???)]

 -13.02                                  [v0_min  (km/s)]
  24.76                                  [vd_min  (km/s)]
 1.9042                                  [AV_min  (mag)]
 0.0000                                  [YAV_min (mag)]

# j     x_j(%)      Mini_j(%)     Mcor_j(%)     age_j(yr)     Z_j      (L/M)_j    YAV?  Mstars   component_j        a/Fe...       SSP_chi2r SSP_adev(%)   SSP_AV   SSP_x(%)
  1      0.0000     0.0000E+00    0.0000E+00    1.000000E+06  0.00400  1.114E-02    0   1.0000   age020_m42            0.0000     3.5126E+03    32.5240   4.0000   104.7399
  2      6.7254     8.1398E-03    1.5828E-02    3.160000E+06  0.00400  4.073E-02    0   0.9999   age045_m42            0.0000     3.4664E+02     9.7526   4.0000   101.2555
  3      1.6710     3.2507E-03    5.9980E-03    5.010000E+06  0.00400  2.534E-02    0   0.9488   age055_m42            0.0000     1.1397E+03    19.3209   4.0000   104.2021
  4     16.3032     6.3232E-02    1.0898E-01    1.000000E+07  0.00400  1.271E-02    0   0.8862   age070_m42            0.0000     1.7344E+02     8.1713   3.8507    92.3573
  5      2.2612     2.1986E-02    3.4949E-02    2.512000E+07  0.00400  5.070E-03    0   0.8174   age090_m42            0.0000     1.4986E+02     7.5424   3.7250    93.9388
  6      0.0000     0.0000E+00    0.0000E+00    4.000000E+07  0.00400  3.505E-03    0   0.7851   age104_m42            0.0000     1.0519E+02     5.9126   3.4368    96.3417
  7      0.0000     0.0000E+00    0.0000E+00    1.015200E+08  0.00400  2.268E-03    0   0.7207   age116_m42            0.0000     4.7990E+02    11.0689   3.5647   101.4725
  8      0.0000     0.0000E+00    0.0000E+00    2.861200E+08  0.00400  1.079E-03    0   0.6613   age125_m42            0.0000     5.2207E+02    11.8644   3.0824   103.0666
  9      0.0000     0.0000E+00    0.0000E+00    6.405400E+08  0.00400  5.077E-04    0   0.6197   age132_m42            0.0000     5.4883E+02    12.5448   2.7214   106.9392
 10      0.0000     0.0000E+00    0.0000E+00    9.047900E+08  0.00400  3.535E-04    0   0.6024   age135_m42            0.0000     3.9565E+02    10.8269   2.4716   106.6995
 11      0.0000     0.0000E+00    0.0000E+00    1.434000E+09  0.00400  1.910E-04    0   0.5716   age139_m42            0.0000     2.3284E+02     8.6633   1.9431   106.1472
 12      7.6135     3.8227E+00    4.0612E+00    2.500000E+09  0.00400  9.818E-05    0   0.5463   age150_m42            0.0000     1.1664E+02     6.4839   1.6453   102.5192
 13     48.6405     5.0822E+01    5.1671E+01    5.000000E+09  0.00400  4.718E-05    0   0.5228   age161_m42            0.0000     8.0712E+01     5.5525   1.4575   100.0542
 14      8.0416     1.7978E+01    1.7411E+01    1.100000E+10  0.00400  2.205E-05    0   0.4980   age185_m42            0.0000     1.3861E+02     6.8069   1.1930    98.4096
 15      1.1271     2.9506E+00    2.8272E+00    1.300000E+10  0.00400  1.883E-05    0   0.4927   age193_m42            0.0000     1.4779E+02     6.9981   1.1743    98.3649
 16      0.0000     0.0000E+00    0.0000E+00    1.000000E+06  0.02000  1.989E-02    0   1.0000   age020_m62            0.0000     3.3108E+03    31.5800   4.0000   105.1819
 17      0.0000     0.0000E+00    0.0000E+00    3.160000E+06  0.02000  3.772E-02    0   0.9858   age045_m62            0.0000     2.6111E+03    28.7185   4.0000   105.8879
 18      2.7286     4.1682E-03    7.5726E-03    5.010000E+06  0.02000  3.227E-02    0   0.9342   age055_m62            0.0000     7.8105E+02    15.8096   4.0000   104.2477
 19      0.0000     0.0000E+00    0.0000E+00    1.000000E+07  0.02000  1.011E-02    0   0.8751   age070_m62            0.0000     4.1483E+02    13.1873   3.7990    90.4966
 20      0.0000     0.0000E+00    0.0000E+00    2.512000E+07  0.02000  4.206E-03    0   0.8099   age090_m62            0.0000     2.6934E+02    10.8756   3.7583    90.7247
 21      0.0000     0.0000E+00    0.0000E+00    4.000000E+07  0.02000  3.373E-03    0   0.7799   age104_m62            0.0000     1.5179E+02     6.2880   3.6565    97.3446
 22      0.0000     0.0000E+00    0.0000E+00    1.015200E+08  0.02000  1.878E-03    0   0.7221   age116_m62            0.0000     4.1593E+02    10.2559   3.5661   102.6718
 23      0.0000     0.0000E+00    0.0000E+00    2.861200E+08  0.02000  8.869E-04    0   0.6700   age125_m62            0.0000     7.7131E+02    14.4655   3.1190   107.3957
 24      0.0000     0.0000E+00    0.0000E+00    6.405400E+08  0.02000  3.657E-04    0   0.6322   age132_m62            0.0000     6.0168E+02    13.2370   2.4552   110.3120
 25      0.0000     0.0000E+00    0.0000E+00    9.047900E+08  0.02000  2.312E-04    0   0.6152   age135_m62            0.0000     4.0853E+02    11.0701   2.0687   110.0070
 26      0.0000     0.0000E+00    0.0000E+00    1.434000E+09  0.02000  1.168E-04    0   0.5865   age139_m62            0.0000     1.9792E+02     8.0038   1.6165   105.8951
 27      0.0000     0.0000E+00    0.0000E+00    2.500000E+09  0.02000  5.505E-05    0   0.5610   age150_m62            0.0000     2.0316E+02     8.2400   1.2365   103.7938
 28      0.0000     0.0000E+00    0.0000E+00    5.000000E+09  0.02000  2.596E-05    0   0.5353   age161_m62            0.0000     3.5527E+02    10.4506   0.9130   104.0115
 29      0.0000     0.0000E+00    0.0000E+00    1.100000E+10  0.02000  1.169E-05    0   0.5103   age185_m62            0.0000     5.7084E+02    12.8380   0.5623   105.5204
 30      1.2377     6.2960E+00    6.1796E+00    1.300000E+10  0.02000  9.691E-06    0   0.5047   age193_m62            0.0000     6.1099E+02    13.2327   0.5180   105.7894
 31      0.0000     0.0000E+00    0.0000E+00    1.000000E+06  0.05000  2.651E-02    0   0.9998   age020_m72            0.0000     3.3026E+03    31.2735   4.0000   106.3155
 32      0.0000     0.0000E+00    0.0000E+00    3.160000E+06  0.05000  4.817E-02    0   0.9577   age045_m72            0.0000     1.9639E+03    24.6477   4.0000   107.2719
 33      0.0000     0.0000E+00    0.0000E+00    5.010000E+06  0.05000  3.101E-02    0   0.9147   age055_m72            0.0000     7.7129E+02    16.8542   4.0000   102.6775
 34      0.0000     0.0000E+00    0.0000E+00    1.000000E+07  0.05000  8.954E-03    0   0.8524   age070_m72            0.0000     1.4224E+03    21.6599   4.0000   106.3654
 35      0.0000     0.0000E+00    0.0000E+00    2.512000E+07  0.05000  4.207E-03    0   0.7902   age090_m72            0.0000     3.8733E+02    11.4226   4.0000   102.3754
 36      0.0000     0.0000E+00    0.0000E+00    4.000000E+07  0.05000  3.198E-03    0   0.7618   age104_m72            0.0000     2.8675E+02     8.1473   3.9054    99.2767
 37      0.0000     0.0000E+00    0.0000E+00    1.015200E+08  0.05000  1.716E-03    0   0.7092   age116_m72            0.0000     4.8763E+02    11.0730   3.6612   102.5041
 38      0.0000     0.0000E+00    0.0000E+00    2.861200E+08  0.05000  7.047E-04    0   0.6618   age125_m72            0.0000     7.5278E+02    14.4301   2.9284   107.5684
 39      0.0000     0.0000E+00    0.0000E+00    6.405400E+08  0.05000  2.633E-04    0   0.6253   age132_m72            0.0000     4.9726E+02    12.1990   2.0916   109.7712
 40      0.0000     0.0000E+00    0.0000E+00    9.047900E+08  0.05000  1.484E-04    0   0.6088   age135_m72            0.0000     3.0589E+02    10.1173   1.5868   105.9227
 41      0.0000     0.0000E+00    0.0000E+00    1.434000E+09  0.05000  7.827E-05    0   0.5847   age139_m72            0.0000     3.0318E+02    10.1178   1.1817   103.3865
 42      0.0000     0.0000E+00    0.0000E+00    2.500000E+09  0.05000  3.759E-05    0   0.5583   age150_m72            0.0000     3.9702E+02    11.1089   0.8477   103.3712
 43      0.0000     0.0000E+00    0.0000E+00    5.000000E+09  0.05000  1.548E-05    0   0.5320   age161_m72            0.0000     5.8350E+02    12.7132   0.4393   103.5015
 44      1.0717     8.0880E+00    7.9746E+00    1.100000E+10  0.05000  6.532E-06    0   0.5070   age185_m72            0.0000     8.7442E+02    15.3230   0.0916   102.9985
 45      1.0721     9.9420E+00    9.7020E+00    1.300000E+10  0.05000  5.316E-06    0   0.5018   age193_m72            0.0000     1.0020E+03    16.4351  -0.0116   102.8262


## Synthesis Results - Average & Chains ##

# j      x_j: min, <> & last-chain-values for 1 ...  7 chains
  1      0.0000      0.0227      0.0000      0.0000      0.0000      0.0000      0.0000      0.0618      0.0000
  2      6.7254      6.3162      6.4032      6.2403      6.4108      6.4867      6.4799      6.6190      6.5005
  3      1.6710      1.4141      1.3838      1.3547      1.3921      1.4100      1.5111      1.3276      1.5123
  4     16.3032     15.7056     15.7814     15.8230     15.7999     15.6881     15.9751     15.5578     15.6750
  5      2.2612      2.2188      2.2052      2.2906      2.1814      2.1480      2.2304      2.2440      2.1189
  6      0.0000      0.0306      0.0013      0.0000      0.0000      0.0000      0.0000      0.0000      0.0915
  7      0.0000      0.0134      0.0000      0.0000      0.0741      0.0000      0.0000      0.0000      0.0186
  8      0.0000      0.0140      0.0000      0.0169      0.0000      0.0051      0.0000      0.0000      0.0000
  9      0.0000      0.0298      0.0000      0.0818      0.1375      0.0000      0.0000      0.0080      0.0176
 10      0.0000      0.0533      0.0122      0.0000      0.0428      0.2412      0.0000      0.0932      0.0000
 11      0.0000      0.0863      0.0769      0.0205      0.0000      0.0000      0.0536      0.0463      0.0000
 12      7.6135      8.4883      8.3757      8.5661      8.1371      8.3746      8.3206      8.4921      8.4744
 13     48.6405     46.4990     46.9848     46.7857     46.8082     46.6729     46.5625     47.0379     46.7482
 14      8.0416      8.4111      8.4953      8.1943      8.6376      7.9694      8.6035      8.1811      8.2964
 15      1.1271      1.4007      1.2481      1.3512      1.3403      1.3800      1.3583      1.4378      1.4246
 16      0.0000      0.0522      0.0000      0.0000      0.0000      0.2075      0.0000      0.1882      0.0000
 17      0.0000      0.1247      0.0000      0.1545      0.0201      0.1750      0.1924      0.0000      0.0096
 18      2.7286      2.6391      2.9265      2.7384      2.7039      2.5894      2.7000      2.6290      2.6842
 19      0.0000      0.5923      0.6174      0.6103      0.5728      0.7013      0.3949      0.4252      0.5592
 20      0.0000      0.0247      0.0000      0.1613      0.0000      0.0000      0.0000      0.0000      0.0000
 21      0.0000      0.0237      0.0000      0.0000      0.0000      0.0000      0.0000      0.0000      0.0000
 22      0.0000      0.0185      0.0000      0.0000      0.0000      0.0031      0.0000      0.0000      0.0000
 23      0.0000      0.0123      0.0000      0.0385      0.0000      0.0000      0.0000      0.0000      0.0000
 24      0.0000      0.0265      0.0000      0.0000      0.0000      0.0000      0.0093      0.0000      0.0000
 25      0.0000      0.0387      0.0000      0.0000      0.0000      0.0000      0.0000      0.0000      0.0531
 26      0.0000      0.1416      0.0000      0.0000      0.0000      0.3477      0.0270      0.1281      0.0000
 27      0.0000      0.1778      0.0000      0.3148      0.0383      0.0307      0.3571      0.2624      0.2155
 28      0.0000      0.0471      0.0000      0.0000      0.1215      0.1269      0.2689      0.0000      0.0930
 29      0.0000      0.0241      0.0000      0.0000      0.0000      0.0000      0.0000      0.0000      0.1709
 30      1.2377      1.0032      0.9807      0.9954      1.0914      1.0059      0.8594      0.9938      0.9383
 31      0.0000      0.0470      0.0000      0.0809      0.1779      0.0330      0.0000      0.1011      0.0622
 32      0.0000      0.0457      0.0000      0.0000      0.0000      0.0000      0.0000      0.0000      0.0668
 33      0.0000      0.0641      0.0000      0.0000      0.2390      0.0394      0.0024      0.2001      0.0000
 34      0.0000      0.0387      0.2073      0.0000      0.0000      0.0000      0.0000      0.0000      0.0000
 35      0.0000      0.0331      0.0000      0.0000      0.0040      0.0000      0.0000      0.0175      0.3454
 36      0.0000      0.0171      0.0000      0.0000      0.0000      0.0000      0.0471      0.0000      0.0000
 37      0.0000      0.0111      0.0000      0.0000      0.0000      0.0000      0.0000      0.0000      0.0160
 38      0.0000      0.0119      0.0000      0.0000      0.0000      0.0000      0.0000      0.0000      0.0000
 39      0.0000      0.0204      0.0000      0.1769      0.0000      0.0000      0.0000      0.0000      0.0000
 40      0.0000      0.0483      0.3485      0.0000      0.0000      0.0000      0.0364      0.0000      0.0000
 41      0.0000      0.0792      0.0000      0.0000      0.1603      0.1868      0.0762      0.0519      0.1507
 42      0.0000      0.0959      0.0952      0.2976      0.1280      0.3908      0.1575      0.0456      0.0000
 43      0.0000      0.0232      0.0000      0.0000      0.0000      0.0218      0.0229      0.0610      0.0000
 44      1.0717      1.1673      1.1954      1.1189      1.0816      1.1626      1.0866      1.1919      1.1533
 45      1.0721      1.2030      1.1810      1.1637      1.2386      1.1544      1.2060      1.1232      1.1366

# j      m_j: min, <> & last-chain-values for 1 ...  7 chains
  1  0.0000E+00  1.9299E-04  0.0000E+00  0.0000E+00  0.0000E+00  0.0000E+00  0.0000E+00  5.2852E-04  0.0000E+00
  2  1.5828E-02  1.4690E-02  1.4942E-02  1.4658E-02  1.4849E-02  1.5219E-02  1.5147E-02  1.5479E-02  1.5195E-02
  3  5.9980E-03  5.0164E-03  4.9251E-03  4.8532E-03  4.9179E-03  5.0458E-03  5.3875E-03  4.7354E-03  5.3916E-03
  4  1.0898E-01  1.0375E-01  1.0459E-01  1.0556E-01  1.0394E-01  1.0454E-01  1.0606E-01  1.0333E-01  1.0407E-01
  5  3.4949E-02  3.3890E-02  3.3795E-02  3.5335E-02  3.3182E-02  3.3097E-02  3.4240E-02  3.4464E-02  3.2527E-02
  6  0.0000E+00  6.5038E-04  2.6740E-05  0.0000E+00  0.0000E+00  0.0000E+00  0.0000E+00  0.0000E+00  1.9516E-03
  7  0.0000E+00  4.0308E-04  0.0000E+00  0.0000E+00  2.2217E-03  0.0000E+00  0.0000E+00  0.0000E+00  5.6407E-04
  8  0.0000E+00  8.1305E-04  0.0000E+00  9.9361E-04  0.0000E+00  2.9625E-04  0.0000E+00  0.0000E+00  0.0000E+00
  9  0.0000E+00  3.4445E-03  0.0000E+00  9.5481E-03  1.5831E-02  0.0000E+00  0.0000E+00  9.2451E-04  2.0426E-03
 10  0.0000E+00  8.6044E-03  1.9830E-03  0.0000E+00  6.8811E-03  3.9278E-02  0.0000E+00  1.5137E-02  0.0000E+00
 11  0.0000E+00  2.4476E-02  2.1868E-02  5.8812E-03  0.0000E+00  0.0000E+00  1.5283E-02  1.3186E-02  0.0000E+00
 12  4.0612E+00  4.4747E+00  4.4300E+00  4.5605E+00  4.2719E+00  4.4536E+00  4.4085E+00  4.5013E+00  4.4898E+00
 13  5.1671E+01  4.8815E+01  4.9489E+01  4.9604E+01  4.8937E+01  4.9429E+01  4.9129E+01  4.9652E+01  4.9324E+01
 14  1.7411E+01  1.7997E+01  1.8238E+01  1.7708E+01  1.8406E+01  1.7202E+01  1.8502E+01  1.7601E+01  1.7841E+01
 15  2.8272E+00  3.4723E+00  3.1041E+00  3.3827E+00  3.3088E+00  3.4511E+00  3.3842E+00  3.5839E+00  3.5492E+00
 16  0.0000E+00  2.4844E-04  0.0000E+00  0.0000E+00  0.0000E+00  9.9699E-04  0.0000E+00  9.0145E-04  0.0000E+00
 17  0.0000E+00  3.0878E-04  0.0000E+00  3.8646E-04  4.9481E-05  4.3699E-04  4.7892E-04  0.0000E+00  2.3969E-05
 18  7.5726E-03  7.2381E-03  8.0531E-03  7.5852E-03  7.3854E-03  7.1642E-03  7.4428E-03  7.2502E-03  7.3989E-03
 19  0.0000E+00  4.8574E-03  5.0794E-03  5.0547E-03  4.6780E-03  5.8012E-03  3.2551E-03  3.5058E-03  4.6086E-03
 20  0.0000E+00  4.5087E-04  0.0000E+00  2.9722E-03  0.0000E+00  0.0000E+00  0.0000E+00  0.0000E+00  0.0000E+00
 21  0.0000E+00  5.1880E-04  0.0000E+00  0.0000E+00  0.0000E+00  0.0000E+00  0.0000E+00  0.0000E+00  0.0000E+00
 22  0.0000E+00  6.7256E-04  0.0000E+00  0.0000E+00  0.0000E+00  1.1474E-04  0.0000E+00  0.0000E+00  0.0000E+00
 23  0.0000E+00  8.8283E-04  0.0000E+00  2.7812E-03  0.0000E+00  0.0000E+00  0.0000E+00  0.0000E+00  0.0000E+00
 24  0.0000E+00  4.3475E-03  0.0000E+00  0.0000E+00  0.0000E+00  0.0000E+00  1.5256E-03  0.0000E+00  0.0000E+00
 25  0.0000E+00  9.7647E-03  0.0000E+00  0.0000E+00  0.0000E+00  0.0000E+00  0.0000E+00  0.0000E+00  1.3451E-02
 26  0.0000E+00  6.7352E-02  0.0000E+00  0.0000E+00  0.0000E+00  1.6686E-01  1.2894E-02  6.1258E-02  0.0000E+00
 27  0.0000E+00  1.7166E-01  0.0000E+00  3.0697E-01  3.6850E-02  2.9914E-02  3.4654E-01  2.5478E-01  2.0911E-01
 28  0.0000E+00  9.1966E-02  0.0000E+00  0.0000E+00  2.3641E-01  2.5009E-01  5.2795E-01  0.0000E+00  1.8264E-01
 29  0.0000E+00  9.9627E-02  0.0000E+00  0.0000E+00  0.0000E+00  0.0000E+00  0.0000E+00  0.0000E+00  7.1014E-01
 30  6.1796E+00  4.9497E+00  4.8547E+00  4.9601E+00  5.3630E+00  5.0068E+00  4.2619E+00  4.9305E+00  4.6530E+00
 31  0.0000E+00  1.6793E-04  0.0000E+00  2.9210E-04  6.3299E-04  1.1909E-04  0.0000E+00  3.6340E-04  2.2319E-04
 32  0.0000E+00  8.6029E-05  0.0000E+00  0.0000E+00  0.0000E+00  0.0000E+00  0.0000E+00  0.0000E+00  1.2642E-04
 33  0.0000E+00  1.7902E-04  0.0000E+00  0.0000E+00  6.6524E-04  1.1117E-04  6.6329E-06  5.6232E-04  0.0000E+00
