###################################################################
## OUTPUT of StarlightChains_v04.for    [Cid@UFSC - 01/Apr/2007] ##
###################################################################

## Some input info
NGC6235_a_1.cxt                          [arq_obs]
Base.BC03.N                              [arq_base]
NGC6235_a_1.msk                          [arq_masks]
StCv04.C11.config                        [arq_config]
   45                                    [N_base]
    0                                    [N_YAV_components = # of components with extra extinction!]
    0                                    [i_FitPowerLaw (1/0 = Yes/No)]
-9.99                                    [alpha_PowerLaw]
CCM                                      [red_law_option]
 1.458241                                [q_norm = A(l_norm)/A(V)]

## (Re)Sampling Parameters
 3359.00                                 [l_ini (A)]
 6428.00                                 [l_fin (A)]
    1.00                                 [dl    (A)]     (OBS: dl_cushion =    50.00 A)

## Normalization info
 4020.00                                 [l_norm (A) - for base]
 4010.00                                 [llow_norm (A) - window for f_obs]
 4060.00                                 [lupp_norm (A) - window for f_obs]
2.685576E-15                             [fobs_norm (in input units)]

## S/N
 4730.00                                 [llow_SN (A) - window for S/N]
 4780.00                                 [lupp_SN (A) - window for S/N]
  64.240                                 [S/N in S/N window]
  49.525                                 [S/N in norm. window]
 131.570                                 [S/N_err in S/N window]
 101.432                                 [S/N_err in norm. window]
  1.0000                                 [fscale_chi2]

## etc...
  2147483624                             [idum_orig]
  3066                                   [NOl_eff]
  1476                                   [Nl_eff]
  1590    NSIGMA                         [Ntot_cliped & clip_method]
  1021020                                [Nglobal_steps]
   7                                     [N_chains]
  12                                     [NEX0s_base = N_base in EX0s-fits]
 0   0   1      144   2.0   2.368E+02    [Clip-Bug, RC-Crash & Burn-In warning-flags, n_censored_weights, wei_nsig_threshold & wei_limit]
    11     11.640     11.628      0.012  [idt_all, wdt_TotTime, wdt_UsrTime & wdt_SysTime (sec)]

## Synthesis Results - Best model ##

 2.46350E+00                             [chi2/Nl_eff]
     1.59175                             [adev (%)]

    99.38868                             [sum-of-x (%)]
 1.56414E-14                             [Flux_tot (units of input spectrum!)]
 1.56574E-10                             [Mini_tot (???)]
 8.37504E-11                             [Mcor_tot (???)]

  -9.54                                  [v0_min  (km/s)]
 129.57                                  [vd_min  (km/s)]
 1.3165                                  [AV_min  (mag)]
 0.0000                                  [YAV_min (mag)]

# j     x_j(%)      Mini_j(%)     Mcor_j(%)     age_j(yr)     Z_j      (L/M)_j    YAV?  Mstars   component_j        a/Fe...       SSP_chi2r SSP_adev(%)   SSP_AV   SSP_x(%)
  1      0.0000     0.0000E+00    0.0000E+00    1.000000E+06  0.00400  1.114E-02    0   1.0000   age020_m42            0.0000     2.5507E+02    12.5383   4.0000    89.0020
  2      4.6182     1.1397E-02    2.1304E-02    3.160000E+06  0.00400  4.073E-02    0   0.9999   age045_m42            0.0000     4.5417E+01     5.6028   3.4893    91.0360
  3      0.0000     0.0000E+00    0.0000E+00    5.010000E+06  0.00400  2.534E-02    0   0.9488   age055_m42            0.0000     8.9753E+01     7.8315   3.8351    86.4751
  4      8.4480     6.6808E-02    1.1069E-01    1.000000E+07  0.00400  1.271E-02    0   0.8862   age070_m42            0.0000     8.1216E+01     7.6327   3.0510    90.7664
  5      0.6140     1.2173E-02    1.8602E-02    2.512000E+07  0.00400  5.070E-03    0   0.8174   age090_m42            0.0000     6.9756E+01     7.1535   2.9320    92.0625
  6      0.0000     0.0000E+00    0.0000E+00    4.000000E+07  0.00400  3.505E-03    0   0.7851   age104_m42            0.0000     4.3151E+01     5.7048   2.6511    93.9943
  7      8.3129     3.6841E-01    4.9638E-01    1.015200E+08  0.00400  2.268E-03    0   0.7207   age116_m42            0.0000     5.5124E+01     4.3665   2.7895    98.5392
  8      0.0000     0.0000E+00    0.0000E+00    2.861200E+08  0.00400  1.079E-03    0   0.6613   age125_m42            0.0000     6.0687E+01     4.6511   2.3140    99.8439
  9      7.9810     1.5800E+00    1.8306E+00    6.405400E+08  0.00400  5.077E-04    0   0.6197   age132_m42            0.0000     6.5971E+01     5.1159   1.9563   103.6682
 10     16.1548     4.5934E+00    5.1731E+00    9.047900E+08  0.00400  3.535E-04    0   0.6024   age135_m42            0.0000     3.9961E+01     4.0802   1.7028   103.4602
 11      0.0000     0.0000E+00    0.0000E+00    1.434000E+09  0.00400  1.910E-04    0   0.5716   age139_m42            0.0000     1.8884E+01     3.0865   1.1729   102.4744
 12     20.8080     2.1302E+01    2.1757E+01    2.500000E+09  0.00400  9.818E-05    0   0.5463   age150_m42            0.0000     1.6736E+01     2.9514   0.8672    99.0053
 13     29.7451     6.3369E+01    6.1937E+01    5.000000E+09  0.00400  4.718E-05    0   0.5228   age161_m42            0.0000     2.6054E+01     3.4418   0.6743    96.6381
 14      0.0000     0.0000E+00    0.0000E+00    1.100000E+10  0.00400  2.205E-05    0   0.4980   age185_m42            0.0000     5.8981E+01     4.7914   0.4126    94.6386
 15      0.0000     0.0000E+00    0.0000E+00    1.300000E+10  0.00400  1.883E-05    0   0.4927   age193_m42            0.0000     6.3930E+01     4.9811   0.3932    94.5615
 16      0.0000     0.0000E+00    0.0000E+00    1.000000E+06  0.02000  1.989E-02    0   1.0000   age020_m62            0.0000     2.3126E+02    11.8798   4.0000    88.8850
 17      0.0000     0.0000E+00    0.0000E+00    3.160000E+06  0.02000  3.772E-02    0   0.9858   age045_m62            0.0000     1.6959E+02    10.3578   4.0000    87.6067
 18      0.8003     2.4927E-03    4.3535E-03    5.010000E+06  0.02000  3.227E-02    0   0.9342   age055_m62            0.0000     6.6818E+01     6.8116   3.7177    88.7857
 19      0.4484     4.4582E-03    7.2938E-03    1.000000E+07  0.02000  1.011E-02    0   0.8751   age070_m62            0.0000     1.9236E+02    11.5887   3.0079    89.1496
 20      0.0000     0.0000E+00    0.0000E+00    2.512000E+07  0.02000  4.206E-03    0   0.8099   age090_m62            0.0000     1.3809E+02     9.8651   2.9764    88.9238
 21      0.0000     0.0000E+00    0.0000E+00    4.000000E+07  0.02000  3.373E-03    0   0.7799   age104_m62            0.0000     4.3604E+01     5.4057   2.8832    94.7752
 22      0.0000     0.0000E+00    0.0000E+00    1.015200E+08  0.02000  1.878E-03    0   0.7221   age116_m62            0.0000     4.9373E+01     4.0608   2.7996    99.4985
 23      0.0000     0.0000E+00    0.0000E+00    2.861200E+08  0.02000  8.869E-04    0   0.6700   age125_m62            0.0000     1.0612E+02     6.1270   2.3555   103.7562
 24      0.0000     0.0000E+00    0.0000E+00    6.405400E+08  0.02000  3.657E-04    0   0.6322   age132_m62            0.0000     7.5982E+01     5.6873   1.6969   106.2663
 25      0.0000     0.0000E+00    0.0000E+00    9.047900E+08  0.02000  2.312E-04    0   0.6152   age135_m62            0.0000     4.7674E+01     4.7698   1.3076   105.9337
 26      0.0000     0.0000E+00    0.0000E+00    1.434000E+09  0.02000  1.168E-04    0   0.5865   age139_m62            0.0000     2.9868E+01     3.8973   0.8477   101.7811
 27      0.0000     0.0000E+00    0.0000E+00    2.500000E+09  0.02000  5.505E-05    0   0.5610   age150_m62            0.0000     5.5543E+01     4.9693   0.4644    99.4694
 28      0.0000     0.0000E+00    0.0000E+00    5.000000E+09  0.02000  2.596E-05    0   0.5353   age161_m62            0.0000     1.1303E+02     6.6825   0.1477    99.0310
 29      0.0000     0.0000E+00    0.0000E+00    1.100000E+10  0.02000  1.169E-05    0   0.5103   age185_m62            0.0000     1.8408E+02     8.3187  -0.1928    99.6169
 30      0.0000     0.0000E+00    0.0000E+00    1.300000E+10  0.02000  9.691E-06    0   0.5047   age193_m62            0.0000     1.9776E+02     8.5851  -0.2353    99.7133
 31      0.0000     0.0000E+00    0.0000E+00    1.000000E+06  0.05000  2.651E-02    0   0.9998   age020_m72            0.0000     2.2781E+02    11.8029   4.0000    89.8683
 32      0.0000     0.0000E+00    0.0000E+00    3.160000E+06  0.05000  4.817E-02    0   0.9577   age045_m72            0.0000     1.1666E+02     8.8311   4.0000    86.9754
 33      0.0000     0.0000E+00    0.0000E+00    5.010000E+06  0.05000  3.101E-02    0   0.9147   age055_m72            0.0000     1.0436E+02     8.3261   3.6938    88.1611
 34      0.0000     0.0000E+00    0.0000E+00    1.000000E+07  0.05000  8.954E-03    0   0.8524   age070_m72            0.0000     1.0802E+02     8.3998   3.9306    86.6696
 35      0.0000     0.0000E+00    0.0000E+00    2.512000E+07  0.05000  4.207E-03    0   0.7902   age090_m72            0.0000     5.7103E+01     6.2290   3.5492    90.8898
 36      0.0000     0.0000E+00    0.0000E+00    4.000000E+07  0.05000  3.198E-03    0   0.7618   age104_m72            0.0000     3.6964E+01     3.8031   3.1379    96.2451
 37      0.1208     7.0773E-03    9.3836E-03    1.015200E+08  0.05000  1.716E-03    0   0.7092   age116_m72            0.0000     6.1586E+01     4.5426   2.8936    99.3116
 38      0.0000     0.0000E+00    0.0000E+00    2.861200E+08  0.05000  7.047E-04    0   0.6618   age125_m72            0.0000     1.0236E+02     6.1901   2.1633   103.7965
 39      0.0000     0.0000E+00    0.0000E+00    6.405400E+08  0.05000  2.633E-04    0   0.6253   age132_m72            0.0000     6.3285E+01     5.4161   1.3232   105.6458
 40      0.0000     0.0000E+00    0.0000E+00    9.047900E+08  0.05000  1.484E-04    0   0.6088   age135_m72            0.0000     4.9637E+01     4.9312   0.8133   101.7153
 41      0.0000     0.0000E+00    0.0000E+00    1.434000E+09  0.05000  7.827E-05    0   0.5847   age139_m72            0.0000     8.1024E+01     5.8940   0.4066    98.9695
 42      0.0000     0.0000E+00    0.0000E+00    2.500000E+09  0.05000  3.759E-05    0   0.5583   age150_m72            0.0000     1.2509E+02     7.0241   0.0770    98.4820
 43      1.3371     8.6821E+00    8.6352E+00    5.000000E+09  0.05000  1.548E-05    0   0.5320   age161_m72            0.0000     1.9311E+02     8.4052  -0.3262    97.8195
 44      0.0000     0.0000E+00    0.0000E+00    1.100000E+10  0.05000  6.532E-06    0   0.5070   age185_m72            0.0000     2.8256E+02    10.1862  -0.6563    96.1893
 45      0.0000     0.0000E+00    0.0000E+00    1.300000E+10  0.05000  5.316E-06    0   0.5018   age193_m72            0.0000     3.1982E+02    10.9240  -0.7515    95.5820


## Synthesis Results - Average & Chains ##

# j      x_j: min, <> & last-chain-values for 1 ...  7 chains
  1      0.0000      0.0188      0.0627      0.0112      0.0000      0.0000      0.0000      0.0160      0.0000
  2      4.6182      4.3258      4.3652      4.3651      4.3812      4.4089      4.1457      4.2555      4.3539
  3      0.0000      0.1158      0.2122      0.0000      0.1484      0.1407      0.1132      0.2471      0.2343
  4      8.4480      7.7878      7.8864      7.8473      7.9309      7.9308      7.8958      7.8780      7.8642
  5      0.6140      0.3862      0.3851      0.5194      0.5286      0.3883      0.6663      0.4995      0.2299
  6      0.0000      0.0780      0.0000      0.0387      0.0000      0.1109      0.0913      0.2341      0.0317
  7      8.3129      8.4198      8.6182      8.5295      8.3822      8.2397      8.4711      8.4345      8.7516
  8      0.0000      0.0837      0.0344      0.3568      0.0000      0.0000      0.0479      0.2434      0.0000
  9      7.9810      7.4551      7.6787      7.4398      7.4263      7.6316      7.6558      7.6020      7.5761
 10     16.1548     15.0633     15.6403     15.2107     15.6876     15.7323     15.3188     15.3641     15.5638
 11      0.0000      0.3148      0.0000      0.0000      0.0000      0.0131      0.0000      0.0000      0.0000
 12     20.8080     21.3596     21.2118     21.3380     21.2329     21.4053     21.0040     21.3091     20.8972
 13     29.7451     30.1979     29.9530     30.1151     30.3258     29.5804     30.3283     29.9805     30.1448
 14      0.0000      0.0508      0.0596      0.0000      0.0025      0.0488      0.0000      0.0000      0.1165
 15      0.0000      0.0314      0.0763      0.0000      0.1593      0.0000      0.0000      0.0000      0.0000
 16      0.0000      0.0201      0.0000      0.0000      0.0744      0.0000      0.0000      0.0000      0.0000
 17      0.0000      0.0170      0.0000      0.1232      0.0235      0.0000      0.0000      0.0000      0.1107
 18      0.8003      0.6380      0.5267      0.4229      0.6484      0.8007      0.6897      0.7480      0.7043
 19      0.4484      0.3030      0.2968      0.2215      0.0000      0.2916      0.3461      0.3890      0.3906
 20      0.0000      0.0536      0.1167      0.1326      0.0000      0.1792      0.0000      0.0000      0.0000
 21      0.0000      0.1088      0.0000      0.1201      0.1070      0.2021      0.3016      0.0752      0.0000
 22      0.0000      0.1619      0.0000      0.1441      0.1244      0.0535      0.1516      0.1287      0.2527
 23      0.0000      0.0594      0.0000      0.0000      0.0510      0.0000      0.0000      0.0000      0.2422
 24      0.0000      0.0311      0.0000      0.0000      0.0000      0.0000      0.0428      0.0000      0.0000
 25      0.0000      0.0276      0.0000      0.0000      0.0000      0.0000      0.0000      0.0606      0.0000
 26      0.0000      0.0346      0.1017      0.0000      0.0000      0.0000      0.0000      0.0000      0.0000
 27      0.0000      0.0226      0.0000      0.0020      0.0000      0.0824      0.0150      0.0000      0.0000
 28      0.0000      0.0222      0.0439      0.0000      0.0000      0.0040      0.0020      0.0000      0.0000
 29      0.0000      0.1327      0.1977      0.1164      0.0301      0.1946      0.0000      0.0443      0.0027
 30      0.0000      0.2898      0.3248      0.2549      0.2084      0.2418      0.2763      0.3337      0.3320
 31      0.0000      0.0141      0.0900      0.0000      0.0000      0.0089      0.0149      0.0000      0.0296
 32      0.0000      0.1182      0.1238      0.2269      0.1758      0.0299      0.1160      0.0000      0.1250
 33      0.0000      0.0566      0.0000      0.1353      0.0000      0.0000      0.0000      0.0651      0.0460
 34      0.0000      0.0186      0.0000      0.0000      0.1242      0.0000      0.0000      0.0000      0.0608
 35      0.0000      0.0322      0.0000      0.0000      0.0164      0.0000      0.0147      0.0000      0.0000
 36      0.0000      0.0640      0.1632      0.0000      0.0000      0.0000      0.1300      0.0000      0.0000
 37      0.1208      0.3131      0.2858      0.3695      0.3961      0.4469      0.4032      0.3799      0.1436
 38      0.0000      0.0276      0.0000      0.1676      0.0000      0.0000      0.0000      0.0000      0.0000
 39      0.0000      0.0239      0.0000      0.0000      0.0000      0.0408      0.0094      0.0531      0.0000
 40      0.0000      0.0298      0.0000      0.0000      0.0000      0.0000      0.0000      0.0000      0.0000
 41      0.0000      0.0183      0.0000      0.0000      0.0000      0.0000      0.0000      0.0000      0.0000
 42      0.0000      0.0295      0.0000      0.0000      0.0000      0.0000      0.0090      0.1079      0.0000
 43      1.3371      0.4929      0.3805      0.4795      0.5135      0.5126      0.5297      0.3675      0.4106
 44      0.0000      0.3366      0.3485      0.4632      0.4795      0.3847      0.3371      0.4765      0.4425
 45      0.0000      0.2628      0.2540      0.2469      0.2828      0.3761      0.2892      0.1711      0.4051

# j      m_j: min, <> & last-chain-values for 1 ...  7 chains
  1  0.0000E+00  2.8847E-04  9.6296E-04  1.7233E-04  0.0000E+00  0.0000E+00  0.0000E+00  2.4869E-04  0.0000E+00
  2  2.1304E-02  1.8138E-02  1.8347E-02  1.8297E-02  1.8179E-02  1.8254E-02  1.7585E-02  1.8102E-02  1.7913E-02
  3  0.0000E+00  7.4041E-04  1.3605E-03  0.0000E+00  9.3942E-04  8.8836E-04  7.3233E-04  1.6031E-03  1.4700E-03
  4  1.1069E-01  9.2743E-02  9.4143E-02  9.3419E-02  9.3463E-02  9.3259E-02  9.5124E-02  9.5178E-02  9.1892E-02
  5  1.8602E-02  1.0635E-02  1.0631E-02  1.4297E-02  1.4404E-02  1.0558E-02  1.8562E-02  1.3955E-02  6.2109E-03
  6  0.0000E+00  2.9855E-03  0.0000E+00  1.4813E-03  0.0000E+00  4.1886E-03  3.5340E-03  9.0877E-03  1.1896E-03
  7  4.9638E-01  4.5697E-01  4.6887E-01  4.6277E-01  4.5019E-01  4.4158E-01  4.6511E-01  4.6441E-01  4.6605E-01
  8  0.0000E+00  8.7567E-03  3.6095E-03  3.7335E-02  0.0000E+00  0.0000E+00  5.0738E-03  2.5849E-02  0.0000E+00
  9  1.8306E+00  1.5542E+00  1.6047E+00  1.5505E+00  1.5321E+00  1.5710E+00  1.6146E+00  1.6078E+00  1.5497E+00
 10  5.1731E+00  4.3842E+00  4.5631E+00  4.4257E+00  4.5184E+00  4.5214E+00  4.5105E+00  4.5367E+00  4.4448E+00
 11  0.0000E+00  1.6092E-01  0.0000E+00  0.0000E+00  0.0000E+00  6.6240E-03  0.0000E+00  0.0000E+00  0.0000E+00
 12  2.1757E+01  2.0299E+01  2.0207E+01  2.0272E+01  1.9969E+01  2.0087E+01  2.0194E+01  2.0545E+01  1.9486E+01
 13  6.1937E+01  5.7152E+01  5.6825E+01  5.6976E+01  5.6796E+01  5.5280E+01  5.8067E+01  5.7564E+01  5.5979E+01
 14  0.0000E+00  1.9612E-01  2.3060E-01  0.0000E+00  9.4607E-03  1.8607E-01  0.0000E+00  0.0000E+00  4.4109E-01
 15  0.0000E+00  1.4015E-01  3.4160E-01  0.0000E+00  7.0447E-01  0.0000E+00  0.0000E+00  0.0000E+00  0.0000E+00
 16  0.0000E+00  1.7282E-04  0.0000E+00  0.0000E+00  6.3189E-04  0.0000E+00  0.0000E+00  0.0000E+00  0.0000E+00
 17  0.0000E+00  7.5686E-05  0.0000E+00  5.4985E-04  1.0367E-04  0.0000E+00  0.0000E+00  0.0000E+00  4.8463E-04
 18  4.3535E-03  3.1548E-03  2.6107E-03  2.0903E-03  3.1725E-03  3.9093E-03  3.4499E-03  3.7520E-03  3.4171E-03
 19  7.2938E-03  4.4789E-03  4.3979E-03  3.2729E-03  0.0000E+00  4.2567E-03  5.1765E-03  5.8338E-03  5.6666E-03
 20  0.0000E+00  1.7613E-03  3.8466E-03  4.3596E-03  0.0000E+00  5.8191E-03  0.0000E+00  0.0000E+00  0.0000E+00
 21  0.0000E+00  4.2968E-03  0.0000E+00  4.7430E-03  4.1814E-03  7.8810E-03  1.2049E-02  3.0147E-03  0.0000E+00
 22  0.0000E+00  1.0629E-02  0.0000E+00  9.4585E-03  8.0852E-03  3.4692E-03  1.0073E-02  8.5760E-03  1.6281E-02
 23  0.0000E+00  7.6698E-03  0.0000E+00  0.0000E+00  6.5113E-03  0.0000E+00  0.0000E+00  0.0000E+00  3.0668E-02
 24  0.0000E+00  9.1722E-03  0.0000E+00  0.0000E+00  0.0000E+00  0.0000E+00  1.2789E-02  0.0000E+00  0.0000E+00
 25  0.0000E+00  1.2534E-02  0.0000E+00  0.0000E+00  0.0000E+00  0.0000E+00  0.0000E+00  2.7939E-02  0.0000E+00
 26  0.0000E+00  2.9702E-02  8.7429E-02  0.0000E+00  0.0000E+00  4.0659E-05  0.0000E+00  0.0000E+00  0.0000E+00
 27  0.0000E+00  3.9409E-02  0.0000E+00  3.4421E-03  0.0000E+00  1.4166E-01  2.6420E-02  0.0000E+00  0.0000E+00
 28  0.0000E+00  7.8015E-02  1.5511E-01  0.0000E+00  0.0000E+00  1.4062E-02  7.2131E-03  0.0000E+00  0.0000E+00
 29  0.0000E+00  9.8906E-01  1.4775E+00  8.6779E-01  2.2194E-01  1.4328E+00  0.0000E+00  3.3516E-01  1.9845E-02
 30  0.0000E+00  2.5782E+00  2.8962E+00  2.2669E+00  1.8340E+00  2.1233E+00  2.4863E+00  3.0117E+00  2.8978E+00
 31  0.0000E+00  9.0870E-05  5.8125E-04  0.0000E+00  0.0000E+00  5.6313E-05  9.6855E-05  0.0000E+00  1.8698E-04
 32  0.0000E+00  4.0148E-04  4.2126E-04  7.7020E-04  5.9069E-04  1.0038E-04  3.9851E-04  0.0000E+00  4.1648E-04
 33  0.0000E+00  2.8538E-04  0.0000E+00  6.8161E-04  0.0000E+00  0.0000E+00  0.0000E+00  3.3258E-04  2.2742E-04
