###################################################################
## OUTPUT of StarlightChains_v04.for    [Cid@UFSC - 01/Apr/2007] ##
###################################################################

## Some input info
NGC6528_a_2.cxt                          [arq_obs]
Base.BC03.N                              [arq_base]
NGC6528_a_2.msk                          [arq_masks]
StCv04.C11.config                        [arq_config]
   45                                    [N_base]
    0                                    [N_YAV_components = # of components with extra extinction!]
    0                                    [i_FitPowerLaw (1/0 = Yes/No)]
-9.99                                    [alpha_PowerLaw]
CCM                                      [red_law_option]
 1.458241                                [q_norm = A(l_norm)/A(V)]

## (Re)Sampling Parameters
 3359.00                                 [l_ini (A)]
 6428.00                                 [l_fin (A)]
    1.00                                 [dl    (A)]     (OBS: dl_cushion =    50.00 A)

## Normalization info
 4020.00                                 [l_norm (A) - for base]
 4010.00                                 [llow_norm (A) - window for f_obs]
 4060.00                                 [lupp_norm (A) - window for f_obs]
4.643135E-15                             [fobs_norm (in input units)]

## S/N
 4730.00                                 [llow_SN (A) - window for S/N]
 4780.00                                 [lupp_SN (A) - window for S/N]
  27.089                                 [S/N in S/N window]
  13.711                                 [S/N in norm. window]
 346.459                                 [S/N_err in S/N window]
 175.352                                 [S/N_err in norm. window]
  1.0000                                 [fscale_chi2]

## etc...
  2147483605                             [idum_orig]
  3068                                   [NOl_eff]
  1209                                   [Nl_eff]
  1859    NSIGMA                         [Ntot_cliped & clip_method]
  1004220                                [Nglobal_steps]
   7                                     [N_chains]
  12                                     [NEX0s_base = N_base in EX0s-fits]
 0   0   1      164   2.0   3.956E+02    [Clip-Bug, RC-Crash & Burn-In warning-flags, n_censored_weights, wei_nsig_threshold & wei_limit]
    11     10.633     10.633      0.000  [idt_all, wdt_TotTime, wdt_UsrTime & wdt_SysTime (sec)]

## Synthesis Results - Best model ##

 2.26353E+00                             [chi2/Nl_eff]
     1.91858                             [adev (%)]

    99.34536                             [sum-of-x (%)]
 4.30723E-14                             [Flux_tot (units of input spectrum!)]
 3.51603E-09                             [Mini_tot (???)]
 1.78029E-09                             [Mcor_tot (???)]

  10.67                                  [v0_min  (km/s)]
  26.90                                  [vd_min  (km/s)]
 1.6634                                  [AV_min  (mag)]
 0.0000                                  [YAV_min (mag)]

# j     x_j(%)      Mini_j(%)     Mcor_j(%)     age_j(yr)     Z_j      (L/M)_j    YAV?  Mstars   component_j        a/Fe...       SSP_chi2r SSP_adev(%)   SSP_AV   SSP_x(%)
  1      3.3229     3.6781E-03    7.2642E-03    1.000000E+06  0.00400  1.114E-02    0   1.0000   age020_m42            0.0000     3.2944E+03    43.8474   4.0000    94.9728
  2      5.1721     1.5659E-03    3.0922E-03    3.160000E+06  0.00400  4.073E-02    0   0.9999   age045_m42            0.0000     1.1130E+03    23.1856   4.0000   106.8338
  3      5.6512     2.7500E-03    5.1531E-03    5.010000E+06  0.00400  2.534E-02    0   0.9488   age055_m42            0.0000     1.9126E+03    32.3844   4.0000   102.7804
  4      3.4866     3.3827E-03    5.9204E-03    1.000000E+07  0.00400  1.271E-02    0   0.8862   age070_m42            0.0000     8.7415E+02    16.6032   4.0000   101.7352
  5      0.0000     0.0000E+00    0.0000E+00    2.512000E+07  0.00400  5.070E-03    0   0.8174   age090_m42            0.0000     7.0846E+02    13.6072   4.0000   102.0486
  6      0.0000     0.0000E+00    0.0000E+00    4.000000E+07  0.00400  3.505E-03    0   0.7851   age104_m42            0.0000     4.4463E+02    10.1963   4.0000   100.8046
  7      0.0000     0.0000E+00    0.0000E+00    1.015200E+08  0.00400  2.268E-03    0   0.7207   age116_m42            0.0000     7.9155E+02    11.1714   4.0000   107.2664
  8      0.0000     0.0000E+00    0.0000E+00    2.861200E+08  0.00400  1.079E-03    0   0.6613   age125_m42            0.0000     8.0015E+02    10.9273   3.6127   107.1113
  9      0.0000     0.0000E+00    0.0000E+00    6.405400E+08  0.00400  5.077E-04    0   0.6197   age132_m42            0.0000     7.9769E+02    11.0552   3.2443   111.6013
 10      0.0000     0.0000E+00    0.0000E+00    9.047900E+08  0.00400  3.535E-04    0   0.6024   age135_m42            0.0000     6.0326E+02     9.8339   3.0037   110.8737
 11      0.0000     0.0000E+00    0.0000E+00    1.434000E+09  0.00400  1.910E-04    0   0.5716   age139_m42            0.0000     3.3932E+02     7.9235   2.4332   109.0422
 12      0.0000     0.0000E+00    0.0000E+00    2.500000E+09  0.00400  9.818E-05    0   0.5463   age150_m42            0.0000     1.5273E+02     5.9222   2.1633   104.1767
 13      0.0000     0.0000E+00    0.0000E+00    5.000000E+09  0.00400  4.718E-05    0   0.5228   age161_m42            0.0000     7.8848E+01     4.7046   1.9984   100.9034
 14      0.0000     0.0000E+00    0.0000E+00    1.100000E+10  0.00400  2.205E-05    0   0.4980   age185_m42            0.0000     4.8668E+01     5.0617   1.6822    98.7318
 15      1.9763     1.2942E+00    1.2593E+00    1.300000E+10  0.00400  1.883E-05    0   0.4927   age193_m42            0.0000     4.6779E+01     5.1368   1.6608    98.5842
 16      4.5311     2.8091E-03    5.5479E-03    1.000000E+06  0.02000  1.989E-02    0   1.0000   age020_m62            0.0000     3.2252E+03    43.0213   4.0000    95.7520
 17      2.3421     7.6566E-04    1.4907E-03    3.160000E+06  0.02000  3.772E-02    0   0.9858   age045_m62            0.0000     2.8933E+03    40.4942   4.0000    98.3484
 18      0.0000     0.0000E+00    0.0000E+00    5.010000E+06  0.02000  3.227E-02    0   0.9342   age055_m62            0.0000     1.5894E+03    28.9177   4.0000   105.3930
 19      0.0000     0.0000E+00    0.0000E+00    1.000000E+07  0.02000  1.011E-02    0   0.8751   age070_m62            0.0000     1.1587E+03    18.7264   4.0000    99.2251
 20      0.0000     0.0000E+00    0.0000E+00    2.512000E+07  0.02000  4.206E-03    0   0.8099   age090_m62            0.0000     9.2588E+02    16.2198   4.0000    99.2504
 21      0.0000     0.0000E+00    0.0000E+00    4.000000E+07  0.02000  3.373E-03    0   0.7799   age104_m62            0.0000     6.2978E+02    11.0583   4.0000   104.8183
 22      0.0000     0.0000E+00    0.0000E+00    1.015200E+08  0.02000  1.878E-03    0   0.7221   age116_m62            0.0000     7.8618E+02    10.5466   4.0000   108.6811
 23      0.0000     0.0000E+00    0.0000E+00    2.861200E+08  0.02000  8.869E-04    0   0.6700   age125_m62            0.0000     1.0948E+03    12.2634   3.5994   112.0160
 24      0.0000     0.0000E+00    0.0000E+00    6.405400E+08  0.02000  3.657E-04    0   0.6322   age132_m62            0.0000     7.7191E+02    11.5800   2.8530   114.9453
 25      0.0000     0.0000E+00    0.0000E+00    9.047900E+08  0.02000  2.312E-04    0   0.6152   age135_m62            0.0000     4.9748E+02     9.9088   2.4798   113.6878
 26      0.0000     0.0000E+00    0.0000E+00    1.434000E+09  0.02000  1.168E-04    0   0.5865   age139_m62            0.0000     2.0348E+02     6.9855   2.0806   107.6928
 27      0.0000     0.0000E+00    0.0000E+00    2.500000E+09  0.02000  5.505E-05    0   0.5610   age150_m62            0.0000     9.3193E+01     6.3349   1.6754   104.8705
 28      1.7533     8.3281E-01    8.8045E-01    5.000000E+09  0.02000  2.596E-05    0   0.5353   age161_m62            0.0000     8.5439E+01     8.1306   1.2720   104.6978
 29     25.6277     2.7033E+01    2.7244E+01    1.100000E+10  0.02000  1.169E-05    0   0.5103   age185_m62            0.0000     1.3263E+02    11.0785   0.8170   106.1815
 30     29.2059     3.7162E+01    3.7042E+01    1.300000E+10  0.02000  9.691E-06    0   0.5047   age193_m62            0.0000     1.4508E+02    11.6583   0.7540   106.4302
 31      0.0000     0.0000E+00    0.0000E+00    1.000000E+06  0.05000  2.651E-02    0   0.9998   age020_m72            0.0000     3.1712E+03    42.6540   4.0000    96.9935
 32      0.0000     0.0000E+00    0.0000E+00    3.160000E+06  0.05000  4.817E-02    0   0.9577   age045_m72            0.0000     2.4406E+03    36.8312   4.0000   102.3574
 33      0.0000     0.0000E+00    0.0000E+00    5.010000E+06  0.05000  3.101E-02    0   0.9147   age055_m72            0.0000     1.8037E+03    30.0654   4.0000   104.0791
 34      0.0000     0.0000E+00    0.0000E+00    1.000000E+07  0.05000  8.954E-03    0   0.8524   age070_m72            0.0000     2.1522E+03    34.2047   4.0000   103.4292
 35      0.0000     0.0000E+00    0.0000E+00    2.512000E+07  0.05000  4.207E-03    0   0.7902   age090_m72            0.0000     1.2503E+03    24.5737   4.0000   107.1326
 36      0.0000     0.0000E+00    0.0000E+00    4.000000E+07  0.05000  3.198E-03    0   0.7618   age104_m72            0.0000     7.8375E+02    14.1585   4.0000   109.7261
 37      0.0000     0.0000E+00    0.0000E+00    1.015200E+08  0.05000  1.716E-03    0   0.7092   age116_m72            0.0000     8.8828E+02    12.0316   4.0000   109.8477
 38      0.0000     0.0000E+00    0.0000E+00    2.861200E+08  0.05000  7.047E-04    0   0.6618   age125_m72            0.0000     1.0239E+03    12.3690   3.3614   112.2154
 39      0.0000     0.0000E+00    0.0000E+00    6.405400E+08  0.05000  2.633E-04    0   0.6253   age132_m72            0.0000     5.8561E+02    11.0724   2.4538   113.8568
 40      0.0000     0.0000E+00    0.0000E+00    9.047900E+08  0.05000  1.484E-04    0   0.6088   age135_m72            0.0000     2.6497E+02     8.9244   1.9600   108.5156
 41      0.0000     0.0000E+00    0.0000E+00    1.434000E+09  0.05000  7.827E-05    0   0.5847   age139_m72            0.0000     1.2676E+02     8.1615   1.5315   105.1364
 42      0.0000     0.0000E+00    0.0000E+00    2.500000E+09  0.05000  3.759E-05    0   0.5583   age150_m72            0.0000     1.0087E+02     8.7732   1.1775   104.3920
 43      0.0000     0.0000E+00    0.0000E+00    5.000000E+09  0.05000  1.548E-05    0   0.5320   age161_m72            0.0000     1.4360E+02    11.7398   0.6930   103.6938
 44      9.4742     1.7885E+01    1.7909E+01    1.100000E+10  0.05000  6.532E-06    0   0.5070   age185_m72            0.0000     2.4531E+02    16.0053   0.1479   104.0896
 45      6.8020     1.5778E+01    1.5637E+01    1.300000E+10  0.05000  5.316E-06    0   0.5018   age193_m72            0.0000     2.9587E+02    17.6667  -0.0418   104.5722


## Synthesis Results - Average & Chains ##

# j      x_j: min, <> & last-chain-values for 1 ...  7 chains
  1      3.3229      2.8087      2.7805      2.8789      2.9282      2.8106      2.7801      2.8034      2.7314
  2      5.1721      4.5717      4.5852      4.6672      4.6638      4.7483      4.6172      4.5816      4.5305
  3      5.6512      5.4597      5.5251      5.4141      5.4692      5.4662      5.5478      5.6173      5.5298
  4      3.4866      3.4385      3.5258      3.6751      3.4075      3.6356      3.5235      3.3587      3.4359
  5      0.0000      0.0361      0.0882      0.0000      0.0000      0.2287      0.0868      0.0000      0.0000
  6      0.0000      0.0282      0.0000      0.0000      0.0000      0.0000      0.0000      0.0000      0.0000
  7      0.0000      0.0252      0.0000      0.0000      0.0000      0.0000      0.0000      0.0504      0.0000
  8      0.0000      0.0166      0.0000      0.0357      0.0000      0.0000      0.0000      0.0152      0.0000
  9      0.0000      0.0132      0.0000      0.0088      0.0000      0.0000      0.0000      0.0000      0.0000
 10      0.0000      0.0393      0.0947      0.1166      0.0000      0.0006      0.0000      0.1370      0.0000
 11      0.0000      0.0359      0.0000      0.0000      0.0308      0.0000      0.0466      0.0000      0.0000
 12      0.0000      0.0754      0.1751      0.0000      0.0000      0.0000      0.0000      0.3476      0.2220
 13      0.0000      0.2024      0.6098      0.0000      0.0000      0.0000      0.0000      0.0000      0.5192
 14      0.0000      0.5531      1.1542      0.9958      0.4769      0.5949      0.6815      0.5358      0.2298
 15      1.9763      0.6541      0.0945      0.1810      1.1408      1.2183      0.9225      0.9106      0.6254
 16      4.5311      4.7426      4.6804      4.7831      4.7416      4.6815      4.6899      4.8359      4.7531
 17      2.3421      3.0420      2.9418      2.9444      2.9905      2.9130      3.0178      2.9876      2.9662
 18      0.0000      0.0498      0.0374      0.0852      0.0000      0.0821      0.0000      0.0000      0.2116
 19      0.0000      0.0154      0.0000      0.0000      0.0000      0.0000      0.0000      0.0000      0.0144
 20      0.0000      0.0183      0.0000      0.0073      0.0000      0.0000      0.0000      0.0000      0.0000
 21      0.0000      0.0133      0.0000      0.0000      0.0000      0.0000      0.0000      0.0000      0.0000
 22      0.0000      0.0174      0.0000      0.0000      0.2579      0.0000      0.0000      0.0000      0.0503
 23      0.0000      0.0062      0.0000      0.0000      0.0000      0.0000      0.0000      0.0000      0.0000
 24      0.0000      0.0080      0.0000      0.0000      0.0000      0.0000      0.0000      0.0000      0.0000
 25      0.0000      0.0175      0.0000      0.0000      0.0000      0.0000      0.0000      0.0461      0.0000
 26      0.0000      0.0376      0.0000      0.0304      0.0000      0.0000      0.0000      0.0000      0.0399
 27      0.0000      0.0841      0.0638      0.0144      0.0385      0.0428      0.0552      0.0000      0.0000
 28      1.7533      1.9023      1.1057      2.1343      1.7468      2.3852      1.9072      2.1092      1.8366
 29     25.6277     24.9278     25.3252     25.0102     25.6058     24.6639     24.9747     24.7353     25.3429
 30     29.2059     28.3640     28.8058     28.8206     28.3726     28.1286     28.5405     29.1891     28.7104
 31      0.0000      0.0137      0.0644      0.0000      0.0000      0.0000      0.0000      0.0000      0.0363
 32      0.0000      0.0233      0.0440      0.0000      0.0000      0.0000      0.0000      0.0000      0.0202
 33      0.0000      0.0436      0.0000      0.0000      0.0000      0.0000      0.1746      0.0000      0.1256
 34      0.0000      0.0214      0.0557      0.0248      0.0000      0.0000      0.0000      0.0493      0.0116
 35      0.0000      0.0172      0.0000      0.0000      0.0000      0.0000      0.0000      0.0000      0.0000
 36      0.0000      0.0082      0.0000      0.0000      0.0000      0.0000      0.0000      0.0000      0.0000
 37      0.0000      0.0127      0.0000      0.0000      0.0000      0.0000      0.0000      0.0000      0.0280
 38      0.0000      0.0079      0.0000      0.0000      0.0000      0.0000      0.0000      0.0000      0.0000
 39      0.0000      0.0132      0.0000      0.0000      0.0000      0.0000      0.0000      0.0000      0.0069
 40      0.0000      0.0346      0.0000      0.0117      0.0000      0.0000      0.3455      0.0000      0.0037
 41      0.0000      0.0851      0.0000      0.0000      0.1204      0.0000      0.1347      0.0000      0.0141
 42      0.0000      0.1455      0.0000      0.0000      0.0000      0.0000      0.0000      0.0000      0.0000
 43      0.0000      0.1596      0.5177      0.6634      0.1363      0.0000      0.0484      0.0319      0.0000
 44      9.4742     10.1649     10.3033      9.4571     10.2036     10.3416      9.8977      9.7513     10.0643
 45      6.8020      7.3916      6.7666      7.4004      7.0244      7.3709      7.3629      7.2678      7.2871

# j      m_j: min, <> & last-chain-values for 1 ...  7 chains
  1  7.2642E-03  6.0982E-03  6.0538E-03  6.2708E-03  6.3579E-03  6.0998E-03  6.0505E-03  6.0980E-03  5.9246E-03
  2  3.0922E-03  2.7145E-03  2.7302E-03  2.7803E-03  2.7693E-03  2.8183E-03  2.7481E-03  2.7255E-03  2.6875E-03
  3  5.1531E-03  4.9444E-03  5.0176E-03  4.9191E-03  4.9532E-03  4.9483E-03  5.0362E-03  5.0967E-03  5.0031E-03
  4  5.9204E-03  5.7987E-03  5.9626E-03  6.2180E-03  5.7466E-03  6.1287E-03  5.9563E-03  5.6748E-03  5.7887E-03
  5  0.0000E+00  1.4063E-04  3.4497E-04  0.0000E+00  0.0000E+00  8.9164E-04  3.3922E-04  0.0000E+00  0.0000E+00
  6  0.0000E+00  1.5265E-04  0.0000E+00  0.0000E+00  0.0000E+00  0.0000E+00  0.0000E+00  0.0000E+00  0.0000E+00
  7  0.0000E+00  1.9400E-04  0.0000E+00  0.0000E+00  0.0000E+00  0.0000E+00  0.0000E+00  3.8833E-04  0.0000E+00
  8  0.0000E+00  2.4546E-04  0.0000E+00  5.3033E-04  0.0000E+00  0.0000E+00  0.0000E+00  2.2538E-04  0.0000E+00
  9  0.0000E+00  3.9087E-04  0.0000E+00  2.6054E-04  0.0000E+00  0.0000E+00  0.0000E+00  0.0000E+00  0.0000E+00
 10  0.0000E+00  1.6183E-03  3.9121E-03  4.8224E-03  0.0000E+00  2.5289E-05  0.0000E+00  5.6573E-03  0.0000E+00
 11  0.0000E+00  2.5972E-03  0.0000E+00  0.0000E+00  2.2327E-03  0.0000E+00  3.3797E-03  0.0000E+00  0.0000E+00
 12  0.0000E+00  1.0148E-02  2.3636E-02  0.0000E+00  0.0000E+00  0.0000E+00  0.0000E+00  4.6864E-02  2.9843E-02
 13  0.0000E+00  5.4245E-02  1.6390E-01  0.0000E+00  0.0000E+00  0.0000E+00  0.0000E+00  0.0000E+00  1.3901E-01
 14  0.0000E+00  3.0211E-01  6.3226E-01  5.4574E-01  2.6053E-01  3.2484E-01  3.7315E-01  2.9324E-01  1.2543E-01
 15  1.2593E+00  4.1398E-01  5.9966E-02  1.1491E-01  7.2201E-01  7.7068E-01  5.8524E-01  5.7734E-01  3.9542E-01
 16  5.5479E-03  5.7671E-03  5.7074E-03  5.8353E-03  5.7661E-03  5.6906E-03  5.7166E-03  5.8916E-03  5.7744E-03
 17  1.4907E-03  1.9229E-03  1.8647E-03  1.8673E-03  1.8904E-03  1.8406E-03  1.9122E-03  1.8921E-03  1.8732E-03
 18  0.0000E+00  3.4835E-05  2.6270E-05  5.9818E-05  0.0000E+00  5.7465E-05  0.0000E+00  0.0000E+00  1.4803E-04
 19  0.0000E+00  3.2258E-05  0.0000E+00  0.0000E+00  0.0000E+00  0.0000E+00  0.0000E+00  0.0000E+00  3.0061E-05
 20  0.0000E+00  8.5040E-05  0.0000E+00  3.3989E-05  0.0000E+00  0.0000E+00  0.0000E+00  0.0000E+00  0.0000E+00
 21  0.0000E+00  7.4529E-05  0.0000E+00  0.0000E+00  0.0000E+00  0.0000E+00  0.0000E+00  0.0000E+00  0.0000E+00
 22  0.0000E+00  1.6206E-04  0.0000E+00  0.0000E+00  2.3987E-03  0.0000E+00  0.0000E+00  0.0000E+00  4.6712E-04
 23  0.0000E+00  1.1330E-04  0.0000E+00  0.0000E+00  0.0000E+00  0.0000E+00  0.0000E+00  0.0000E+00  0.0000E+00
 24  0.0000E+00  3.3591E-04  0.0000E+00  0.0000E+00  0.0000E+00  0.0000E+00  0.0000E+00  0.0000E+00  0.0000E+00
 25  0.0000E+00  1.1255E-03  0.0000E+00  0.0000E+00  0.0000E+00  0.0000E+00  0.0000E+00  2.9755E-03  0.0000E+00
 26  0.0000E+00  4.5625E-03  0.0000E+00  3.7047E-03  0.0000E+00  0.0000E+00  0.0000E+00  0.0000E+00  4.8444E-03
 27  0.0000E+00  2.0724E-02  1.5770E-02  3.5688E-03  9.4835E-03  1.0544E-02  1.3638E-02  0.0000E+00  0.0000E+00
 28  8.8045E-01  9.4876E-01  5.5299E-01  1.0679E+00  8.7122E-01  1.1891E+00  9.5345E-01  1.0539E+00  9.1511E-01
 29  2.7244E+01  2.6319E+01  2.6814E+01  2.6492E+01  2.7036E+01  2.6030E+01  2.6432E+01  2.6165E+01  2.6732E+01
 30  3.7042E+01  3.5728E+01  3.6386E+01  3.6421E+01  3.5740E+01  3.5418E+01  3.6036E+01  3.6836E+01  3.6130E+01
 31  0.0000E+00  1.2500E-05  5.8865E-05  0.0000E+00  0.0000E+00  0.0000E+00  0.0000E+00  0.0000E+00  3.3090E-05
 32  0.0000E+00  1.1213E-05  2.1226E-05  0.0000E+00  0.0000E+00  0.0000E+00  0.0000E+00  0.0000E+00  9.6913E-06
 33  0.0000E+00  3.1079E-05  0.0000E+00  0.0000E+00  0.0000E+00  0.0000E+00  1.2486E-04  0.0000E+00  8.9533E-05
