###################################################################
## OUTPUT of StarlightChains_v04.for    [Cid@UFSC - 01/Apr/2007] ##
###################################################################

## Some input info
NGC6388_a_1.cxt                          [arq_obs]
Base.BC03.N                              [arq_base]
NGC6388_a_1.msk                          [arq_masks]
StCv04.C11.config                        [arq_config]
   45                                    [N_base]
    0                                    [N_YAV_components = # of components with extra extinction!]
    0                                    [i_FitPowerLaw (1/0 = Yes/No)]
-9.99                                    [alpha_PowerLaw]
CCM                                      [red_law_option]
 1.458241                                [q_norm = A(l_norm)/A(V)]

## (Re)Sampling Parameters
 3359.00                                 [l_ini (A)]
 6428.00                                 [l_fin (A)]
    1.00                                 [dl    (A)]     (OBS: dl_cushion =    50.00 A)

## Normalization info
 4020.00                                 [l_norm (A) - for base]
 4010.00                                 [llow_norm (A) - window for f_obs]
 4060.00                                 [lupp_norm (A) - window for f_obs]
4.539934E-14                             [fobs_norm (in input units)]

## S/N
 4730.00                                 [llow_SN (A) - window for S/N]
 4780.00                                 [lupp_SN (A) - window for S/N]
  38.687                                 [S/N in S/N window]
  24.472                                 [S/N in norm. window]
 271.099                                 [S/N_err in S/N window]
 171.489                                 [S/N_err in norm. window]
  1.0000                                 [fscale_chi2]

## etc...
  2147483610                             [idum_orig]
  3069                                   [NOl_eff]
   627                                   [Nl_eff]
  2442    NSIGMA                         [Ntot_cliped & clip_method]
  1026200                                [Nglobal_steps]
   7                                     [N_chains]
  11                                     [NEX0s_base = N_base in EX0s-fits]
 0   0   1      207   2.0   3.750E+02    [Clip-Bug, RC-Crash & Burn-In warning-flags, n_censored_weights, wei_nsig_threshold & wei_limit]
    10     10.612     10.608      0.004  [idt_all, wdt_TotTime, wdt_UsrTime & wdt_SysTime (sec)]

## Synthesis Results - Best model ##

 2.56950E+00                             [chi2/Nl_eff]
     1.27545                             [adev (%)]

   101.22395                             [sum-of-x (%)]
 1.89791E-13                             [Flux_tot (units of input spectrum!)]
 6.36709E-09                             [Mini_tot (???)]
 3.30617E-09                             [Mcor_tot (???)]

 -12.68                                  [v0_min  (km/s)]
  51.30                                  [vd_min  (km/s)]
 1.0560                                  [AV_min  (mag)]
 0.0000                                  [YAV_min (mag)]

# j     x_j(%)      Mini_j(%)     Mcor_j(%)     age_j(yr)     Z_j      (L/M)_j    YAV?  Mstars   component_j        a/Fe...       SSP_chi2r SSP_adev(%)   SSP_AV   SSP_x(%)
  1      0.0000     0.0000E+00    0.0000E+00    1.000000E+06  0.00400  1.114E-02    0   1.0000   age020_m42            0.0000     3.8640E+03    36.6339   4.0000    97.2372
  2      1.5008     1.0851E-03    2.0894E-03    3.160000E+06  0.00400  4.073E-02    0   0.9999   age045_m42            0.0000     4.8176E+02    13.2932   3.9828    93.3586
  3      0.9602     1.1158E-03    2.0389E-03    5.010000E+06  0.00400  2.534E-02    0   0.9488   age055_m42            0.0000     1.1562E+03    22.2268   4.0000    96.2017
  4      5.1110     1.1842E-02    2.0210E-02    1.000000E+07  0.00400  1.271E-02    0   0.8862   age070_m42            0.0000     7.6231E+02    17.5042   3.5624    92.0101
  5      0.9421     5.4717E-03    8.6134E-03    2.512000E+07  0.00400  5.070E-03    0   0.8174   age090_m42            0.0000     6.8370E+02    16.7383   3.4391    93.6209
  6      0.0000     0.0000E+00    0.0000E+00    4.000000E+07  0.00400  3.505E-03    0   0.7851   age104_m42            0.0000     5.0017E+02    14.3888   3.1379    96.4327
  7      0.0000     0.0000E+00    0.0000E+00    1.015200E+08  0.00400  2.268E-03    0   0.7207   age116_m42            0.0000     6.8006E+02    12.1878   3.1888   104.6117
  8      0.0000     0.0000E+00    0.0000E+00    2.861200E+08  0.00400  1.079E-03    0   0.6613   age125_m42            0.0000     6.8645E+02    12.0323   2.7000   106.6640
  9      0.0000     0.0000E+00    0.0000E+00    6.405400E+08  0.00400  5.077E-04    0   0.6197   age132_m42            0.0000     7.1095E+02    12.3915   2.3332   110.8759
 10      0.3177     2.6466E-02    3.0703E-02    9.047900E+08  0.00400  3.535E-04    0   0.6024   age135_m42            0.0000     4.9094E+02    10.0808   2.0984   109.9019
 11      0.0000     0.0000E+00    0.0000E+00    1.434000E+09  0.00400  1.910E-04    0   0.5716   age139_m42            0.0000     2.1672E+02     6.4466   1.6069   107.7041
 12     21.5811     6.4730E+00    6.8100E+00    2.500000E+09  0.00400  9.818E-05    0   0.5463   age150_m42            0.0000     4.9256E+01     2.8243   1.3429   102.7408
 13     29.9186     1.8674E+01    1.8801E+01    5.000000E+09  0.00400  4.718E-05    0   0.5228   age161_m42            0.0000     1.4853E+01     1.9749   1.1789    99.5124
 14      0.0000     0.0000E+00    0.0000E+00    1.100000E+10  0.00400  2.205E-05    0   0.4980   age185_m42            0.0000     3.2342E+01     3.0655   0.9378    97.1287
 15      0.0000     0.0000E+00    0.0000E+00    1.300000E+10  0.00400  1.883E-05    0   0.4927   age193_m42            0.0000     3.9887E+01     3.4260   0.9214    96.9880
 16      0.0000     0.0000E+00    0.0000E+00    1.000000E+06  0.02000  1.989E-02    0   1.0000   age020_m62            0.0000     3.6475E+03    35.5029   4.0000    97.5751
 17      0.0000     0.0000E+00    0.0000E+00    3.160000E+06  0.02000  3.772E-02    0   0.9858   age045_m62            0.0000     2.8425E+03    32.5273   4.0000    98.2133
 18      0.0000     0.0000E+00    0.0000E+00    5.010000E+06  0.02000  3.227E-02    0   0.9342   age055_m62            0.0000     8.0725E+02    18.7205   4.0000    96.2610
 19      0.0000     0.0000E+00    0.0000E+00    1.000000E+07  0.02000  1.011E-02    0   0.8751   age070_m62            0.0000     1.2488E+03    21.9195   3.6031    88.7125
 20      0.0000     0.0000E+00    0.0000E+00    2.512000E+07  0.02000  4.206E-03    0   0.8099   age090_m62            0.0000     9.5086E+02    19.6951   3.5396    89.6169
 21      0.0000     0.0000E+00    0.0000E+00    4.000000E+07  0.02000  3.373E-03    0   0.7799   age104_m62            0.0000     5.0868E+02    13.9284   3.3747    97.9040
 22      0.0000     0.0000E+00    0.0000E+00    1.015200E+08  0.02000  1.878E-03    0   0.7221   age116_m62            0.0000     6.4274E+02    11.9426   3.2070   105.5467
 23      0.0000     0.0000E+00    0.0000E+00    2.861200E+08  0.02000  8.869E-04    0   0.6700   age125_m62            0.0000     1.0315E+03    14.9219   2.7206   111.7235
 24      0.0000     0.0000E+00    0.0000E+00    6.405400E+08  0.02000  3.657E-04    0   0.6322   age132_m62            0.0000     6.8294E+02    11.3396   2.0783   113.5526
 25      0.0000     0.0000E+00    0.0000E+00    9.047900E+08  0.02000  2.312E-04    0   0.6152   age135_m62            0.0000     3.8853E+02     8.0700   1.7178   112.0244
 26      0.0000     0.0000E+00    0.0000E+00    1.434000E+09  0.02000  1.168E-04    0   0.5865   age139_m62            0.0000     9.6762E+01     3.9222   1.3214   106.0008
 27      7.2157     3.8599E+00    4.1701E+00    2.500000E+09  0.02000  5.505E-05    0   0.5610   age150_m62            0.0000     3.9340E+01     3.4294   0.9719   102.8338
 28     13.5691     1.5392E+01    1.5868E+01    5.000000E+09  0.02000  2.596E-05    0   0.5353   age161_m62            0.0000     1.0326E+02     5.8175   0.6699   102.1477
 29     10.6725     2.6885E+01    2.6421E+01    1.100000E+10  0.02000  1.169E-05    0   0.5103   age185_m62            0.0000     2.5422E+02     8.7206   0.3378   102.9568
 30      9.4352     2.8670E+01    2.7867E+01    1.300000E+10  0.02000  9.691E-06    0   0.5047   age193_m62            0.0000     2.8800E+02     9.2041   0.2958   103.1347
 31      0.0000     0.0000E+00    0.0000E+00    1.000000E+06  0.05000  2.651E-02    0   0.9998   age020_m72            0.0000     3.5855E+03    35.1118   4.0000    98.7664
 32      0.0000     0.0000E+00    0.0000E+00    3.160000E+06  0.05000  4.817E-02    0   0.9577   age045_m72            0.0000     1.9980E+03    28.0380   4.0000    99.5744
 33      0.0000     0.0000E+00    0.0000E+00    5.010000E+06  0.05000  3.101E-02    0   0.9147   age055_m72            0.0000     1.0055E+03    21.0128   4.0000    95.3845
 34      0.0000     0.0000E+00    0.0000E+00    1.000000E+07  0.05000  8.954E-03    0   0.8524   age070_m72            0.0000     1.5792E+03    25.3709   4.0000    99.0666
 35      0.0000     0.0000E+00    0.0000E+00    2.512000E+07  0.05000  4.207E-03    0   0.7902   age090_m72            0.0000     5.4601E+02    15.2622   4.0000    95.3661
 36      0.0000     0.0000E+00    0.0000E+00    4.000000E+07  0.05000  3.198E-03    0   0.7618   age104_m72            0.0000     5.0275E+02    11.0871   3.6135   100.8421
 37      0.0000     0.0000E+00    0.0000E+00    1.015200E+08  0.05000  1.716E-03    0   0.7092   age116_m72            0.0000     7.2851E+02    12.3963   3.3436   105.0546
 38      0.0000     0.0000E+00    0.0000E+00    2.861200E+08  0.05000  7.047E-04    0   0.6618   age125_m72            0.0000     9.7597E+02    14.1900   2.5639   111.1148
 39      0.0000     0.0000E+00    0.0000E+00    6.405400E+08  0.05000  2.633E-04    0   0.6253   age132_m72            0.0000     5.0371E+02     9.3764   1.7458   111.9296
 40      0.0000     0.0000E+00    0.0000E+00    9.047900E+08  0.05000  1.484E-04    0   0.6088   age135_m72            0.0000     1.7616E+02     5.7909   1.2780   106.4708
 41      0.0000     0.0000E+00    0.0000E+00    1.434000E+09  0.05000  7.827E-05    0   0.5847   age139_m72            0.0000     1.0184E+02     5.3558   0.9214   102.5113
 42      0.0000     0.0000E+00    0.0000E+00    2.500000E+09  0.05000  3.759E-05    0   0.5583   age150_m72            0.0000     1.4491E+02     6.7691   0.6191   101.5261
 43      0.0000     0.0000E+00    0.0000E+00    5.000000E+09  0.05000  1.548E-05    0   0.5320   age161_m72            0.0000     3.0956E+02     9.2557   0.2738   100.3918
 44      0.0000     0.0000E+00    0.0000E+00    1.100000E+10  0.05000  6.532E-06    0   0.5070   age185_m72            0.0000     5.9452E+02    12.2448  -0.0548    99.2553
 45      0.0000     0.0000E+00    0.0000E+00    1.300000E+10  0.05000  5.316E-06    0   0.5018   age193_m72            0.0000     7.3021E+02    13.4999  -0.1540    98.9482


## Synthesis Results - Average & Chains ##

# j      x_j: min, <> & last-chain-values for 1 ...  7 chains
  1      0.0000      0.0243      0.0000      0.0000      0.0000      0.0000      0.0000      0.0273      0.0000
  2      1.5008      1.5965      1.5461      1.6126      1.7371      1.5264      1.3414      1.6040      1.5655
  3      0.9602      0.4283      0.5063      0.4159      0.4506      0.4871      0.3562      0.4452      0.4110
  4      5.1110      4.9399      4.8081      5.0608      4.8725      4.8802      4.9823      4.9355      4.8787
  5      0.9421      1.0717      1.0851      1.0376      0.7954      1.1916      0.9804      1.0041      1.0660
  6      0.0000      0.0184      0.0000      0.0018      0.0102      0.0030      0.0000      0.0000      0.0000
  7      0.0000      0.0163      0.0000      0.0000      0.0000      0.0000      0.0000      0.0171      0.0000
  8      0.0000      0.0300      0.0000      0.0000      0.0000      0.0000      0.0000      0.0000      0.0000
  9      0.0000      0.0389      0.0000      0.0000      0.0000      0.0000      0.0000      0.0000      0.0000
 10      0.3177      0.4282      0.5276      0.3327      0.5146      0.4529      0.3878      0.4386      0.4121
 11      0.0000      0.1786      0.0000      0.1793      0.2803      0.0000      0.3545      0.3367      0.3266
 12     21.5811     20.4638     20.3933     20.7767     20.4134     21.2870     20.6573     20.8483     20.8886
 13     29.9186     30.1964     30.1803     30.2742     29.9659     29.6537     30.6892     30.3801     30.2665
 14      0.0000      0.2137      0.2038      0.0000      0.0309      0.0412      0.1341      0.1847      0.0000
 15      0.0000      0.1445      0.0000      0.0000      0.2831      0.0000      0.0000      0.0000      0.0000
 16      0.0000      0.0378      0.0000      0.0000      0.0000      0.0000      0.3027      0.0000      0.0000
 17      0.0000      0.0169      0.0772      0.0000      0.0000      0.0000      0.0747      0.0049      0.1049
 18      0.0000      0.1904      0.1343      0.1991      0.2529      0.1211      0.2811      0.2082      0.1926
 19      0.0000      0.0338      0.0958      0.0065      0.0157      0.1243      0.0000      0.0000      0.0736
 20      0.0000      0.0165      0.0000      0.0000      0.0000      0.0000      0.0000      0.1580      0.0278
 21      0.0000      0.0117      0.0000      0.0000      0.0000      0.0000      0.0000      0.0000      0.0000
 22      0.0000      0.0112      0.0000      0.0000      0.0579      0.0000      0.0000      0.0000      0.0000
 23      0.0000      0.0098      0.0000      0.0035      0.0000      0.0000      0.0000      0.0000      0.0000
 24      0.0000      0.0513      0.1875      0.0965      0.0000      0.0840      0.0126      0.0262      0.0000
 25      0.0000      0.0488      0.0000      0.1209      0.0000      0.0000      0.0000      0.0000      0.0000
 26      0.0000      0.2530      0.9316      0.3096      0.1817      0.5946      0.2923      0.3365      0.9332
 27      7.2157      6.1327      5.9976      6.2353      7.2903      6.4965      6.7296      5.8227      5.9149
 28     13.5691     12.0057     12.6427     12.0569     12.1365     12.4231     11.8344     12.0033     11.9986
 29     10.6725     11.9406     11.6658     12.1042     11.5838     11.8159     11.8397     11.9143     11.9565
 30      9.4352      9.8047      9.5673      9.6545      9.6346      9.5654      9.6956      9.6886      9.9548
 31      0.0000      0.0540      0.0000      0.1815      0.0000      0.1258      0.0228      0.0000      0.0000
 32      0.0000      0.0971      0.1717      0.1413      0.2935      0.0518      0.0000      0.1095      0.1581
 33      0.0000      0.0194      0.0283      0.0034      0.0447      0.0000      0.0000      0.0673      0.0000
 34      0.0000      0.0342      0.1522      0.0000      0.0840      0.0000      0.0000      0.0000      0.0646
 35      0.0000      0.0133      0.0000      0.0000      0.0000      0.0884      0.0000      0.0000      0.0000
 36      0.0000      0.0074      0.0000      0.0000      0.0000      0.0000      0.0000      0.0750      0.0000
 37      0.0000      0.0079      0.0000      0.0000      0.0000      0.0000      0.0000      0.0000      0.0000
 38      0.0000      0.0256      0.0000      0.0000      0.0000      0.0000      0.0000      0.0000      0.0000
 39      0.0000      0.0297      0.0970      0.0000      0.0000      0.0000      0.0000      0.0000      0.0000
 40      0.0000      0.1196      0.0000      0.4866      0.0000      0.0000      0.0603      0.0000      0.0122
 41      0.0000      0.2518      0.0000      0.0000      0.1660      0.0337      0.0697      0.0000      0.0977
 42      0.0000      0.2342      0.2890      0.0000      0.1758      0.1661      0.1229      0.6362      0.0000
 43      0.0000      0.0174      0.0000      0.0000      0.0000      0.0000      0.0000      0.0000      0.0000
 44      0.0000      0.0055      0.0000      0.0000      0.0000      0.0701      0.0000      0.0000      0.0000
 45      0.0000      0.0051      0.0000      0.0000      0.0000      0.0000      0.0000      0.0000      0.0000

# j      m_j: min, <> & last-chain-values for 1 ...  7 chains
  1  0.0000E+00  1.2033E-04  0.0000E+00  0.0000E+00  0.0000E+00  0.0000E+00  0.0000E+00  1.3604E-04  0.0000E+00
  2  2.0894E-03  2.1655E-03  2.1171E-03  2.1992E-03  2.3787E-03  2.0853E-03  1.8307E-03  2.1853E-03  2.1264E-03
  3  2.0389E-03  8.8598E-04  1.0575E-03  8.6513E-04  9.4101E-04  1.0150E-03  7.4144E-04  9.2501E-04  8.5146E-04
  4  2.0210E-02  1.9031E-02  1.8699E-02  1.9602E-02  1.8950E-02  1.8936E-02  1.9312E-02  1.9098E-02  1.8820E-02
  5  8.6134E-03  9.5470E-03  9.7577E-03  9.2925E-03  7.1531E-03  1.0691E-02  8.7874E-03  8.9843E-03  9.5086E-03
  6  0.0000E+00  2.2733E-04  0.0000E+00  2.2126E-05  1.2782E-04  3.7712E-05  0.0000E+00  0.0000E+00  0.0000E+00
  7  0.0000E+00  2.8675E-04  0.0000E+00  0.0000E+00  0.0000E+00  0.0000E+00  0.0000E+00  3.0148E-04  0.0000E+00
  8  0.0000E+00  1.0148E-03  0.0000E+00  0.0000E+00  0.0000E+00  0.0000E+00  0.0000E+00  0.0000E+00  0.0000E+00
  9  0.0000E+00  2.6236E-03  0.0000E+00  0.0000E+00  0.0000E+00  0.0000E+00  0.0000E+00  0.0000E+00  0.0000E+00
 10  3.0703E-02  4.0315E-02  5.0152E-02  3.1499E-02  4.8915E-02  4.2949E-02  3.6734E-02  4.1476E-02  3.8850E-02
 11  0.0000E+00  2.9531E-02  0.0000E+00  2.9800E-02  4.6786E-02  0.0000E+00  5.8973E-02  5.5912E-02  5.4084E-02
 12  6.8100E+00  6.2914E+00  6.3293E+00  6.4221E+00  6.3358E+00  6.5914E+00  6.3900E+00  6.4380E+00  6.4307E+00
 13  1.8801E+01  1.8488E+01  1.8653E+01  1.8636E+01  1.8522E+01  1.8286E+01  1.8905E+01  1.8683E+01  1.8556E+01
 14  0.0000E+00  2.6665E-01  2.5671E-01  0.0000E+00  3.8902E-02  5.1799E-02  1.6841E-01  2.3145E-01  0.0000E+00
 15  0.0000E+00  2.0885E-01  0.0000E+00  0.0000E+00  4.1326E-01  0.0000E+00  0.0000E+00  0.0000E+00  0.0000E+00
 16  0.0000E+00  1.0504E-04  0.0000E+00  0.0000E+00  0.0000E+00  0.0000E+00  8.4605E-04  0.0000E+00  0.0000E+00
 17  0.0000E+00  2.4336E-05  1.1249E-04  0.0000E+00  0.0000E+00  0.0000E+00  1.0846E-04  7.0883E-06  1.5164E-04
 18  0.0000E+00  3.0456E-04  2.1688E-04  3.2024E-04  4.0845E-04  1.9513E-04  4.5242E-04  3.3446E-04  3.0850E-04
 19  0.0000E+00  1.6185E-04  4.6229E-04  3.1090E-05  7.5740E-05  5.9856E-04  0.0000E+00  0.0000E+00  3.5249E-04
 20  0.0000E+00  1.7524E-04  0.0000E+00  0.0000E+00  0.0000E+00  0.0000E+00  0.0000E+00  1.6888E-03  2.9601E-04
 21  0.0000E+00  1.4964E-04  0.0000E+00  0.0000E+00  0.0000E+00  0.0000E+00  0.0000E+00  0.0000E+00  0.0000E+00
 22  0.0000E+00  2.3718E-04  0.0000E+00  0.0000E+00  1.2427E-03  0.0000E+00  0.0000E+00  0.0000E+00  0.0000E+00
 23  0.0000E+00  4.1098E-04  0.0000E+00  1.4622E-04  0.0000E+00  0.0000E+00  0.0000E+00  0.0000E+00  0.0000E+00
 24  0.0000E+00  4.8989E-03  1.8084E-02  9.2653E-03  0.0000E+00  8.0836E-03  1.2144E-03  2.5180E-03  0.0000E+00
 25  0.0000E+00  7.1747E-03  0.0000E+00  1.7871E-02  0.0000E+00  0.0000E+00  0.0000E+00  0.0000E+00  0.0000E+00
 26  0.0000E+00  7.0204E-02  2.6091E-01  8.6362E-02  5.0903E-02  1.6616E-01  8.1600E-02  9.3773E-02  2.5926E-01
 27  4.1701E+00  3.4531E+00  3.4091E+00  3.5299E+00  4.1441E+00  3.6842E+00  3.8125E+00  3.2931E+00  3.3350E+00
 28  1.5868E+01  1.3678E+01  1.4541E+01  1.3811E+01  1.3959E+01  1.4255E+01  1.3566E+01  1.3736E+01  1.3689E+01
 29  2.6421E+01  2.8800E+01  2.8404E+01  2.9352E+01  2.8206E+01  2.8704E+01  2.8732E+01  2.8864E+01  2.8877E+01
 30  2.7867E+01  2.8213E+01  2.7791E+01  2.7931E+01  2.7988E+01  2.7722E+01  2.8071E+01  2.8002E+01  2.8684E+01
 31  0.0000E+00  1.1254E-04  0.0000E+00  3.8025E-04  0.0000E+00  2.6399E-04  4.7842E-05  0.0000E+00  0.0000E+00
 32  0.0000E+00  1.0671E-04  1.9039E-04  1.5601E-04  3.2549E-04  5.7318E-05  0.0000E+00  1.2084E-04  1.7389E-04
 33  0.0000E+00  3.1636E-05  4.6487E-05  5.5117E-06  7.3618E-05  0.0000E+00  0.0000E+00  1.1009E-04  0.0000E+00
