###################################################################
## OUTPUT of StarlightChains_v04.for    [Cid@UFSC - 01/Apr/2007] ##
###################################################################

## Some input info
NGC6528_b_1.cxt                          [arq_obs]
Base.BC03.N                              [arq_base]
NGC6528_b_1.msk                          [arq_masks]
StCv04.C11.config                        [arq_config]
   45                                    [N_base]
    0                                    [N_YAV_components = # of components with extra extinction!]
    0                                    [i_FitPowerLaw (1/0 = Yes/No)]
-9.99                                    [alpha_PowerLaw]
CCM                                      [red_law_option]
 1.458241                                [q_norm = A(l_norm)/A(V)]

## (Re)Sampling Parameters
 3359.00                                 [l_ini (A)]
 6428.00                                 [l_fin (A)]
    1.00                                 [dl    (A)]     (OBS: dl_cushion =    50.00 A)

## Normalization info
 4020.00                                 [l_norm (A) - for base]
 4010.00                                 [llow_norm (A) - window for f_obs]
 4060.00                                 [lupp_norm (A) - window for f_obs]
2.920007E-15                             [fobs_norm (in input units)]

## S/N
 4730.00                                 [llow_SN (A) - window for S/N]
 4780.00                                 [lupp_SN (A) - window for S/N]
  27.543                                 [S/N in S/N window]
  15.038                                 [S/N in norm. window]
 201.971                                 [S/N_err in S/N window]
 110.275                                 [S/N_err in norm. window]
  1.0000                                 [fscale_chi2]

## etc...
  2147483604                             [idum_orig]
  3069                                   [NOl_eff]
   798                                   [Nl_eff]
  2271    NSIGMA                         [Ntot_cliped & clip_method]
  1294440                                [Nglobal_steps]
   7                                     [N_chains]
  15                                     [NEX0s_base = N_base in EX0s-fits]
 0   0   1      129   2.0   2.622E+02    [Clip-Bug, RC-Crash & Burn-In warning-flags, n_censored_weights, wei_nsig_threshold & wei_limit]
    12     12.013     12.009      0.004  [idt_all, wdt_TotTime, wdt_UsrTime & wdt_SysTime (sec)]

## Synthesis Results - Best model ##

 2.43931E+00                             [chi2/Nl_eff]
     1.72362                             [adev (%)]

    96.33741                             [sum-of-x (%)]
 2.31961E-14                             [Flux_tot (units of input spectrum!)]
 1.66277E-09                             [Mini_tot (???)]
 8.40679E-10                             [Mcor_tot (???)]

 -32.06                                  [v0_min  (km/s)]
  83.00                                  [vd_min  (km/s)]
 1.5708                                  [AV_min  (mag)]
 0.0000                                  [YAV_min (mag)]

# j     x_j(%)      Mini_j(%)     Mcor_j(%)     age_j(yr)     Z_j      (L/M)_j    YAV?  Mstars   component_j        a/Fe...       SSP_chi2r SSP_adev(%)   SSP_AV   SSP_x(%)
  1      0.0000     0.0000E+00    0.0000E+00    1.000000E+06  0.00400  1.114E-02    0   1.0000   age020_m42            0.0000     6.8482E+03    60.9655   4.0000   119.1828
  2      5.4557     1.9397E-03    3.8361E-03    3.160000E+06  0.00400  4.073E-02    0   0.9999   age045_m42            0.0000     1.6518E+03    30.3907   4.0000   116.1715
  3      0.9312     5.3213E-04    9.9860E-04    5.010000E+06  0.00400  2.534E-02    0   0.9488   age055_m42            0.0000     3.2640E+03    44.0687   4.0000   119.3702
  4      4.0782     4.6463E-03    8.1441E-03    1.000000E+07  0.00400  1.271E-02    0   0.8862   age070_m42            0.0000     6.6860E+02    22.0665   4.0000    99.5720
  5      2.4153     6.8985E-03    1.1153E-02    2.512000E+07  0.00400  5.070E-03    0   0.8174   age090_m42            0.0000     5.1486E+02    18.6884   4.0000    96.9198
  6      0.0000     0.0000E+00    0.0000E+00    4.000000E+07  0.00400  3.505E-03    0   0.7851   age104_m42            0.0000     3.7560E+02    14.3236   3.8652    93.9849
  7      0.0000     0.0000E+00    0.0000E+00    1.015200E+08  0.00400  2.268E-03    0   0.7207   age116_m42            0.0000     4.8631E+02    15.0412   4.0000    99.9460
  8      0.0000     0.0000E+00    0.0000E+00    2.861200E+08  0.00400  1.079E-03    0   0.6613   age125_m42            0.0000     4.6519E+02    14.8063   3.5551   100.1043
  9      0.0000     0.0000E+00    0.0000E+00    6.405400E+08  0.00400  5.077E-04    0   0.6197   age132_m42            0.0000     4.7753E+02    15.2016   3.1829   104.4268
 10      0.0000     0.0000E+00    0.0000E+00    9.047900E+08  0.00400  3.535E-04    0   0.6024   age135_m42            0.0000     3.7200E+02    13.0586   2.9394   103.8634
 11      0.0000     0.0000E+00    0.0000E+00    1.434000E+09  0.00400  1.910E-04    0   0.5716   age139_m42            0.0000     1.9839E+02     9.3924   2.4419   101.9615
 12      1.2155     1.7927E-01    1.9370E-01    2.500000E+09  0.00400  9.818E-05    0   0.5463   age150_m42            0.0000     9.2407E+01     5.8257   2.1664    97.6258
 13      4.7709     1.4643E+00    1.5142E+00    5.000000E+09  0.00400  4.718E-05    0   0.5228   age161_m42            0.0000     5.0472E+01     4.1556   1.9860    94.8651
 14      7.0279     4.6154E+00    4.5461E+00    1.100000E+10  0.00400  2.205E-05    0   0.4980   age185_m42            0.0000     2.4121E+01     3.5304   1.7517    92.2001
 15      5.4997     4.2294E+00    4.1215E+00    1.300000E+10  0.00400  1.883E-05    0   0.4927   age193_m42            0.0000     2.2705E+01     3.5419   1.7348    92.0473
 16      0.0000     0.0000E+00    0.0000E+00    1.000000E+06  0.02000  1.989E-02    0   1.0000   age020_m62            0.0000     6.5342E+03    59.6896   4.0000   119.7426
 17      0.0000     0.0000E+00    0.0000E+00    3.160000E+06  0.02000  3.772E-02    0   0.9858   age045_m62            0.0000     5.5404E+03    56.2705   4.0000   120.8359
 18      1.6686     7.4878E-04    1.3835E-03    5.010000E+06  0.02000  3.227E-02    0   0.9342   age055_m62            0.0000     2.6028E+03    39.2767   4.0000   119.7104
 19      1.2347     1.7685E-03    3.0611E-03    1.000000E+07  0.02000  1.011E-02    0   0.8751   age070_m62            0.0000     8.5133E+02    25.2703   4.0000    95.2016
 20      0.0000     0.0000E+00    0.0000E+00    2.512000E+07  0.02000  4.206E-03    0   0.8099   age090_m62            0.0000     6.6622E+02    22.6142   4.0000    94.6161
 21      0.0000     0.0000E+00    0.0000E+00    4.000000E+07  0.02000  3.373E-03    0   0.7799   age104_m62            0.0000     4.2778E+02    15.3980   4.0000    98.4786
 22      0.0000     0.0000E+00    0.0000E+00    1.015200E+08  0.02000  1.878E-03    0   0.7221   age116_m62            0.0000     4.7089E+02    14.2852   4.0000   100.9570
 23      0.0000     0.0000E+00    0.0000E+00    2.861200E+08  0.02000  8.869E-04    0   0.6700   age125_m62            0.0000     5.9025E+02    17.2525   3.5825   104.6844
 24      0.0000     0.0000E+00    0.0000E+00    6.405400E+08  0.02000  3.657E-04    0   0.6322   age132_m62            0.0000     4.0295E+02    13.7984   2.9549   106.2985
 25      0.0000     0.0000E+00    0.0000E+00    9.047900E+08  0.02000  2.312E-04    0   0.6152   age135_m62            0.0000     2.6254E+02    10.8571   2.5808   105.4694
 26      0.0000     0.0000E+00    0.0000E+00    1.434000E+09  0.02000  1.168E-04    0   0.5865   age139_m62            0.0000     9.8326E+01     6.3598   2.1523   100.5722
 27      0.0000     0.0000E+00    0.0000E+00    2.500000E+09  0.02000  5.505E-05    0   0.5610   age150_m62            0.0000     3.7780E+01     4.5651   1.7969    97.7034
 28      0.0000     0.0000E+00    0.0000E+00    5.000000E+09  0.02000  2.596E-05    0   0.5353   age161_m62            0.0000     3.8256E+01     5.6770   1.5086    96.6714
 29     21.0122     2.6028E+01    2.6271E+01    1.100000E+10  0.02000  1.169E-05    0   0.5103   age185_m62            0.0000     8.8525E+01     8.3243   1.1958    96.6815
 30     36.0420     5.3855E+01    5.3760E+01    1.300000E+10  0.02000  9.691E-06    0   0.5047   age193_m62            0.0000     1.0106E+02     8.7768   1.1569    96.6877
 31      0.0000     0.0000E+00    0.0000E+00    1.000000E+06  0.05000  2.651E-02    0   0.9998   age020_m72            0.0000     6.5567E+03    59.4826   4.0000   121.2594
 32      0.9611     2.8893E-04    5.4730E-04    3.160000E+06  0.05000  4.817E-02    0   0.9577   age045_m72            0.0000     4.6155E+03    51.2965   4.0000   123.0356
 33      0.0000     0.0000E+00    0.0000E+00    5.010000E+06  0.05000  3.101E-02    0   0.9147   age055_m72            0.0000     2.5960E+03    41.0228   4.0000   117.7563
 34      0.0000     0.0000E+00    0.0000E+00    1.000000E+07  0.05000  8.954E-03    0   0.8524   age070_m72            0.0000     3.7646E+03    47.2918   4.0000   122.1281
 35      0.0000     0.0000E+00    0.0000E+00    2.512000E+07  0.05000  4.207E-03    0   0.7902   age090_m72            0.0000     1.7898E+03    33.1781   4.0000   117.8168
 36      0.0000     0.0000E+00    0.0000E+00    4.000000E+07  0.05000  3.198E-03    0   0.7618   age104_m72            0.0000     6.8681E+02    16.9564   4.0000   110.8414
 37      0.0000     0.0000E+00    0.0000E+00    1.015200E+08  0.05000  1.716E-03    0   0.7092   age116_m72            0.0000     5.3013E+02    15.0461   4.0000   104.9695
 38      0.0000     0.0000E+00    0.0000E+00    2.861200E+08  0.05000  7.047E-04    0   0.6618   age125_m72            0.0000     5.3595E+02    16.3701   3.4190   104.1302
 39      0.0000     0.0000E+00    0.0000E+00    6.405400E+08  0.05000  2.633E-04    0   0.6253   age132_m72            0.0000     2.9413E+02    11.7110   2.6127   104.9300
 40      0.0000     0.0000E+00    0.0000E+00    9.047900E+08  0.05000  1.484E-04    0   0.6088   age135_m72            0.0000     1.2489E+02     7.7216   2.1368   100.1368
 41      0.0000     0.0000E+00    0.0000E+00    1.434000E+09  0.05000  7.827E-05    0   0.5847   age139_m72            0.0000     5.5362E+01     5.9348   1.7681    96.6077
 42      0.5776     2.2250E-01    2.4570E-01    2.500000E+09  0.05000  3.759E-05    0   0.5583   age150_m72            0.0000     4.9153E+01     6.4139   1.4566    95.8152
 43      0.0000     0.0000E+00    0.0000E+00    5.000000E+09  0.05000  1.548E-05    0   0.5320   age161_m72            0.0000     1.1814E+02     8.8419   1.0948    94.1463
 44      0.0000     0.0000E+00    0.0000E+00    1.100000E+10  0.05000  6.532E-06    0   0.5070   age185_m72            0.0000     2.5088E+02    12.3925   0.8076    91.5192
 45      3.4468     9.3889E+00    9.3186E+00    1.300000E+10  0.05000  5.316E-06    0   0.5018   age193_m72            0.0000     3.1359E+02    13.7999   0.7275    90.5708


## Synthesis Results - Average & Chains ##

# j      x_j: min, <> & last-chain-values for 1 ...  7 chains
  1      0.0000      0.1085      0.1156      0.0673      0.1565      0.0000      0.1500      0.0504      0.0872
  2      5.4557      4.8296      4.9883      4.9187      4.9730      4.9179      4.9437      5.0587      4.8200
  3      0.9312      0.8371      0.8197      0.9416      0.8715      0.8462      0.8232      0.7955      0.8877
  4      4.0782      3.6890      3.7456      3.7826      3.7394      3.6655      3.7207      3.6457      3.7723
  5      2.4153      2.1415      2.2973      2.1604      2.0916      2.0862      2.2067      2.0720      2.0723
  6      0.0000      0.0341      0.0000      0.0000      0.0000      0.0000      0.0000      0.0000      0.0231
  7      0.0000      0.0150      0.0496      0.0000      0.0000      0.0000      0.0563      0.0000      0.0000
  8      0.0000      0.0158      0.0000      0.0000      0.0000      0.0000      0.0000      0.0070      0.0000
  9      0.0000      0.4981      0.5995      0.6530      0.6045      0.5179      0.5087      0.4726      0.6500
 10      0.0000      0.0452      0.0408      0.0000      0.0000      0.0000      0.0000      0.0052      0.0146
 11      0.0000      0.0469      0.0000      0.0000      0.0000      0.1400      0.0191      0.0000      0.0000
 12      1.2155      0.7590      0.8175      0.9440      0.8926      0.6653      0.8948      0.8346      0.6956
 13      4.7709      4.3315      4.3895      4.5522      3.6884      4.2106      4.4313      4.3625      4.0782
 14      7.0279      5.8844      6.1297      5.9343      5.9038      6.3017      5.8492      5.9385      5.9991
 15      5.4997      6.7869      6.6283      6.6677      6.8561      6.7217      6.8524      6.7740      6.7421
 16      0.0000      0.4345      0.3682      0.3334      0.3990      0.4237      0.4953      0.4876      0.4169
 17      0.0000      0.0081      0.0000      0.0000      0.0030      0.0000      0.0000      0.0000      0.0061
 18      1.6686      1.4165      1.4818      1.3748      1.5490      1.4467      1.4114      1.4156      1.6160
 19      1.2347      1.3353      1.2298      1.3170      1.2270      1.3750      1.2145      1.3880      1.3563
 20      0.0000      0.0136      0.0000      0.0000      0.0000      0.0000      0.0000      0.0000      0.0000
 21      0.0000      0.0174      0.0000      0.0000      0.0060      0.0000      0.0758      0.0966      0.0000
 22      0.0000      0.0200      0.0000      0.0000      0.1088      0.0000      0.2228      0.0000      0.0000
 23      0.0000      0.0156      0.0000      0.0178      0.0090      0.0000      0.0000      0.0000      0.0331
 24      0.0000      0.0136      0.0000      0.0000      0.0113      0.0915      0.0000      0.0011      0.0000
 25      0.0000      0.0330      0.0000      0.0000      0.2461      0.0000      0.0000      0.0288      0.0005
 26      0.0000      0.0359      0.0000      0.0000      0.0000      0.0000      0.0000      0.0000      0.0791
 27      0.0000      0.1964      0.0000      0.0000      0.2153      0.1907      0.0000      0.4079      0.2237
 28      0.0000      0.5090      0.4803      0.1713      0.8918      0.4305      0.3109      0.3492      1.5636
 29     21.0122     20.9509     20.9185     21.0009     21.0368     20.6959     21.0944     21.0748     21.0358
 30     36.0420     35.5966     35.8932     35.5043     35.7265     35.5247     36.0086     35.4829     34.9031
 31      0.0000      0.0123      0.0000      0.0000      0.0000      0.2076      0.0000      0.0000      0.0000
 32      0.9611      1.2314      1.2579      1.2502      1.2730      1.1434      1.1827      1.1824      1.1567
 33      0.0000      0.0203      0.0043      0.1446      0.0000      0.0000      0.0000      0.0000      0.0188
 34      0.0000      0.0172      0.0000      0.0000      0.0000      0.0000      0.0000      0.0000      0.0000
 35      0.0000      0.0124      0.0000      0.0011      0.0000      0.0000      0.0000      0.0000      0.0000
 36      0.0000      0.0139      0.0000      0.0000      0.0000      0.0256      0.0000      0.0363      0.0000
 37      0.0000      0.0146      0.0000      0.0000      0.0000      0.0000      0.0000      0.0001      0.0000
 38      0.0000      0.0095      0.0000      0.0000      0.0000      0.0518      0.0000      0.0000      0.0000
 39      0.0000      0.0258      0.0509      0.0000      0.0124      0.0000      0.0000      0.0000      0.0000
 40      0.0000      0.0518      0.0000      0.0000      0.0000      0.0193      0.0012      0.0000      0.0000
 41      0.0000      0.1159      0.0380      0.0000      0.0000      0.4908      0.0000      0.3542      0.0000
 42      0.5776      0.2860      0.3591      0.8260      0.0116      0.4016      0.0000      0.2558      0.1268
 43      0.0000      0.2001      0.0000      0.1603      0.1705      0.1760      0.0759      0.1743      0.3019
 44      0.0000      0.0515      0.0000      0.0430      0.0000      0.0000      0.1653      0.0037      0.0000
 45      3.4468      3.6761      3.6751      3.5856      3.7106      3.5692      3.6282      3.5735      3.6410

# j      m_j: min, <> & last-chain-values for 1 ...  7 chains
  1  0.0000E+00  2.7748E-04  2.9552E-04  1.7280E-04  3.9936E-04  0.0000E+00  3.8157E-04  1.2954E-04  2.2422E-04
  2  3.8361E-03  3.3788E-03  3.4870E-03  3.4551E-03  3.4714E-03  3.4615E-03  3.4403E-03  3.5530E-03  3.3908E-03
  3  9.9860E-04  8.9323E-04  8.7399E-04  1.0088E-03  9.2786E-04  9.0842E-04  8.7373E-04  8.5219E-04  9.5246E-04
  4  8.1441E-03  7.3300E-03  7.4365E-03  7.5465E-03  7.4138E-03  7.3276E-03  7.3538E-03  7.2724E-03  7.5373E-03
  5  1.1153E-02  9.8390E-03  1.0546E-02  9.9662E-03  9.5887E-03  9.6434E-03  1.0085E-02  9.5573E-03  9.5740E-03
  6  0.0000E+00  2.1791E-04  0.0000E+00  0.0000E+00  0.0000E+00  0.0000E+00  0.0000E+00  0.0000E+00  1.4857E-04
  7  0.0000E+00  1.3613E-04  4.4873E-04  0.0000E+00  0.0000E+00  0.0000E+00  5.0714E-04  0.0000E+00  0.0000E+00
  8  0.0000E+00  2.7654E-04  0.0000E+00  0.0000E+00  0.0000E+00  0.0000E+00  0.0000E+00  1.2277E-04  0.0000E+00
  9  0.0000E+00  1.7327E-02  2.0835E-02  2.2807E-02  2.0982E-02  1.8125E-02  1.7602E-02  1.6505E-02  2.2736E-02
 10  0.0000E+00  2.1965E-03  1.9818E-03  0.0000E+00  0.0000E+00  0.0000E+00  0.0000E+00  2.5175E-04  7.1325E-04
 11  0.0000E+00  3.9998E-03  0.0000E+00  0.0000E+00  0.0000E+00  1.2015E-02  1.6236E-03  0.0000E+00  0.0000E+00
 12  1.9370E-01  1.2035E-01  1.2953E-01  1.5030E-01  1.4123E-01  1.0614E-01  1.4113E-01  1.3286E-01  1.1091E-01
 13  1.5142E+00  1.3678E+00  1.3850E+00  1.4433E+00  1.1622E+00  1.3377E+00  1.3919E+00  1.3830E+00  1.2950E+00
 14  4.5461E+00  3.7874E+00  3.9421E+00  3.8350E+00  3.7914E+00  4.0806E+00  3.7448E+00  3.8372E+00  3.8826E+00
 15  4.1215E+00  5.0608E+00  4.9385E+00  4.9921E+00  5.1011E+00  5.0426E+00  5.0825E+00  5.0710E+00  5.0553E+00
 16  0.0000E+00  6.2254E-04  5.2711E-04  4.7960E-04  5.7041E-04  6.1078E-04  7.0592E-04  7.0135E-04  6.0064E-04
 17  0.0000E+00  6.0551E-06  0.0000E+00  0.0000E+00  2.2088E-06  0.0000E+00  0.0000E+00  0.0000E+00  4.5361E-06
 18  1.3835E-03  1.1687E-03  1.2215E-03  1.1388E-03  1.2751E-03  1.2008E-03  1.1582E-03  1.1724E-03  1.3406E-03
 19  3.0611E-03  3.2939E-03  3.0311E-03  3.2619E-03  3.0200E-03  3.4125E-03  2.9798E-03  3.4373E-03  3.3642E-03
 20  0.0000E+00  7.4634E-05  0.0000E+00  0.0000E+00  0.0000E+00  0.0000E+00  0.0000E+00  0.0000E+00  0.0000E+00
 21  0.0000E+00  1.1440E-04  0.0000E+00  0.0000E+00  3.9766E-05  0.0000E+00  4.9702E-04  6.3893E-04  0.0000E+00
 22  0.0000E+00  2.1954E-04  0.0000E+00  0.0000E+00  1.1890E-03  0.0000E+00  2.4282E-03  0.0000E+00  0.0000E+00
 23  0.0000E+00  3.3542E-04  0.0000E+00  3.8559E-04  1.9320E-04  0.0000E+00  0.0000E+00  0.0000E+00  7.1728E-04
 24  0.0000E+00  6.7074E-04  0.0000E+00  0.0000E+00  5.5412E-04  4.5367E-03  0.0000E+00  5.3386E-05  0.0000E+00
 25  0.0000E+00  2.5038E-03  0.0000E+00  0.0000E+00  1.8620E-02  0.0000E+00  0.0000E+00  2.1920E-03  3.9029E-05
 26  0.0000E+00  5.1338E-03  0.0000E+00  0.0000E+00  0.0000E+00  0.0000E+00  0.0000E+00  0.0000E+00  1.1375E-02
 27  0.0000E+00  5.7026E-02  0.0000E+00  0.0000E+00  6.2398E-02  5.5706E-02  0.0000E+00  1.1892E-01  6.5322E-02
 28  0.0000E+00  2.9909E-01  2.8202E-01  1.0109E-01  5.2287E-01  2.5453E-01  1.8172E-01  2.0604E-01  9.2393E-01
 29  2.6271E+01  2.6063E+01  2.6002E+01  2.6231E+01  2.6112E+01  2.5903E+01  2.6103E+01  2.6320E+01  2.6314E+01
 30  5.3760E+01  5.2831E+01  5.3228E+01  5.2907E+01  5.2906E+01  5.3045E+01  5.3159E+01  5.2869E+01  5.2089E+01
 31  0.0000E+00  1.3273E-05  0.0000E+00  0.0000E+00  0.0000E+00  2.2453E-04  0.0000E+00  0.0000E+00  0.0000E+00
 32  5.4730E-04  6.9767E-04  7.1215E-04  7.1121E-04  7.1964E-04  6.5179E-04  6.6654E-04  6.7258E-04  6.5899E-04
 33  0.0000E+00  1.7103E-05  3.5856E-06  1.2201E-04  0.0000E+00  0.0000E+00  0.0000E+00  0.0000E+00  1.5884E-05
