###################################################################
## OUTPUT of StarlightChains_v04.for    [Cid@UFSC - 01/Apr/2007] ##
###################################################################

## Some input info
NGC6352_a_1.cxt                          [arq_obs]
Base.BC03.N                              [arq_base]
NGC6352_a_1.msk                          [arq_masks]
StCv04.C11.config                        [arq_config]
   45                                    [N_base]
    0                                    [N_YAV_components = # of components with extra extinction!]
    0                                    [i_FitPowerLaw (1/0 = Yes/No)]
-9.99                                    [alpha_PowerLaw]
CCM                                      [red_law_option]
 1.458241                                [q_norm = A(l_norm)/A(V)]

## (Re)Sampling Parameters
 3359.00                                 [l_ini (A)]
 6428.00                                 [l_fin (A)]
    1.00                                 [dl    (A)]     (OBS: dl_cushion =    50.00 A)

## Normalization info
 4020.00                                 [l_norm (A) - for base]
 4010.00                                 [llow_norm (A) - window for f_obs]
 4060.00                                 [lupp_norm (A) - window for f_obs]
4.889122E-15                             [fobs_norm (in input units)]

## S/N
 4730.00                                 [llow_SN (A) - window for S/N]
 4780.00                                 [lupp_SN (A) - window for S/N]
  33.884                                 [S/N in S/N window]
  22.882                                 [S/N in norm. window]
 274.330                                 [S/N_err in S/N window]
 185.259                                 [S/N_err in norm. window]
  1.0000                                 [fscale_chi2]

## etc...
  2147483613                             [idum_orig]
  3060                                   [NOl_eff]
   617                                   [Nl_eff]
  2443    NSIGMA                         [Ntot_cliped & clip_method]
   945560                                [Nglobal_steps]
   7                                     [N_chains]
  11                                     [NEX0s_base = N_base in EX0s-fits]
 0   0   1      257   2.0   3.884E+02    [Clip-Bug, RC-Crash & Burn-In warning-flags, n_censored_weights, wei_nsig_threshold & wei_limit]
    10      9.832      9.828      0.004  [idt_all, wdt_TotTime, wdt_UsrTime & wdt_SysTime (sec)]

## Synthesis Results - Best model ##

 2.80320E+00                             [chi2/Nl_eff]
     1.18183                             [adev (%)]

   100.49915                             [sum-of-x (%)]
 1.11524E-14                             [Flux_tot (units of input spectrum!)]
 4.07574E-10                             [Mini_tot (???)]
 2.09804E-10                             [Mcor_tot (???)]

  16.11                                  [v0_min  (km/s)]
  59.65                                  [vd_min  (km/s)]
 0.6103                                  [AV_min  (mag)]
 0.0000                                  [YAV_min (mag)]

# j     x_j(%)      Mini_j(%)     Mcor_j(%)     age_j(yr)     Z_j      (L/M)_j    YAV?  Mstars   component_j        a/Fe...       SSP_chi2r SSP_adev(%)   SSP_AV   SSP_x(%)
  1      0.9603     2.3471E-03    4.5595E-03    1.000000E+06  0.00400  1.114E-02    0   1.0000   age020_m42            0.0000     2.1291E+03    26.5206   4.0000    93.8931
  2      1.4466     9.6700E-04    1.8783E-03    3.160000E+06  0.00400  4.073E-02    0   0.9999   age045_m42            0.0000     6.6991E+02    12.8706   3.7081    93.1048
  3      3.7146     3.9911E-03    7.3564E-03    5.010000E+06  0.00400  2.534E-02    0   0.9488   age055_m42            0.0000     8.7686E+02    16.3630   4.0000    89.8531
  4      0.0000     0.0000E+00    0.0000E+00    1.000000E+07  0.00400  1.271E-02    0   0.8862   age070_m42            0.0000     9.0436E+02    16.0287   3.2993    91.7421
  5      0.0000     0.0000E+00    0.0000E+00    2.512000E+07  0.00400  5.070E-03    0   0.8174   age090_m42            0.0000     8.1887E+02    15.3114   3.1687    93.4314
  6      0.0000     0.0000E+00    0.0000E+00    4.000000E+07  0.00400  3.505E-03    0   0.7851   age104_m42            0.0000     6.3731E+02    13.2278   2.8708    95.9459
  7      0.0000     0.0000E+00    0.0000E+00    1.015200E+08  0.00400  2.268E-03    0   0.7207   age116_m42            0.0000     8.9306E+02    11.8273   2.9727   101.6823
  8      0.0000     0.0000E+00    0.0000E+00    2.861200E+08  0.00400  1.079E-03    0   0.6613   age125_m42            0.0000     8.7637E+02    11.5470   2.4766   103.9783
  9      0.0000     0.0000E+00    0.0000E+00    6.405400E+08  0.00400  5.077E-04    0   0.6197   age132_m42            0.0000     8.8023E+02    11.7949   2.1190   107.8733
 10      0.0000     0.0000E+00    0.0000E+00    9.047900E+08  0.00400  3.535E-04    0   0.6024   age135_m42            0.0000     6.4295E+02     9.9965   1.8700   107.4385
 11      0.0000     0.0000E+00    0.0000E+00    1.434000E+09  0.00400  1.910E-04    0   0.5716   age139_m42            0.0000     3.0481E+02     6.7089   1.3384   106.3885
 12      4.4671     1.2388E+00    1.3147E+00    2.500000E+09  0.00400  9.818E-05    0   0.5463   age150_m42            0.0000     9.1261E+01     3.5772   1.0337   102.6903
 13     14.4975     8.3663E+00    8.4969E+00    5.000000E+09  0.00400  4.718E-05    0   0.5228   age161_m42            0.0000     2.9778E+01     2.3393   0.8477   100.0410
 14     35.7706     4.4169E+01    4.2730E+01    1.100000E+10  0.00400  2.205E-05    0   0.4980   age185_m42            0.0000     1.3642E+01     1.7737   0.5783    98.2130
 15      1.9757     2.8568E+00    2.7343E+00    1.300000E+10  0.00400  1.883E-05    0   0.4927   age193_m42            0.0000     1.6933E+01     1.9547   0.5586    98.1703
 16      0.0000     0.0000E+00    0.0000E+00    1.000000E+06  0.02000  1.989E-02    0   1.0000   age020_m62            0.0000     1.9947E+03    25.4411   4.0000    94.1212
 17      0.0000     0.0000E+00    0.0000E+00    3.160000E+06  0.02000  3.772E-02    0   0.9858   age045_m62            0.0000     1.6030E+03    23.0736   4.0000    93.6265
 18      0.0000     0.0000E+00    0.0000E+00    5.010000E+06  0.02000  3.227E-02    0   0.9342   age055_m62            0.0000     8.2834E+02    15.0191   3.9521    90.3139
 19      0.0000     0.0000E+00    0.0000E+00    1.000000E+07  0.02000  1.011E-02    0   0.8751   age070_m62            0.0000     1.3819E+03    20.5402   3.2468    90.1743
 20      0.0000     0.0000E+00    0.0000E+00    2.512000E+07  0.02000  4.206E-03    0   0.8099   age090_m62            0.0000     1.0664E+03    18.2202   3.1906    90.7563
 21      0.0000     0.0000E+00    0.0000E+00    4.000000E+07  0.02000  3.373E-03    0   0.7799   age104_m62            0.0000     7.3767E+02    13.4580   3.0806    97.2100
 22      0.0000     0.0000E+00    0.0000E+00    1.015200E+08  0.02000  1.878E-03    0   0.7221   age116_m62            0.0000     9.0201E+02    11.9446   2.9741   102.8284
 23      0.0000     0.0000E+00    0.0000E+00    2.861200E+08  0.02000  8.869E-04    0   0.6700   age125_m62            0.0000     1.2007E+03    13.5498   2.4930   108.6974
 24      0.0000     0.0000E+00    0.0000E+00    6.405400E+08  0.02000  3.657E-04    0   0.6322   age132_m62            0.0000     7.6812E+02    10.4397   1.8161   111.8289
 25      0.0000     0.0000E+00    0.0000E+00    9.047900E+08  0.02000  2.312E-04    0   0.6152   age135_m62            0.0000     4.4544E+02     7.8012   1.4338   111.0996
 26      0.0000     0.0000E+00    0.0000E+00    1.434000E+09  0.02000  1.168E-04    0   0.5865   age139_m62            0.0000     1.3053E+02     4.2173   0.9798   106.5537
 27      0.0000     0.0000E+00    0.0000E+00    2.500000E+09  0.02000  5.505E-05    0   0.5610   age150_m62            0.0000     3.9683E+01     2.6643   0.5903   104.2086
 28     25.0807     2.6305E+01    2.7354E+01    5.000000E+09  0.02000  2.596E-05    0   0.5353   age161_m62            0.0000     8.4247E+01     4.2374   0.2573   104.2998
 29      5.4419     1.2674E+01    1.2565E+01    1.100000E+10  0.02000  1.169E-05    0   0.5103   age185_m62            0.0000     2.2451E+02     6.7727  -0.1069   105.8010
 30      0.0000     0.0000E+00    0.0000E+00    1.300000E+10  0.02000  9.691E-06    0   0.5047   age193_m62            0.0000     2.5747E+02     7.2110  -0.1533   106.0768
 31      0.0000     0.0000E+00    0.0000E+00    1.000000E+06  0.05000  2.651E-02    0   0.9998   age020_m72            0.0000     1.9534E+03    25.0712   4.0000    95.1272
 32      0.0000     0.0000E+00    0.0000E+00    3.160000E+06  0.05000  4.817E-02    0   0.9577   age045_m72            0.0000     1.2138E+03    19.8993   4.0000    93.8297
 33      0.0000     0.0000E+00    0.0000E+00    5.010000E+06  0.05000  3.101E-02    0   0.9147   age055_m72            0.0000     9.3502E+02    16.6399   3.9260    89.7744
 34      0.0000     0.0000E+00    0.0000E+00    1.000000E+07  0.05000  8.954E-03    0   0.8524   age070_m72            0.0000     9.3043E+02    17.3701   4.0000    92.4601
 35      0.0000     0.0000E+00    0.0000E+00    2.512000E+07  0.05000  4.207E-03    0   0.7902   age090_m72            0.0000     6.9272E+02    13.6398   3.7524    93.4137
 36      0.0000     0.0000E+00    0.0000E+00    4.000000E+07  0.05000  3.198E-03    0   0.7618   age104_m72            0.0000     7.4589E+02    11.3743   3.3126    99.4331
 37      0.0000     0.0000E+00    0.0000E+00    1.015200E+08  0.05000  1.716E-03    0   0.7092   age116_m72            0.0000     9.7391E+02    12.2918   3.0605   102.8925
 38      0.0000     0.0000E+00    0.0000E+00    2.861200E+08  0.05000  7.047E-04    0   0.6618   age125_m72            0.0000     1.0855E+03    12.5191   2.2889   108.9923
 39      0.0000     0.0000E+00    0.0000E+00    6.405400E+08  0.05000  2.633E-04    0   0.6253   age132_m72            0.0000     5.3144E+02     8.3336   1.4411   111.1522
 40      0.0000     0.0000E+00    0.0000E+00    9.047900E+08  0.05000  1.484E-04    0   0.6088   age135_m72            0.0000     1.8389E+02     5.0700   0.9350   106.9042
 41      2.1034     7.3170E-01    8.3111E-01    1.434000E+09  0.05000  7.827E-05    0   0.5847   age139_m72            0.0000     7.8446E+01     3.7933   0.5216   104.1214
 42      5.0408     3.6511E+00    3.9599E+00    2.500000E+09  0.05000  3.759E-05    0   0.5583   age150_m72            0.0000     1.0666E+02     4.8204   0.1833   103.8654
 43      0.0000     0.0000E+00    0.0000E+00    5.000000E+09  0.05000  1.548E-05    0   0.5320   age161_m72            0.0000     2.3988E+02     6.6999  -0.2411   103.9096
 44      0.0000     0.0000E+00    0.0000E+00    1.100000E+10  0.05000  6.532E-06    0   0.5070   age185_m72            0.0000     4.9975E+02     9.3866  -0.6118   103.5957
 45      0.0000     0.0000E+00    0.0000E+00    1.300000E+10  0.05000  5.316E-06    0   0.5018   age193_m72            0.0000     6.2393E+02    10.4803  -0.7261   103.5945


## Synthesis Results - Average & Chains ##

# j      x_j: min, <> & last-chain-values for 1 ...  7 chains
  1      0.9603      0.7506      0.9060      0.7094      0.7989      0.8005      0.7092      0.7809      0.7580
  2      1.4466      1.1145      1.0837      1.1380      1.1102      1.0667      1.0407      1.1174      1.1702
  3      3.7146      3.7173      3.3505      3.7240      3.8072      3.7527      3.8395      3.8837      3.5995
  4      0.0000      0.4791      0.6007      0.4664      0.3599      0.3967      0.4680      0.4845      0.5908
  5      0.0000      0.0203      0.0053      0.0000      0.0174      0.0000      0.0059      0.0006      0.0000
  6      0.0000      0.0087      0.0650      0.0000      0.0000      0.0000      0.0034      0.0000      0.0000
  7      0.0000      0.0214      0.1163      0.0000      0.0512      0.0000      0.0000      0.0944      0.1028
  8      0.0000      0.0205      0.0000      0.0549      0.0000      0.0000      0.0000      0.0000      0.0000
  9      0.0000      0.0310      0.0443      0.1661      0.0037      0.1939      0.0720      0.0000      0.0000
 10      0.0000      0.0529      0.2651      0.0206      0.0000      0.0000      0.0000      0.0000      0.0000
 11      0.0000      0.0590      0.0000      0.0000      0.4012      0.1058      0.1517      0.0000      0.1505
 12      4.4671      3.2777      3.2537      3.4664      3.5019      3.2139      3.2097      3.3060      3.5267
 13     14.4975     14.0248     14.4143     13.6834     14.4270     14.9904     13.6448     14.1699     14.2059
 14     35.7706     36.2482     35.5566     36.8917     36.7512     36.6037     36.2754     36.4923     36.5084
 15      1.9757      1.2772      2.0409      2.0615      0.9748      0.9201      1.5569      1.3211      1.1661
 16      0.0000      0.0204      0.0000      0.0000      0.0000      0.0000      0.1244      0.0000      0.0000
 17      0.0000      0.0205      0.0362      0.0000      0.0000      0.0000      0.0000      0.0016      0.0000
 18      0.0000      0.0195      0.0000      0.0000      0.0587      0.0000      0.1260      0.0000      0.0000
 19      0.0000      0.0270      0.0266      0.0000      0.0000      0.0000      0.0000      0.0000      0.0000
 20      0.0000      0.0396      0.1573      0.0000      0.0000      0.0414      0.0188      0.0000      0.0000
 21      0.0000      0.0269      0.0000      0.0000      0.0000      0.0787      0.0146      0.0000      0.0000
 22      0.0000      0.0184      0.0130      0.0000      0.0000      0.0249      0.0000      0.0000      0.0000
 23      0.0000      0.0162      0.0226      0.0000      0.0000      0.0000      0.0198      0.0000      0.0000
 24      0.0000      0.0283      0.0000      0.0000      0.0000      0.0000      0.0243      0.0000      0.0284
 25      0.0000      0.0330      0.0000      0.0000      0.0000      0.0000      0.0069      0.0722      0.0000
 26      0.0000      0.0937      0.1888      0.0972      0.1021      0.1120      0.2002      0.0803      0.0000
 27      0.0000      0.2475      0.0000      0.4857      0.2947      0.1634      0.0000      0.4017      0.0000
 28     25.0807     25.1598     24.9696     26.0740     24.6144     24.9977     25.5071     25.0676     25.3274
 29      5.4419      6.4069      6.0838      5.6369      6.1851      6.5417      6.2259      6.3958      6.3831
 30      0.0000      0.0833      0.0000      0.0000      0.3465      0.0000      0.0000      0.0000      0.0000
 31      0.0000      0.0102      0.0000      0.0107      0.0000      0.0000      0.0000      0.0000      0.1479
 32      0.0000      0.0158      0.0000      0.1133      0.0000      0.0000      0.0000      0.0000      0.0000
 33      0.0000      0.0333      0.0000      0.0000      0.0012      0.1112      0.0185      0.0000      0.0000
 34      0.0000      0.0130      0.0000      0.0000      0.0627      0.0000      0.0000      0.0000      0.0000
 35      0.0000      0.0078      0.0000      0.0000      0.0000      0.0000      0.0000      0.0000      0.0000
 36      0.0000      0.0221      0.0591      0.0000      0.0000      0.0000      0.0078      0.0000      0.0289
 37      0.0000      0.0231      0.0000      0.0000      0.0000      0.0000      0.0528      0.0000      0.0000
 38      0.0000      0.0155      0.0000      0.0000      0.0000      0.0000      0.0059      0.0857      0.0342
 39      0.0000      0.0533      0.0000      0.2122      0.0000      0.0000      0.1437      0.0106      0.0030
 40      0.0000      0.1060      0.0000      0.0047      0.0000      0.0000      0.0993      0.2181      0.0000
 41      2.1034      2.7183      2.5975      1.3880      2.3935      1.9576      2.7483      2.4530      2.5263
 42      5.0408      4.0465      4.3728      3.8271      4.1090      4.2553      4.0333      4.1206      4.1578
 43      0.0000      0.0889      0.1776      0.1444      0.1087      0.1980      0.2269      0.0000      0.0249
 44      0.0000      0.0279      0.1132      0.0000      0.0283      0.0000      0.0000      0.0284      0.0796
 45      0.0000      0.0905      0.0588      0.1636      0.0669      0.0435      0.0000      0.0000      0.0607

# j      m_j: min, <> & last-chain-values for 1 ...  7 chains
  1  4.5595E-03  3.4963E-03  4.2328E-03  3.2897E-03  3.7221E-03  3.7279E-03  3.3197E-03  3.6547E-03  3.5306E-03
  2  1.8783E-03  1.4198E-03  1.3846E-03  1.4431E-03  1.4147E-03  1.3585E-03  1.3322E-03  1.4302E-03  1.4906E-03
  3  7.3564E-03  7.2228E-03  6.5294E-03  7.2027E-03  7.3989E-03  7.2894E-03  7.4963E-03  7.5817E-03  6.9933E-03
  4  0.0000E+00  1.7334E-03  2.1797E-03  1.6799E-03  1.3026E-03  1.4348E-03  1.7017E-03  1.7612E-03  2.1373E-03
  5  0.0000E+00  1.6945E-04  4.4495E-05  0.0000E+00  1.4566E-04  0.0000E+00  4.9464E-05  5.0228E-06  0.0000E+00
  6  0.0000E+00  1.0055E-04  7.5778E-04  0.0000E+00  0.0000E+00  0.0000E+00  3.9361E-05  0.0000E+00  0.0000E+00
  7  0.0000E+00  3.5284E-04  1.9236E-03  0.0000E+00  8.4429E-04  0.0000E+00  0.0000E+00  1.5639E-03  1.6952E-03
  8  0.0000E+00  6.5299E-04  0.0000E+00  1.7393E-03  0.0000E+00  0.0000E+00  0.0000E+00  0.0000E+00  0.0000E+00
  9  0.0000E+00  1.9641E-03  2.8121E-03  1.0472E-02  2.3473E-04  1.2275E-02  4.5847E-03  0.0000E+00  0.0000E+00
 10  0.0000E+00  4.6788E-03  2.3509E-02  1.8143E-03  0.0000E+00  0.0000E+00  0.0000E+00  0.0000E+00  0.0000E+00
 11  0.0000E+00  9.1558E-03  0.0000E+00  0.0000E+00  6.2317E-02  1.6430E-02  2.3678E-02  0.0000E+00  2.3372E-02
 12  1.3147E+00  9.4640E-01  9.4228E-01  9.9635E-01  1.0114E+00  9.2773E-01  9.3128E-01  9.5912E-01  1.0182E+00
 13  8.4969E+00  8.0645E+00  8.3130E+00  7.8323E+00  8.2976E+00  8.6173E+00  7.8841E+00  8.1866E+00  8.1679E+00
 14  4.2730E+01  4.2482E+01  4.1795E+01  4.3040E+01  4.3081E+01  4.2887E+01  4.2721E+01  4.2971E+01  4.2784E+01
 15  2.7343E+00  1.7342E+00  2.7793E+00  2.7864E+00  1.3239E+00  1.2489E+00  2.1242E+00  1.8023E+00  1.5832E+00
 16  0.0000E+00  5.3118E-05  0.0000E+00  0.0000E+00  0.0000E+00  0.0000E+00  3.2625E-04  0.0000E+00  0.0000E+00
 17  0.0000E+00  2.7759E-05  4.9283E-05  0.0000E+00  0.0000E+00  0.0000E+00  0.0000E+00  2.2285E-06  0.0000E+00
 18  0.0000E+00  2.9327E-05  0.0000E+00  0.0000E+00  8.8133E-05  0.0000E+00  1.9015E-04  0.0000E+00  0.0000E+00
 19  0.0000E+00  1.2135E-04  1.1972E-04  0.0000E+00  0.0000E+00  0.0000E+00  0.0000E+00  0.0000E+00  0.0000E+00
 20  0.0000E+00  3.9549E-04  1.5759E-03  0.0000E+00  0.0000E+00  4.1328E-04  1.8919E-04  0.0000E+00  0.0000E+00
 21  0.0000E+00  3.2258E-04  0.0000E+00  0.0000E+00  0.0000E+00  9.4419E-04  1.7549E-04  0.0000E+00  0.0000E+00
 22  0.0000E+00  3.6758E-04  2.6062E-04  0.0000E+00  0.0000E+00  4.9738E-04  0.0000E+00  0.0000E+00  0.0000E+00
 23  0.0000E+00  6.3600E-04  8.8680E-04  0.0000E+00  0.0000E+00  0.0000E+00  7.8014E-04  0.0000E+00  0.0000E+00
 24  0.0000E+00  2.5402E-03  0.0000E+00  0.0000E+00  0.0000E+00  0.0000E+00  2.1928E-03  0.0000E+00  2.5449E-03
 25  0.0000E+00  4.5539E-03  0.0000E+00  0.0000E+00  0.0000E+00  0.0000E+00  9.5618E-04  1.0011E-02  0.0000E+00
 26  0.0000E+00  2.4424E-02  4.9342E-02  2.5218E-02  2.6622E-02  2.9182E-02  5.2414E-02  2.1020E-02  0.0000E+00
 27  0.0000E+00  1.3088E-01  0.0000E+00  2.5568E-01  1.5588E-01  8.6404E-02  0.0000E+00  2.1344E-01  0.0000E+00
 28  2.7354E+01  2.6922E+01  2.6797E+01  2.7773E+01  2.6344E+01  2.6741E+01  2.7426E+01  2.6950E+01  2.7099E+01
 29  1.2565E+01  1.4513E+01  1.3822E+01  1.2711E+01  1.4014E+01  1.4814E+01  1.4172E+01  1.4557E+01  1.4458E+01
 30  0.0000E+00  2.2507E-01  0.0000E+00  0.0000E+00  9.3666E-01  0.0000E+00  0.0000E+00  0.0000E+00  0.0000E+00
 31  0.0000E+00  2.0024E-05  0.0000E+00  2.0766E-05  0.0000E+00  0.0000E+00  0.0000E+00  0.0000E+00  2.8941E-04
 32  0.0000E+00  1.6283E-05  0.0000E+00  1.1640E-04  0.0000E+00  0.0000E+00  0.0000E+00  0.0000E+00  0.0000E+00
 33  0.0000E+00  5.0938E-05  0.0000E+00  0.0000E+00  1.8001E-06  1.7009E-04  2.8489E-05  0.0000E+00  0.0000E+00
