###################################################################
## OUTPUT of StarlightChains_v04.for    [Cid@UFSC - 01/Apr/2007] ##
###################################################################

## Some input info
NGC6624_a_1.cxt                          [arq_obs]
Base.BC03.N                              [arq_base]
NGC6624_a_1.msk                          [arq_masks]
StCv04.C11.config                        [arq_config]
   45                                    [N_base]
    0                                    [N_YAV_components = # of components with extra extinction!]
    0                                    [i_FitPowerLaw (1/0 = Yes/No)]
-9.99                                    [alpha_PowerLaw]
CCM                                      [red_law_option]
 1.458241                                [q_norm = A(l_norm)/A(V)]

## (Re)Sampling Parameters
 3359.00                                 [l_ini (A)]
 6428.00                                 [l_fin (A)]
    1.00                                 [dl    (A)]     (OBS: dl_cushion =    50.00 A)

## Normalization info
 4020.00                                 [l_norm (A) - for base]
 4010.00                                 [llow_norm (A) - window for f_obs]
 4060.00                                 [lupp_norm (A) - window for f_obs]
1.685692E-14                             [fobs_norm (in input units)]

## S/N
 4730.00                                 [llow_SN (A) - window for S/N]
 4780.00                                 [lupp_SN (A) - window for S/N]
  42.348                                 [S/N in S/N window]
  28.608                                 [S/N in norm. window]
  94.289                                 [S/N_err in S/N window]
  63.698                                 [S/N_err in norm. window]
  1.0000                                 [fscale_chi2]

## etc...
  2147483597                             [idum_orig]
  3069                                   [NOl_eff]
  1095                                   [Nl_eff]
  1974    NSIGMA                         [Ntot_cliped & clip_method]
   717500                                [Nglobal_steps]
   7                                     [N_chains]
  10                                     [NEX0s_base = N_base in EX0s-fits]
 0   0   1      375   2.0   1.181E+03    [Clip-Bug, RC-Crash & Burn-In warning-flags, n_censored_weights, wei_nsig_threshold & wei_limit]
     9      9.229      9.221      0.008  [idt_all, wdt_TotTime, wdt_UsrTime & wdt_SysTime (sec)]

## Synthesis Results - Best model ##

 2.59328E+00                             [chi2/Nl_eff]
     1.37356                             [adev (%)]

   103.14874                             [sum-of-x (%)]
 3.30079E-14                             [Flux_tot (units of input spectrum!)]
 1.18826E-09                             [Mini_tot (???)]
 6.20992E-10                             [Mcor_tot (???)]

   7.61                                  [v0_min  (km/s)]
  85.29                                  [vd_min  (km/s)]
 0.4772                                  [AV_min  (mag)]
 0.0000                                  [YAV_min (mag)]

# j     x_j(%)      Mini_j(%)     Mcor_j(%)     age_j(yr)     Z_j      (L/M)_j    YAV?  Mstars   component_j        a/Fe...       SSP_chi2r SSP_adev(%)   SSP_AV   SSP_x(%)
  1      0.0000     0.0000E+00    0.0000E+00    1.000000E+06  0.00400  1.114E-02    0   1.0000   age020_m42            0.0000     1.5477E+03    31.5265   4.0000    70.8719
  2      0.0000     0.0000E+00    0.0000E+00    3.160000E+06  0.00400  4.073E-02    0   0.9999   age045_m42            0.0000     4.1614E+02    10.3844   3.9260    83.5109
  3      0.0000     0.0000E+00    0.0000E+00    5.010000E+06  0.00400  2.534E-02    0   0.9488   age055_m42            0.0000     6.1832E+02    17.5952   4.0000    78.3172
  4      2.3501     4.9795E-03    8.4439E-03    1.000000E+07  0.00400  1.271E-02    0   0.8862   age070_m42            0.0000     4.8243E+02    13.8708   3.5971    78.9687
  5      0.0000     0.0000E+00    0.0000E+00    2.512000E+07  0.00400  5.070E-03    0   0.8174   age090_m42            0.0000     4.8239E+02    13.4618   3.4582    80.8327
  6      0.0000     0.0000E+00    0.0000E+00    4.000000E+07  0.00400  3.505E-03    0   0.7851   age104_m42            0.0000     4.6577E+02    11.9471   3.1212    84.7061
  7      0.0000     0.0000E+00    0.0000E+00    1.015200E+08  0.00400  2.268E-03    0   0.7207   age116_m42            0.0000     1.2784E+03     9.0928   3.0362    96.6453
  8      0.0000     0.0000E+00    0.0000E+00    2.861200E+08  0.00400  1.079E-03    0   0.6613   age125_m42            0.0000     1.2578E+03     8.5122   2.4908   101.0443
  9      0.0000     0.0000E+00    0.0000E+00    6.405400E+08  0.00400  5.077E-04    0   0.6197   age132_m42            0.0000     1.2313E+03     8.7491   2.1071   105.8827
 10      0.0000     0.0000E+00    0.0000E+00    9.047900E+08  0.00400  3.535E-04    0   0.6024   age135_m42            0.0000     8.5674E+02     7.6322   1.8640   105.6383
 11      0.0000     0.0000E+00    0.0000E+00    1.434000E+09  0.00400  1.910E-04    0   0.5716   age139_m42            0.0000     4.0371E+02     5.3181   1.3164   106.3892
 12      9.9395     2.7264E+00    2.8500E+00    2.500000E+09  0.00400  9.818E-05    0   0.5463   age150_m42            0.0000     9.6434E+01     3.0346   1.0431   102.3730
 13     19.0048     1.0848E+01    1.0852E+01    5.000000E+09  0.00400  4.718E-05    0   0.5228   age161_m42            0.0000     2.9497E+01     2.5239   0.8884    98.8271
 14     22.1742     2.7082E+01    2.5807E+01    1.100000E+10  0.00400  2.205E-05    0   0.4980   age185_m42            0.0000     9.2881E+00     2.0851   0.6043    98.2296
 15      0.0000     0.0000E+00    0.0000E+00    1.300000E+10  0.00400  1.883E-05    0   0.4927   age193_m42            0.0000     1.1975E+01     2.1834   0.5855    98.2111
 16      0.0000     0.0000E+00    0.0000E+00    1.000000E+06  0.02000  1.989E-02    0   1.0000   age020_m62            0.0000     1.4674E+03    30.5312   4.0000    71.7968
 17      0.0000     0.0000E+00    0.0000E+00    3.160000E+06  0.02000  3.772E-02    0   0.9858   age045_m62            0.0000     1.2172E+03    27.6522   4.0000    73.6301
 18      0.0000     0.0000E+00    0.0000E+00    5.010000E+06  0.02000  3.227E-02    0   0.9342   age055_m62            0.0000     5.6125E+02    14.3722   4.0000    80.4703
 19      0.0000     0.0000E+00    0.0000E+00    1.000000E+07  0.02000  1.011E-02    0   0.8751   age070_m62            0.0000     5.5842E+02    17.4815   3.6474    74.3854
 20      0.0000     0.0000E+00    0.0000E+00    2.512000E+07  0.02000  4.206E-03    0   0.8099   age090_m62            0.0000     5.4153E+02    15.8471   3.5661    76.0125
 21      0.0000     0.0000E+00    0.0000E+00    4.000000E+07  0.02000  3.373E-03    0   0.7799   age104_m62            0.0000     6.2459E+02    12.0407   3.3340    85.7216
 22      0.0000     0.0000E+00    0.0000E+00    1.015200E+08  0.02000  1.878E-03    0   0.7221   age116_m62            0.0000     1.2348E+03     9.7602   3.0901    95.6300
 23      0.0000     0.0000E+00    0.0000E+00    2.861200E+08  0.02000  8.869E-04    0   0.6700   age125_m62            0.0000     1.7606E+03     9.7228   2.4656   107.3648
 24      0.0000     0.0000E+00    0.0000E+00    6.405400E+08  0.02000  3.657E-04    0   0.6322   age132_m62            0.0000     9.7997E+02     8.1491   1.6896   116.3213
 25      0.0000     0.0000E+00    0.0000E+00    9.047900E+08  0.02000  2.312E-04    0   0.6152   age135_m62            0.0000     5.2773E+02     6.2790   1.3274   115.3919
 26      0.0000     0.0000E+00    0.0000E+00    1.434000E+09  0.02000  1.168E-04    0   0.5865   age139_m62            0.0000     1.2823E+02     3.4135   0.9505   108.3085
 27      0.0000     0.0000E+00    0.0000E+00    2.500000E+09  0.02000  5.505E-05    0   0.5610   age150_m62            0.0000     1.7849E+01     1.9530   0.5682   106.4479
 28     31.1531     3.2318E+01    3.3103E+01    5.000000E+09  0.02000  2.596E-05    0   0.5353   age161_m62            0.0000     2.6081E+01     2.7886   0.1923   109.1943
 29      0.0015     3.4287E-03    3.3480E-03    1.100000E+10  0.02000  1.169E-05    0   0.5103   age185_m62            0.0000     1.1709E+02     4.5606  -0.2275   113.9780
 30      0.0000     0.0000E+00    0.0000E+00    1.300000E+10  0.02000  9.691E-06    0   0.5047   age193_m62            0.0000     1.4356E+02     4.8412  -0.2827   114.7821
 31      0.0000     0.0000E+00    0.0000E+00    1.000000E+06  0.05000  2.651E-02    0   0.9998   age020_m72            0.0000     1.4571E+03    30.3208   4.0000    72.7388
 32      0.0000     0.0000E+00    0.0000E+00    3.160000E+06  0.05000  4.817E-02    0   0.9577   age045_m72            0.0000     9.4399E+02    23.6013   4.0000    76.9667
 33      0.0000     0.0000E+00    0.0000E+00    5.010000E+06  0.05000  3.101E-02    0   0.9147   age055_m72            0.0000     5.6478E+02    15.7949   4.0000    78.2400
 34      0.0000     0.0000E+00    0.0000E+00    1.000000E+07  0.05000  8.954E-03    0   0.8524   age070_m72            0.0000     7.9494E+02    20.4378   4.0000    78.4624
 35      0.0000     0.0000E+00    0.0000E+00    2.512000E+07  0.05000  4.207E-03    0   0.7902   age090_m72            0.0000     5.3084E+02    11.6429   4.0000    82.2373
 36      0.0000     0.0000E+00    0.0000E+00    4.000000E+07  0.05000  3.198E-03    0   0.7618   age104_m72            0.0000     9.2295E+02     9.5229   3.4752    91.2911
 37      0.0000     0.0000E+00    0.0000E+00    1.015200E+08  0.05000  1.716E-03    0   0.7092   age116_m72            0.0000     1.3427E+03     9.4061   3.1628    96.4944
 38      0.0000     0.0000E+00    0.0000E+00    2.861200E+08  0.05000  7.047E-04    0   0.6618   age125_m72            0.0000     1.5902E+03     8.8915   2.2277   109.8066
 39      0.0000     0.0000E+00    0.0000E+00    6.405400E+08  0.05000  2.633E-04    0   0.6253   age132_m72            0.0000     6.7777E+02     6.6703   1.3022   116.9578
 40      0.0000     0.0000E+00    0.0000E+00    9.047900E+08  0.05000  1.484E-04    0   0.6088   age135_m72            0.0000     1.8366E+02     4.2754   0.8322   111.9471
 41      0.0000     0.0000E+00    0.0000E+00    1.434000E+09  0.05000  7.827E-05    0   0.5847   age139_m72            0.0000     2.5867E+01     2.8846   0.4410   109.1612
 42     11.1529     7.9902E+00    8.5359E+00    2.500000E+09  0.05000  3.759E-05    0   0.5583   age150_m72            0.0000     3.2957E+01     3.3394   0.0979   109.7885
 43      5.1251     8.9160E+00    9.0763E+00    5.000000E+09  0.05000  1.548E-05    0   0.5320   age161_m72            0.0000     1.0691E+02     4.8364  -0.3595   112.0917
 44      1.3512     5.5709E+00    5.4046E+00    1.100000E+10  0.05000  6.532E-06    0   0.5070   age185_m72            0.0000     2.0549E+02     7.0671  -0.8173   116.4209
 45      0.8963     4.5405E+00    4.3598E+00    1.300000E+10  0.05000  5.316E-06    0   0.5018   age193_m72            0.0000     2.5012E+02     8.0611  -0.9730   118.5669


## Synthesis Results - Average & Chains ##

# j      x_j: min, <> & last-chain-values for 1 ...  7 chains
  1      0.0000      0.0210      0.1098      0.0394      0.0000      0.0000      0.0000      0.0000      0.0391
  2      0.0000      0.0453      0.0000      0.0847      0.1624      0.1427      0.0000      0.0000      0.0000
  3      0.0000      0.0866      0.0000      0.1099      0.0000      0.0000      0.2031      0.0869      0.0935
  4      2.3501      1.3539      1.4164      1.6684      1.4674      1.2320      1.5331      1.5244      1.4608
  5      0.0000      0.0337      0.1004      0.0000      0.0000      0.1905      0.0000      0.0000      0.0000
  6      0.0000      0.0371      0.0000      0.0000      0.0426      0.0000      0.0000      0.0080      0.0000
  7      0.0000      0.0117      0.0000      0.0000      0.0000      0.0000      0.0000      0.0000      0.0000
  8      0.0000      0.0047      0.0000      0.0000      0.0000      0.0000      0.0000      0.0000      0.0000
  9      0.0000      0.0107      0.0000      0.0000      0.0025      0.0000      0.0000      0.0000      0.0000
 10      0.0000      0.0242      0.0000      0.0000      0.0000      0.0000      0.0000      0.0000      0.0000
 11      0.0000      0.0352      0.0000      0.0000      0.0000      0.0000      0.0000      0.0153      0.0000
 12      9.9395     11.7681     11.8667     11.8312     11.3912     11.8368     11.9738     11.9107     12.3886
 13     19.0048     13.5654     13.5002     12.8995     13.8133     13.8012     14.1055     13.9980     13.6341
 14     22.1742     23.9300     24.1858     24.4030     23.7678     24.1189     24.0295     23.6626     23.9275
 15      0.0000      0.4018      0.1367      0.0000      0.4304      0.1195      0.1283      0.4595      0.1447
 16      0.0000      0.0226      0.0000      0.0247      0.0000      0.0000      0.0000      0.0000      0.0000
 17      0.0000      0.0161      0.0090      0.0000      0.0000      0.0957      0.0040      0.0000      0.0000
 18      0.0000      0.2467      0.4136      0.2151      0.2154      0.3931      0.2480      0.2631      0.4933
 19      0.0000      0.1548      0.0816      0.0000      0.2268      0.2256      0.1248      0.1293      0.1646
 20      0.0000      0.0211      0.0000      0.0000      0.0000      0.0045      0.0730      0.0000      0.0000
 21      0.0000      0.0126      0.0000      0.0000      0.0000      0.0000      0.0004      0.0000      0.0132
 22      0.0000      0.0070      0.0000      0.0000      0.0000      0.0592      0.0000      0.0000      0.0000
 23      0.0000      0.0034      0.0000      0.0000      0.0000      0.0000      0.0000      0.0000      0.0000
 24      0.0000      0.0087      0.0000      0.0000      0.0000      0.0000      0.0000      0.0000      0.0000
 25      0.0000      0.0260      0.0801      0.0000      0.0000      0.0000      0.0000      0.0000      0.0000
 26      0.0000      0.0900      0.1257      0.0000      0.4851      0.0000      0.0000      0.0479      0.0646
 27      0.0000      0.8231      0.3318      2.6455      0.8713      0.8672      0.4832      0.9290      0.6431
 28     31.1531     37.2368     36.3009     36.3737     37.3061     36.8361     37.1332     36.8630     36.6387
 29      0.0015      3.0782      2.9388      2.3835      2.2396      2.4909      2.4632      2.8579      1.6688
 30      0.0000      0.0730      0.0000      0.0000      0.0000      0.0000      0.0152      0.0000      0.0000
 31      0.0000      0.0069      0.0000      0.0000      0.0011      0.0000      0.0000      0.0000      0.0000
 32      0.0000      0.0830      0.1393      0.0000      0.2894      0.0734      0.0329      0.0826      0.0000
 33      0.0000      0.0739      0.0000      0.1972      0.0000      0.0000      0.0421      0.0825      0.0000
 34      0.0000      0.0361      0.0000      0.0000      0.0000      0.0000      0.0000      0.1021      0.0000
 35      0.0000      0.0124      0.0000      0.0000      0.0000      0.0000      0.0235      0.0000      0.0328
 36      0.0000      0.0100      0.0000      0.0000      0.0000      0.0000      0.0000      0.0000      0.0000
 37      0.0000      0.0126      0.0000      0.0000      0.0000      0.0000      0.0000      0.0000      0.0000
 38      0.0000      0.0046      0.0000      0.0000      0.0000      0.0000      0.0000      0.0000      0.0000
 39      0.0000      0.0204      0.0000      0.0000      0.0000      0.0000      0.0000      0.0000      0.0000
 40      0.0000      0.0947      0.0000      0.0000      0.0646      0.0000      0.0000      0.0000      0.0000
 41      0.0000      0.5398      1.3470      0.2782      0.3462      0.4627      0.5200      0.4241      0.1138
 42     11.1529      5.8065      6.6502      6.0988      6.1534      5.8755      6.0219      5.8502      7.2054
 43      5.1251      1.6263      1.6158      1.9129      1.7319      2.6960      2.0086      1.8558      2.4319
 44      1.3512      1.0172      1.0319      1.1731      0.9934      0.8775      1.1585      1.3139      1.1929
 45      0.8963      0.8422      0.9538      0.9624      1.2639      0.8642      0.9610      0.8451      0.9521

# j      m_j: min, <> & last-chain-values for 1 ...  7 chains
  1  0.0000E+00  9.4794E-05  4.9763E-04  1.7859E-04  0.0000E+00  0.0000E+00  0.0000E+00  0.0000E+00  1.7806E-04
  2  0.0000E+00  5.5945E-05  0.0000E+00  1.0492E-04  1.9998E-04  1.7714E-04  0.0000E+00  0.0000E+00  0.0000E+00
  3  0.0000E+00  1.6310E-04  0.0000E+00  2.0764E-04  0.0000E+00  0.0000E+00  3.8192E-04  1.6274E-04  1.7749E-04
  4  8.4439E-03  4.7505E-03  4.9851E-03  5.8711E-03  5.1333E-03  4.3449E-03  5.3686E-03  5.3191E-03  5.1611E-03
  5  0.0000E+00  2.7314E-04  8.1683E-04  0.0000E+00  0.0000E+00  1.5535E-03  0.0000E+00  0.0000E+00  0.0000E+00
  6  0.0000E+00  4.1766E-04  0.0000E+00  0.0000E+00  4.7848E-04  0.0000E+00  0.0000E+00  8.9213E-05  0.0000E+00
  7  0.0000E+00  1.8754E-04  0.0000E+00  0.0000E+00  0.0000E+00  0.0000E+00  0.0000E+00  0.0000E+00  0.0000E+00
  8  0.0000E+00  1.4362E-04  0.0000E+00  0.0000E+00  0.0000E+00  0.0000E+00  0.0000E+00  0.0000E+00  0.0000E+00
  9  0.0000E+00  6.5485E-04  0.0000E+00  0.0000E+00  1.5338E-04  0.0000E+00  0.0000E+00  0.0000E+00  0.0000E+00
 10  0.0000E+00  2.0733E-03  0.0000E+00  0.0000E+00  0.0000E+00  0.0000E+00  0.0000E+00  0.0000E+00  0.0000E+00
 11  0.0000E+00  5.2984E-03  0.0000E+00  0.0000E+00  0.0000E+00  0.0000E+00  0.0000E+00  2.2955E-03  0.0000E+00
 12  2.8500E+00  3.2953E+00  3.3329E+00  3.3225E+00  3.1800E+00  3.3314E+00  3.3462E+00  3.3167E+00  3.4930E+00
 13  1.0852E+01  7.5647E+00  7.5511E+00  7.2141E+00  7.6795E+00  7.7354E+00  7.8502E+00  7.7626E+00  7.6554E+00
 14  2.5807E+01  2.7199E+01  2.7572E+01  2.7816E+01  2.6932E+01  2.7553E+01  2.7257E+01  2.6745E+01  2.7383E+01
 15  0.0000E+00  5.2910E-01  1.8054E-01  0.0000E+00  5.6507E-01  1.5817E-01  1.6856E-01  6.0166E-01  1.9192E-01
 16  0.0000E+00  5.7139E-05  0.0000E+00  6.2688E-05  0.0000E+00  0.0000E+00  0.0000E+00  0.0000E+00  0.0000E+00
 17  0.0000E+00  2.1129E-05  1.1832E-05  0.0000E+00  0.0000E+00  1.2649E-04  5.2609E-06  0.0000E+00  0.0000E+00
 18  0.0000E+00  3.5935E-04  6.0444E-04  3.1421E-04  3.1284E-04  5.7556E-04  3.6062E-04  3.8120E-04  7.2357E-04
 19  0.0000E+00  6.7409E-04  3.5673E-04  0.0000E+00  9.8485E-04  9.8770E-04  5.4251E-04  5.5996E-04  7.2185E-04
 20  0.0000E+00  2.0412E-04  0.0000E+00  0.0000E+00  0.0000E+00  4.4104E-05  7.0636E-04  0.0000E+00  0.0000E+00
 21  0.0000E+00  1.4695E-04  0.0000E+00  0.0000E+00  0.0000E+00  0.0000E+00  4.8483E-06  0.0000E+00  1.5450E-04
 22  0.0000E+00  1.3572E-04  0.0000E+00  0.0000E+00  0.0000E+00  1.1519E-03  0.0000E+00  0.0000E+00  0.0000E+00
 23  0.0000E+00  1.2869E-04  0.0000E+00  0.0000E+00  0.0000E+00  0.0000E+00  0.0000E+00  0.0000E+00  0.0000E+00
 24  0.0000E+00  7.6028E-04  0.0000E+00  0.0000E+00  0.0000E+00  0.0000E+00  0.0000E+00  0.0000E+00  0.0000E+00
 25  0.0000E+00  3.4822E-03  1.0758E-02  0.0000E+00  0.0000E+00  0.0000E+00  0.0000E+00  0.0000E+00  0.0000E+00
 26  0.0000E+00  2.2750E-02  3.1856E-02  0.0000E+00  1.2221E-01  0.0000E+00  0.0000E+00  1.2028E-02  1.6434E-02
 27  0.0000E+00  4.2212E-01  1.7068E-01  1.3606E+00  4.4546E-01  4.4701E-01  2.4730E-01  4.7381E-01  3.3206E-01
 28  3.3103E+01  3.8641E+01  3.7783E+01  3.7854E+01  3.8595E+01  3.8420E+01  3.8456E+01  3.8040E+01  3.8282E+01
 29  3.3480E-03  6.7622E+00  6.4754E+00  5.2512E+00  4.9050E+00  5.5000E+00  5.4004E+00  6.2433E+00  3.6913E+00
 30  0.0000E+00  1.9127E-01  0.0000E+00  0.0000E+00  0.0000E+00  0.0000E+00  3.9793E-02  0.0000E+00  0.0000E+00
 31  0.0000E+00  1.3107E-05  0.0000E+00  0.0000E+00  2.1555E-06  0.0000E+00  0.0000E+00  0.0000E+00  0.0000E+00
 32  0.0000E+00  8.3003E-05  1.3983E-04  0.0000E+00  2.8870E-04  7.3852E-05  3.2854E-05  8.2142E-05  0.0000E+00
 33  0.0000E+00  1.0963E-04  0.0000E+00  2.9350E-04  0.0000E+00  0.0000E+00  6.2422E-05  1.2174E-04  0.0000E+00
