###################################################################
## OUTPUT of StarlightChains_v04.for    [Cid@UFSC - 01/Apr/2007] ##
###################################################################

## Some input info
NGC6121_a_1.cxt                          [arq_obs]
Base.BC03.N                              [arq_base]
NGC6121_a_1.msk                          [arq_masks]
StCv04.C11.config                        [arq_config]
   45                                    [N_base]
    0                                    [N_YAV_components = # of components with extra extinction!]
    0                                    [i_FitPowerLaw (1/0 = Yes/No)]
-9.99                                    [alpha_PowerLaw]
CCM                                      [red_law_option]
 1.458241                                [q_norm = A(l_norm)/A(V)]

## (Re)Sampling Parameters
 3359.00                                 [l_ini (A)]
 6428.00                                 [l_fin (A)]
    1.00                                 [dl    (A)]     (OBS: dl_cushion =    50.00 A)

## Normalization info
 4020.00                                 [l_norm (A) - for base]
 4010.00                                 [llow_norm (A) - window for f_obs]
 4060.00                                 [lupp_norm (A) - window for f_obs]
2.192402E-14                             [fobs_norm (in input units)]

## S/N
 4730.00                                 [llow_SN (A) - window for S/N]
 4780.00                                 [lupp_SN (A) - window for S/N]
  81.858                                 [S/N in S/N window]
  65.062                                 [S/N in norm. window]
 104.198                                 [S/N_err in S/N window]
  82.818                                 [S/N_err in norm. window]
  1.0000                                 [fscale_chi2]

## etc...
  2147483628                             [idum_orig]
  3070                                   [NOl_eff]
  2020                                   [Nl_eff]
  1050    NSIGMA                         [Ntot_cliped & clip_method]
   926940                                [Nglobal_steps]
   7                                     [N_chains]
  12                                     [NEX0s_base = N_base in EX0s-fits]
 0   0   1      112   2.0   2.032E+02    [Clip-Bug, RC-Crash & Burn-In warning-flags, n_censored_weights, wei_nsig_threshold & wei_limit]
    10     10.137     10.137      0.000  [idt_all, wdt_TotTime, wdt_UsrTime & wdt_SysTime (sec)]

## Synthesis Results - Best model ##

 2.03035E+00                             [chi2/Nl_eff]
     1.29010                             [adev (%)]

    99.87203                             [sum-of-x (%)]
 1.14986E-13                             [Flux_tot (units of input spectrum!)]
 1.05543E-09                             [Mini_tot (???)]
 5.64233E-10                             [Mcor_tot (???)]

 -21.32                                  [v0_min  (km/s)]
  77.44                                  [vd_min  (km/s)]
 1.2348                                  [AV_min  (mag)]
 0.0000                                  [YAV_min (mag)]

# j     x_j(%)      Mini_j(%)     Mcor_j(%)     age_j(yr)     Z_j      (L/M)_j    YAV?  Mstars   component_j        a/Fe...       SSP_chi2r SSP_adev(%)   SSP_AV   SSP_x(%)
  1      0.0000     0.0000E+00    0.0000E+00    1.000000E+06  0.00400  1.114E-02    0   1.0000   age020_m42            0.0000     1.4652E+02     9.7082   4.0000    84.9213
  2      4.4371     1.1884E-02    2.2227E-02    3.160000E+06  0.00400  4.073E-02    0   0.9999   age045_m42            0.0000     2.5377E+01     4.3954   3.3194    92.2172
  3      0.5612     2.4158E-03    4.2875E-03    5.010000E+06  0.00400  2.534E-02    0   0.9488   age055_m42            0.0000     5.9864E+01     6.6470   3.6949    86.6393
  4      8.3749     7.1880E-02    1.1915E-01    1.000000E+07  0.00400  1.271E-02    0   0.8862   age070_m42            0.0000     5.1575E+01     6.4746   2.9083    90.8927
  5      1.2740     2.7412E-02    4.1913E-02    2.512000E+07  0.00400  5.070E-03    0   0.8174   age090_m42            0.0000     4.5098E+01     6.0475   2.7909    92.0881
  6      0.0000     0.0000E+00    0.0000E+00    4.000000E+07  0.00400  3.505E-03    0   0.7851   age104_m42            0.0000     2.5499E+01     4.5108   2.4967    94.4673
  7      3.9396     1.8949E-01    2.5545E-01    1.015200E+08  0.00400  2.268E-03    0   0.7207   age116_m42            0.0000     5.5357E+01     4.7574   2.5817   101.1631
  8      0.0000     0.0000E+00    0.0000E+00    2.861200E+08  0.00400  1.079E-03    0   0.6613   age125_m42            0.0000     6.0284E+01     5.1853   2.1130   102.2241
  9      9.7751     2.1003E+00    2.4347E+00    6.405400E+08  0.00400  5.077E-04    0   0.6197   age132_m42            0.0000     6.3859E+01     5.5292   1.7590   105.9379
 10     21.5183     6.6404E+00    7.4825E+00    9.047900E+08  0.00400  3.535E-04    0   0.6024   age135_m42            0.0000     3.7475E+01     4.4991   1.5146   105.3265
 11      0.0000     0.0000E+00    0.0000E+00    1.434000E+09  0.00400  1.910E-04    0   0.5716   age139_m42            0.0000     1.7679E+01     3.5941   0.9957   103.7789
 12     13.9678     1.5520E+01    1.5859E+01    2.500000E+09  0.00400  9.818E-05    0   0.5463   age150_m42            0.0000     1.2953E+01     3.0542   0.7108    99.4149
 13     32.6212     7.5425E+01    7.3760E+01    5.000000E+09  0.00400  4.718E-05    0   0.5228   age161_m42            0.0000     2.0379E+01     3.4754   0.5342    96.4055
 14      0.0000     0.0000E+00    0.0000E+00    1.100000E+10  0.00400  2.205E-05    0   0.4980   age185_m42            0.0000     4.4172E+01     4.8680   0.2843    93.9411
 15      0.0000     0.0000E+00    0.0000E+00    1.300000E+10  0.00400  1.883E-05    0   0.4927   age193_m42            0.0000     4.7896E+01     5.0551   0.2678    93.7525
 16      0.0000     0.0000E+00    0.0000E+00    1.000000E+06  0.02000  1.989E-02    0   1.0000   age020_m62            0.0000     1.4226E+02     9.4077   4.0000    84.7140
 17      0.0000     0.0000E+00    0.0000E+00    3.160000E+06  0.02000  3.772E-02    0   0.9858   age045_m62            0.0000     1.1047E+02     8.6026   4.0000    83.6329
 18      3.3607     1.1361E-02    1.9853E-02    5.010000E+06  0.02000  3.227E-02    0   0.9342   age055_m62            0.0000     4.1739E+01     5.6572   3.5661    89.3585
 19      0.0377     4.0730E-04    6.6671E-04    1.000000E+07  0.02000  1.011E-02    0   0.8751   age070_m62            0.0000     1.3822E+02    10.4898   2.9092    87.6692
 20      0.0000     0.0000E+00    0.0000E+00    2.512000E+07  0.02000  4.206E-03    0   0.8099   age090_m62            0.0000     9.5395E+01     8.6106   2.8589    88.1385
 21      0.0000     0.0000E+00    0.0000E+00    4.000000E+07  0.02000  3.373E-03    0   0.7799   age104_m62            0.0000     2.5712E+01     4.2687   2.7214    95.5998
 22      0.0000     0.0000E+00    0.0000E+00    1.015200E+08  0.02000  1.878E-03    0   0.7221   age116_m62            0.0000     4.5542E+01     4.3199   2.5995   101.8303
 23      0.0000     0.0000E+00    0.0000E+00    2.861200E+08  0.02000  8.869E-04    0   0.6700   age125_m62            0.0000     1.0638E+02     6.7353   2.1486   106.3712
 24      0.0000     0.0000E+00    0.0000E+00    6.405400E+08  0.02000  3.657E-04    0   0.6322   age132_m62            0.0000     7.3908E+01     6.3999   1.4973   108.4924
 25      0.0000     0.0000E+00    0.0000E+00    9.047900E+08  0.02000  2.312E-04    0   0.6152   age135_m62            0.0000     4.3668E+01     5.3544   1.1154   107.8129
 26      0.0000     0.0000E+00    0.0000E+00    1.434000E+09  0.02000  1.168E-04    0   0.5865   age139_m62            0.0000     2.2555E+01     4.0753   0.6783   102.6901
 27      0.0000     0.0000E+00    0.0000E+00    2.500000E+09  0.02000  5.505E-05    0   0.5610   age150_m62            0.0000     3.9256E+01     4.9286   0.3107    99.6969
 28      0.0000     0.0000E+00    0.0000E+00    5.000000E+09  0.02000  2.596E-05    0   0.5353   age161_m62            0.0000     7.7021E+01     6.6219  -0.0001    98.9837
 29      0.0000     0.0000E+00    0.0000E+00    1.100000E+10  0.02000  1.169E-05    0   0.5103   age185_m62            0.0000     1.2290E+02     8.2686  -0.3418    99.5851
 30      0.0000     0.0000E+00    0.0000E+00    1.300000E+10  0.02000  9.691E-06    0   0.5047   age193_m62            0.0000     1.3182E+02     8.5373  -0.3846    99.6866
 31      0.0000     0.0000E+00    0.0000E+00    1.000000E+06  0.05000  2.651E-02    0   0.9998   age020_m72            0.0000     1.3703E+02     9.2553   4.0000    85.6634
 32      0.0043     9.8049E-06    1.7565E-05    3.160000E+06  0.05000  4.817E-02    0   0.9577   age045_m72            0.0000     7.9455E+01     7.5109   3.9283    85.1315
 33      0.0000     0.0000E+00    0.0000E+00    5.010000E+06  0.05000  3.101E-02    0   0.9147   age055_m72            0.0000     7.1040E+01     7.1342   3.5661    87.9020
 34      0.0000     0.0000E+00    0.0000E+00    1.000000E+07  0.05000  8.954E-03    0   0.8524   age070_m72            0.0000     7.8760E+01     7.3707   3.8182    85.8895
 35      0.0000     0.0000E+00    0.0000E+00    2.512000E+07  0.05000  4.207E-03    0   0.7902   age090_m72            0.0000     3.7897E+01     5.2196   3.4103    90.9711
 36      0.0000     0.0000E+00    0.0000E+00    4.000000E+07  0.05000  3.198E-03    0   0.7618   age104_m72            0.0000     2.7847E+01     3.5451   2.9526    97.9588
 37      0.0000     0.0000E+00    0.0000E+00    1.015200E+08  0.05000  1.716E-03    0   0.7092   age116_m72            0.0000     5.7293E+01     4.8418   2.6932   101.6706
 38      0.0000     0.0000E+00    0.0000E+00    2.861200E+08  0.05000  7.047E-04    0   0.6618   age125_m72            0.0000     1.0380E+02     6.9029   1.9549   106.4000
 39      0.0000     0.0000E+00    0.0000E+00    6.405400E+08  0.05000  2.633E-04    0   0.6253   age132_m72            0.0000     5.8751E+01     5.9783   1.1236   107.8195
 40      0.0000     0.0000E+00    0.0000E+00    9.047900E+08  0.05000  1.484E-04    0   0.6088   age135_m72            0.0000     3.6906E+01     5.2032   0.6335   103.0049
 41      0.0000     0.0000E+00    0.0000E+00    1.434000E+09  0.05000  7.827E-05    0   0.5847   age139_m72            0.0000     5.5387E+01     5.9206   0.2453    99.4786
 42      0.0000     0.0000E+00    0.0000E+00    2.500000E+09  0.05000  3.759E-05    0   0.5583   age150_m72            0.0000     8.5052E+01     6.9877  -0.0722    98.4814
 43      0.0000     0.0000E+00    0.0000E+00    5.000000E+09  0.05000  1.548E-05    0   0.5320   age161_m72            0.0000     1.3052E+02     8.4415  -0.4726    97.6649
 44      0.0000     0.0000E+00    0.0000E+00    1.100000E+10  0.05000  6.532E-06    0   0.5070   age185_m72            0.0000     1.8978E+02    10.2561  -0.8216    96.6727
 45      0.0000     0.0000E+00    0.0000E+00    1.300000E+10  0.05000  5.316E-06    0   0.5018   age193_m72            0.0000     2.1471E+02    10.9533  -0.9265    96.3962


## Synthesis Results - Average & Chains ##

# j      x_j: min, <> & last-chain-values for 1 ...  7 chains
  1      0.0000      0.0581      0.0135      0.0000      0.1221      0.0000      0.0309      0.0000      0.0000
  2      4.4371      2.2201      2.1918      2.3425      2.3244      2.4735      2.4813      2.2545      2.4308
  3      0.5612      0.4516      0.4693      0.5112      0.6744      0.4631      0.4435      0.4809      0.8711
  4      8.3749      7.2515      7.2747      7.2605      7.1899      7.4752      8.0204      7.4188      7.3230
  5      1.2740      1.4187      1.4452      1.4246      1.4739      1.3307      1.2071      1.7227      1.1169
  6      0.0000      0.1310      0.1841      0.2478      0.0000      0.0433      0.0578      0.2322      0.2885
  7      3.9396      5.5091      5.5486      5.4114      5.2339      5.4160      5.4733      5.2721      5.7910
  8      0.0000      0.0491      0.0000      0.0000      0.0000      0.2672      0.0000      0.0242      0.0000
  9      9.7751      9.5238      9.5987      9.5031      9.7588      9.5679      9.5189      9.4177      9.5763
 10     21.5183     19.8565     20.1913     20.5006     20.9140     20.3032     20.1930     20.4265     19.6792
 11      0.0000      0.1984      0.0000      0.1750      0.0000      0.0076      0.4075      0.0000      0.1728
 12     13.9678     15.2574     15.0113     15.1817     14.6116     15.1661     15.1028     14.9639     15.0764
 13     32.6212     32.1608     31.9853     31.9169     31.8321     31.5177     31.7358     32.0932     32.3274
 14      0.0000      0.0333      0.0000      0.0417      0.0235      0.3013      0.0000      0.0000      0.0000
 15      0.0000      0.0296      0.0895      0.0000      0.0000      0.0000      0.0000      0.0592      0.0323
 16      0.0000      0.0364      0.0000      0.0000      0.0000      0.0000      0.0000      0.0866      0.1011
 17      0.0000      0.0867      0.0393      0.1897      0.0000      0.1144      0.0863      0.0960      0.0000
 18      3.3607      3.0464      3.3003      3.0654      3.0078      2.9761      2.9731      3.0512      3.0928
 19      0.0377      0.5302      0.7604      0.5524      0.5801      0.7912      0.5723      0.4871      0.4115
 20      0.0000      0.0262      0.0000      0.0000      0.0981      0.0000      0.0000      0.0000      0.0000
 21      0.0000      0.0350      0.1156      0.0000      0.0000      0.0198      0.0000      0.0000      0.0000
 22      0.0000      0.0281      0.1684      0.0000      0.0000      0.0042      0.0338      0.0000      0.0000
 23      0.0000      0.0213      0.0000      0.0000      0.0000      0.0000      0.0000      0.0000      0.0000
 24      0.0000      0.0102      0.0000      0.0208      0.0000      0.0000      0.0000      0.0000      0.0017
 25      0.0000      0.0131      0.0000      0.0000      0.0000      0.0000      0.0000      0.0000      0.0043
 26      0.0000      0.0194      0.0000      0.0000      0.0000      0.0000      0.0000      0.0000      0.0000
 27      0.0000      0.0225      0.0000      0.0000      0.0397      0.0000      0.0000      0.0000      0.0734
 28      0.0000      0.0186      0.0000      0.0000      0.0000      0.0000      0.0000      0.0000      0.0000
 29      0.0000      0.1920      0.1258      0.0000      0.1147      0.1376      0.1791      0.3020      0.2054
 30      0.0000      0.1295      0.1964      0.0000      0.2994      0.1573      0.1467      0.0000      0.1810
 31      0.0000      0.0396      0.0000      0.0642      0.0000      0.0808      0.0613      0.1319      0.0000
 32      0.0043      0.2221      0.1204      0.3496      0.4833      0.0692      0.1342      0.1604      0.1215
 33      0.0000      0.3443      0.3497      0.4092      0.3743      0.3452      0.3409      0.2620      0.3628
 34      0.0000      0.0642      0.0012      0.0000      0.0000      0.0767      0.0000      0.0000      0.0192
 35      0.0000      0.0179      0.0000      0.0000      0.1073      0.0000      0.0059      0.0000      0.0831
 36      0.0000      0.0267      0.0000      0.0000      0.0000      0.0041      0.0000      0.0873      0.0000
 37      0.0000      0.0831      0.0000      0.0000      0.0236      0.0000      0.0000      0.0000      0.0000
 38      0.0000      0.0125      0.0000      0.0000      0.0000      0.0000      0.0000      0.0000      0.0000
 39      0.0000      0.0103      0.0000      0.0000      0.0000      0.0428      0.0000      0.0000      0.0000
 40      0.0000      0.0169      0.0000      0.0000      0.0170      0.0000      0.0124      0.0000      0.0000
 41      0.0000      0.0084      0.0000      0.0000      0.0000      0.0000      0.0000      0.0643      0.0000
 42      0.0000      0.0147      0.0000      0.0000      0.0061      0.0000      0.0000      0.0000      0.0380
 43      0.0000      0.2541      0.2155      0.2594      0.3453      0.2816      0.1876      0.3494      0.1052
 44      0.0000      0.3318      0.3776      0.3198      0.1269      0.3557      0.4753      0.2990      0.3324
 45      0.0000      0.2266      0.2093      0.2463      0.2543      0.2569      0.1665      0.1992      0.1869

# j      m_j: min, <> & last-chain-values for 1 ...  7 chains
  1  0.0000E+00  9.2448E-04  2.1633E-04  0.0000E+00  1.9862E-03  0.0000E+00  4.9502E-04  0.0000E+00  0.0000E+00
  2  2.2227E-02  9.6657E-03  9.5830E-03  1.0534E-02  1.0343E-02  1.0739E-02  1.0873E-02  9.9330E-03  1.0688E-02
  3  4.2875E-03  2.9990E-03  3.1292E-03  3.5063E-03  4.5769E-03  3.0662E-03  2.9638E-03  3.2312E-03  5.8416E-03
  4  1.1915E-01  8.9669E-02  9.0336E-02  9.2732E-02  9.0867E-02  9.2172E-02  9.9815E-02  9.2832E-02  9.1452E-02
  5  4.1913E-02  4.0565E-02  4.1496E-02  4.2073E-02  4.3071E-02  3.7941E-02  3.4738E-02  4.9845E-02  3.2251E-02
  6  0.0000E+00  5.2031E-03  7.3460E-03  1.0167E-02  0.0000E+00  1.7166E-03  2.3122E-03  9.3324E-03  1.1573E-02
  7  2.5545E-01  3.1047E-01  3.1402E-01  3.1499E-01  3.0147E-01  3.0436E-01  3.1044E-01  3.0066E-01  3.2960E-01
  8  0.0000E+00  5.3347E-03  0.0000E+00  0.0000E+00  0.0000E+00  2.8960E-02  0.0000E+00  2.6608E-03  0.0000E+00
  9  2.4347E+00  2.0616E+00  2.0866E+00  2.1248E+00  2.1591E+00  2.0653E+00  2.0738E+00  2.0630E+00  2.0936E+00
 10  7.4825E+00  6.0010E+00  6.1280E+00  6.3993E+00  6.4600E+00  6.1186E+00  6.1420E+00  6.2470E+00  6.0065E+00
 11  0.0000E+00  1.0530E-01  0.0000E+00  9.5934E-02  0.0000E+00  4.0370E-03  2.1766E-01  0.0000E+00  9.2607E-02
 12  1.5859E+01  1.5056E+01  1.4876E+01  1.5474E+01  1.4737E+01  1.4924E+01  1.5000E+01  1.4943E+01  1.5025E+01
 13  7.3760E+01  6.3202E+01  6.3123E+01  6.4785E+01  6.3935E+01  6.1762E+01  6.2768E+01  6.3822E+01  6.4161E+01
 14  0.0000E+00  1.3350E-01  0.0000E+00  1.7268E-01  9.6174E-02  1.2034E+00  0.0000E+00  0.0000E+00  0.0000E+00
 15  0.0000E+00  1.3757E-01  4.1687E-01  0.0000E+00  0.0000E+00  0.0000E+00  0.0000E+00  2.7809E-01  1.5121E-01
 16  0.0000E+00  3.2478E-04  0.0000E+00  0.0000E+00  0.0000E+00  0.0000E+00  0.0000E+00  7.8137E-04  9.1019E-04
 17  0.0000E+00  4.0175E-04  1.8312E-04  9.0819E-04  0.0000E+00  5.2879E-04  4.0236E-04  4.5040E-04  0.0000E+00
 18  1.9853E-02  1.5641E-02  1.7016E-02  1.6256E-02  1.5783E-02  1.5236E-02  1.5362E-02  1.5852E-02  1.6037E-02
 19  6.6671E-04  8.1397E-03  1.1723E-02  8.7584E-03  9.1014E-03  1.2112E-02  8.8425E-03  7.5668E-03  6.3793E-03
 20  0.0000E+00  8.9568E-04  0.0000E+00  0.0000E+00  3.4248E-03  0.0000E+00  0.0000E+00  0.0000E+00  0.0000E+00
 21  0.0000E+00  1.4348E-03  4.7584E-03  0.0000E+00  0.0000E+00  8.0844E-04  0.0000E+00  0.0000E+00  0.0000E+00
 22  0.0000E+00  1.9131E-03  1.1529E-02  0.0000E+00  0.0000E+00  2.8458E-04  2.3229E-03  0.0000E+00  0.0000E+00
 23  0.0000E+00  2.8595E-03  0.0000E+00  0.0000E+00  0.0000E+00  0.0000E+00  0.0000E+00  0.0000E+00  0.0000E+00
 24  0.0000E+00  3.1212E-03  0.0000E+00  6.5729E-03  0.0000E+00  0.0000E+00  0.0000E+00  0.0000E+00  5.2267E-04
 25  0.0000E+00  6.1873E-03  0.0000E+00  0.0000E+00  0.0000E+00  0.0000E+00  0.0000E+00  0.0000E+00  2.0632E-03
 26  0.0000E+00  1.7262E-02  0.0000E+00  0.0000E+00  0.0000E+00  0.0000E+00  0.0000E+00  0.0000E+00  0.0000E+00
 27  0.0000E+00  4.0615E-02  0.0000E+00  0.0000E+00  7.3293E-02  0.0000E+00  0.0000E+00  0.0000E+00  1.3389E-01
 28  0.0000E+00  6.8158E-02  0.0000E+00  0.0000E+00  0.0000E+00  0.0000E+00  0.0000E+00  0.0000E+00  0.0000E+00
 29  0.0000E+00  1.4863E+00  9.7789E-01  0.0000E+00  9.0778E-01  1.0625E+00  1.3951E+00  2.3660E+00  1.6059E+00
 30  0.0000E+00  1.1957E+00  1.8218E+00  0.0000E+00  2.8265E+00  1.4486E+00  1.3632E+00  0.0000E+00  1.6881E+00
 31  0.0000E+00  2.6485E-04  0.0000E+00  4.4320E-04  0.0000E+00  5.3876E-04  4.1253E-04  8.9302E-04  0.0000E+00
 32  1.7565E-05  7.8306E-04  4.2650E-04  1.2734E-03  1.7417E-03  2.4333E-04  4.7618E-04  5.7225E-04  4.3260E-04
 33  0.0000E+00  1.8011E-03  1.8370E-03  2.2108E-03  2.0010E-03  1.8007E-03  1.7949E-03  1.3867E-03  1.9167E-03
