###################################################################
## OUTPUT of StarlightChains_v04.for    [Cid@UFSC - 01/Apr/2007] ##
###################################################################

## Some input info
NGC6522_a_1.cxt                          [arq_obs]
Base.BC03.N                              [arq_base]
NGC6522_a_1.msk                          [arq_masks]
StCv04.C11.config                        [arq_config]
   45                                    [N_base]
    0                                    [N_YAV_components = # of components with extra extinction!]
    0                                    [i_FitPowerLaw (1/0 = Yes/No)]
-9.99                                    [alpha_PowerLaw]
CCM                                      [red_law_option]
 1.458241                                [q_norm = A(l_norm)/A(V)]

## (Re)Sampling Parameters
 3359.00                                 [l_ini (A)]
 6428.00                                 [l_fin (A)]
    1.00                                 [dl    (A)]     (OBS: dl_cushion =    50.00 A)

## Normalization info
 4020.00                                 [l_norm (A) - for base]
 4010.00                                 [llow_norm (A) - window for f_obs]
 4060.00                                 [lupp_norm (A) - window for f_obs]
8.861070E-15                             [fobs_norm (in input units)]

## S/N
 4730.00                                 [llow_SN (A) - window for S/N]
 4780.00                                 [lupp_SN (A) - window for S/N]
  58.057                                 [S/N in S/N window]
  38.566                                 [S/N in norm. window]
  50.435                                 [S/N_err in S/N window]
  33.502                                 [S/N_err in norm. window]
  1.0000                                 [fscale_chi2]

## etc...
  2147483607                             [idum_orig]
  3068                                   [NOl_eff]
  1761                                   [Nl_eff]
  1307    NSIGMA                         [Ntot_cliped & clip_method]
   805000                                [Nglobal_steps]
   7                                     [N_chains]
  11                                     [NEX0s_base = N_base in EX0s-fits]
 0   0   1      235   2.0   7.149E+02    [Clip-Bug, RC-Crash & Burn-In warning-flags, n_censored_weights, wei_nsig_threshold & wei_limit]
    10     10.216     10.216      0.000  [idt_all, wdt_TotTime, wdt_UsrTime & wdt_SysTime (sec)]

## Synthesis Results - Best model ##

 2.55177E+00                             [chi2/Nl_eff]
     1.96413                             [adev (%)]

   100.00615                             [sum-of-x (%)]
 1.16232E-13                             [Flux_tot (units of input spectrum!)]
 1.99017E-09                             [Mini_tot (???)]
 1.02827E-09                             [Mcor_tot (???)]

  -6.39                                  [v0_min  (km/s)]
  72.32                                  [vd_min  (km/s)]
 1.9164                                  [AV_min  (mag)]
 0.0000                                  [YAV_min (mag)]

# j     x_j(%)      Mini_j(%)     Mcor_j(%)     age_j(yr)     Z_j      (L/M)_j    YAV?  Mstars   component_j        a/Fe...       SSP_chi2r SSP_adev(%)   SSP_AV   SSP_x(%)
  1      0.0000     0.0000E+00    0.0000E+00    1.000000E+06  0.00400  1.114E-02    0   1.0000   age020_m42            0.0000     1.4445E+03    32.7653   4.0000    77.3781
  2      9.4825     1.3596E-02    2.6312E-02    3.160000E+06  0.00400  4.073E-02    0   0.9999   age045_m42            0.0000     8.9968E+01     5.8972   4.0000    92.2434
  3      0.0000     0.0000E+00    0.0000E+00    5.010000E+06  0.00400  2.534E-02    0   0.9488   age055_m42            0.0000     4.6003E+02    17.7494   4.0000    86.3451
  4     13.6033     6.2504E-02    1.0721E-01    1.000000E+07  0.00400  1.271E-02    0   0.8862   age070_m42            0.0000     1.2884E+02     5.8146   3.8670    88.0573
  5      0.0000     0.0000E+00    0.0000E+00    2.512000E+07  0.00400  5.070E-03    0   0.8174   age090_m42            0.0000     1.0981E+02     5.2036   3.7250    89.8187
  6      0.0000     0.0000E+00    0.0000E+00    4.000000E+07  0.00400  3.505E-03    0   0.7851   age104_m42            0.0000     6.7285E+01     3.6269   3.3710    93.2558
  7     19.1962     4.9429E-01    6.8947E-01    1.015200E+08  0.00400  2.268E-03    0   0.7207   age116_m42            0.0000     4.6719E+02     7.5498   3.0924   105.0363
  8      0.0000     0.0000E+00    0.0000E+00    2.861200E+08  0.00400  1.079E-03    0   0.6613   age125_m42            0.0000     5.1343E+02     8.5645   2.5529   107.7877
  9      1.1329     1.3031E-01    1.5630E-01    6.405400E+08  0.00400  5.077E-04    0   0.6197   age132_m42            0.0000     5.5994E+02     9.0511   2.1833   111.8460
 10      2.6451     4.3698E-01    5.0948E-01    9.047900E+08  0.00400  3.535E-04    0   0.6024   age135_m42            0.0000     3.4976E+02     7.5394   1.9933   110.6298
 11      0.0000     0.0000E+00    0.0000E+00    1.434000E+09  0.00400  1.910E-04    0   0.5716   age139_m42            0.0000     1.5256E+02     6.7962   1.5069   109.5681
 12     19.5377     1.1621E+01    1.2288E+01    2.500000E+09  0.00400  9.818E-05    0   0.5463   age150_m42            0.0000     4.9762E+01     5.5320   1.3110   104.5582
 13     20.7987     2.5745E+01    2.6050E+01    5.000000E+09  0.00400  4.718E-05    0   0.5228   age161_m42            0.0000     6.2997E+01     5.0736   1.1921   101.0402
 14      7.4668     1.9776E+01    1.9061E+01    1.100000E+10  0.00400  2.205E-05    0   0.4980   age185_m42            0.0000     1.5415E+02     6.3304   0.9386    99.4395
 15      0.0000     0.0000E+00    0.0000E+00    1.300000E+10  0.00400  1.883E-05    0   0.4927   age193_m42            0.0000     1.7238E+02     6.4395   0.9268    99.3025
 16      0.0000     0.0000E+00    0.0000E+00    1.000000E+06  0.02000  1.989E-02    0   1.0000   age020_m62            0.0000     1.3909E+03    32.0137   4.0000    78.1122
 17      0.0000     0.0000E+00    0.0000E+00    3.160000E+06  0.02000  3.772E-02    0   0.9858   age045_m62            0.0000     1.1278E+03    28.5681   4.0000    80.6652
 18      0.0000     0.0000E+00    0.0000E+00    5.010000E+06  0.02000  3.227E-02    0   0.9342   age055_m62            0.0000     2.5843E+02    13.2522   4.0000    89.4222
 19      0.0000     0.0000E+00    0.0000E+00    1.000000E+07  0.02000  1.011E-02    0   0.8751   age070_m62            0.0000     3.5125E+02     9.4803   3.9763    83.5884
 20      0.0000     0.0000E+00    0.0000E+00    2.512000E+07  0.02000  4.206E-03    0   0.8099   age090_m62            0.0000     2.6568E+02     7.6597   3.8747    85.1082
 21      0.0000     0.0000E+00    0.0000E+00    4.000000E+07  0.02000  3.373E-03    0   0.7799   age104_m62            0.0000     8.5304E+01     3.7190   3.5469    94.8563
 22      0.0000     0.0000E+00    0.0000E+00    1.015200E+08  0.02000  1.878E-03    0   0.7221   age116_m62            0.0000     3.8852E+02     6.8820   3.1581   104.8611
 23      0.0000     0.0000E+00    0.0000E+00    2.861200E+08  0.02000  8.869E-04    0   0.6700   age125_m62            0.0000     8.9970E+02    11.3209   2.4679   114.0697
 24      0.0000     0.0000E+00    0.0000E+00    6.405400E+08  0.02000  3.657E-04    0   0.6322   age132_m62            0.0000     5.8390E+02    11.1016   1.7805   117.9917
 25      0.0000     0.0000E+00    0.0000E+00    9.047900E+08  0.02000  2.312E-04    0   0.6152   age135_m62            0.0000     3.1748E+02     9.5281   1.4818   116.0731
 26      0.0000     0.0000E+00    0.0000E+00    1.434000E+09  0.02000  1.168E-04    0   0.5865   age139_m62            0.0000     9.7883E+01     7.0856   1.1930   109.3476
 27      0.0000     0.0000E+00    0.0000E+00    2.500000E+09  0.02000  5.505E-05    0   0.5610   age150_m62            0.0000     1.3515E+02     7.4686   0.8618   106.5582
 28      0.9619     2.1638E+00    2.2418E+00    5.000000E+09  0.02000  2.596E-05    0   0.5353   age161_m62            0.0000     3.0603E+02     9.3062   0.5155   107.4029
 29      1.7151     8.5682E+00    8.4625E+00    1.100000E+10  0.02000  1.169E-05    0   0.5103   age185_m62            0.0000     5.3319E+02    11.2639   0.1182   109.9140
 30      0.0000     0.0000E+00    0.0000E+00    1.300000E+10  0.02000  9.691E-06    0   0.5047   age193_m62            0.0000     5.8200E+02    11.5692   0.0674   110.3124
 31      0.0000     0.0000E+00    0.0000E+00    1.000000E+06  0.05000  2.651E-02    0   0.9998   age020_m72            0.0000     1.3472E+03    31.6911   4.0000    79.1297
 32      0.0000     0.0000E+00    0.0000E+00    3.160000E+06  0.05000  4.817E-02    0   0.9577   age045_m72            0.0000     7.7109E+02    23.9031   4.0000    84.7322
 33      0.0000     0.0000E+00    0.0000E+00    5.010000E+06  0.05000  3.101E-02    0   0.9147   age055_m72            0.0000     4.1376E+02    14.8847   4.0000    87.2305
 34      0.0000     0.0000E+00    0.0000E+00    1.000000E+07  0.05000  8.954E-03    0   0.8524   age070_m72            0.0000     6.4761E+02    20.5903   4.0000    86.1537
 35      0.0000     0.0000E+00    0.0000E+00    2.512000E+07  0.05000  4.207E-03    0   0.7902   age090_m72            0.0000     1.6528E+02     7.8128   4.0000    91.8545
 36      0.0000     0.0000E+00    0.0000E+00    4.000000E+07  0.05000  3.198E-03    0   0.7618   age104_m72            0.0000     2.0480E+02     4.8035   3.5994   100.2576
 37      0.0000     0.0000E+00    0.0000E+00    1.015200E+08  0.05000  1.716E-03    0   0.7092   age116_m72            0.0000     4.7753E+02     7.6485   3.2125   105.4248
 38      0.0000     0.0000E+00    0.0000E+00    2.861200E+08  0.05000  7.047E-04    0   0.6618   age125_m72            0.0000     8.6214E+02    11.5314   2.2418   115.1079
 39      0.0000     0.0000E+00    0.0000E+00    6.405400E+08  0.05000  2.633E-04    0   0.6253   age132_m72            0.0000     4.3290E+02    10.8631   1.4259   117.2620
 40      0.0000     0.0000E+00    0.0000E+00    9.047900E+08  0.05000  1.484E-04    0   0.6088   age135_m72            0.0000     1.7383E+02     9.0261   1.0493   111.3774
 41      0.0000     0.0000E+00    0.0000E+00    1.434000E+09  0.05000  7.827E-05    0   0.5847   age139_m72            0.0000     1.9236E+02     9.0658   0.7221   107.9055
 42      0.0000     0.0000E+00    0.0000E+00    2.500000E+09  0.05000  3.759E-05    0   0.5583   age150_m72            0.0000     3.2601E+02     9.8147   0.4245   107.3415
 43      0.0000     0.0000E+00    0.0000E+00    5.000000E+09  0.05000  1.548E-05    0   0.5320   age161_m72            0.0000     5.1431E+02    11.3331  -0.0161   107.8906
 44      3.4661     3.0988E+01    3.0408E+01    1.100000E+10  0.05000  6.532E-06    0   0.5070   age185_m72            0.0000     7.2155E+02    14.1689  -0.4953   109.9934
 45      0.0000     0.0000E+00    0.0000E+00    1.300000E+10  0.05000  5.316E-06    0   0.5018   age193_m72            0.0000     8.0997E+02    15.3206  -0.6613   111.0759


## Synthesis Results - Average & Chains ##

# j      x_j: min, <> & last-chain-values for 1 ...  7 chains
  1      0.0000      0.0149      0.0052      0.0000      0.0000      0.0000      0.0000      0.0335      0.0000
  2      9.4825      7.2776      7.4798      7.8466      7.2193      7.5364      7.3592      7.6384      7.3708
  3      0.0000      0.1127      0.1873      0.0000      0.2120      0.0964      0.4409      0.0681      0.0000
  4     13.6033     13.6225     13.8801     13.7035     13.9085     13.7504     13.6557     13.3506     13.6222
  5      0.0000      0.1940      0.2030      0.1440      0.2108      0.2022      0.1730      0.0000      0.3719
  6      0.0000      0.0747      0.0000      0.0000      0.0298      0.0422      0.0000      0.0000      0.0000
  7     19.1962     21.2799     21.4639     21.3648     21.2251     20.9019     21.3771     21.2999     20.7185
  8      0.0000      0.0410      0.0000      0.0000      0.0000      0.0000      0.0000      0.0896      0.0000
  9      1.1329      0.5767      0.5424      0.4218      0.6093      0.6607      0.9261      0.8850      1.2463
 10      2.6451      0.6031      0.9724      0.9180      0.7494      1.1969      0.7467      0.5921      0.7009
 11      0.0000      0.1625      0.0000      0.1905      0.1533      0.0944      0.0000      0.0640      0.1769
 12     19.5377     20.2371     19.9448     20.2703     20.2633     20.2431     20.1093     20.1666     20.3306
 13     20.7987     21.4728     21.7109     21.5238     21.5898     21.4923     21.0509     21.3602     21.6461
 14      7.4668      7.5916      7.4926      7.5639      7.5310      7.8288      7.5610      7.6328      7.3856
 15      0.0000      0.0714      0.0657      0.1579      0.0000      0.0000      0.0000      0.0449      0.1667
 16      0.0000      0.0142      0.0666      0.0004      0.0000      0.0000      0.0000      0.0000      0.1649
 17      0.0000      0.0318      0.0226      0.0000      0.0504      0.1736      0.0000      0.0000      0.0000
 18      0.0000      0.1576      0.0000      0.0000      0.2416      0.0114      0.0000      0.4258      0.2874
 19      0.0000      0.0453      0.0283      0.0000      0.0000      0.0000      0.0499      0.0843      0.0778
 20      0.0000      0.0191      0.0000      0.0000      0.0000      0.0000      0.0000      0.0000      0.0000
 21      0.0000      0.0545      0.0000      0.0000      0.1838      0.0000      0.0000      0.0000      0.0000
 22      0.0000      0.0558      0.0000      0.0000      0.0001      0.0000      0.0749      0.0000      0.0000
 23      0.0000      0.0201      0.0000      0.0000      0.0000      0.0000      0.0000      0.0000      0.0000
 24      0.0000      0.0201      0.0000      0.0000      0.0000      0.0000      0.0000      0.0000      0.0000
 25      0.0000      0.0283      0.0000      0.0000      0.0000      0.0000      0.0000      0.0000      0.0000
 26      0.0000      0.0431      0.0507      0.0720      0.0000      0.0000      0.0000      0.0000      0.0000
 27      0.0000      0.0440      0.0000      0.0000      0.0000      0.0000      0.0000      0.0711      0.0000
 28      0.9619      0.7041      0.6298      0.6326      0.6146      0.7621      0.9287      0.4781      0.8868
 29      1.7151      0.8432      0.8689      0.6559      0.8601      0.6342      0.8769      0.8723      0.7598
 30      0.0000      0.2483      0.2547      0.0000      0.3027      0.1406      0.2973      0.5831      0.3120
 31      0.0000      0.0240      0.0000      0.0000      0.0000      0.0000      0.0000      0.1048      0.0000
 32      0.0000      0.0510      0.0357      0.0000      0.0000      0.0000      0.1499      0.0103      0.0000
 33      0.0000      0.0686      0.0000      0.1334      0.0000      0.1424      0.0300      0.0984      0.0000
 34      0.0000      0.0233      0.0000      0.1514      0.0000      0.0000      0.0000      0.0090      0.0000
 35      0.0000      0.0337      0.0000      0.0014      0.0000      0.0000      0.0698      0.0000      0.0000
 36      0.0000      0.0199      0.0000      0.0000      0.0000      0.0000      0.0321      0.0000      0.0000
 37      0.0000      0.0444      0.0000      0.0000      0.0000      0.0217      0.0000      0.0199      0.0000
 38      0.0000      0.0156      0.0000      0.0000      0.0000      0.0000      0.0000      0.0000      0.0051
 39      0.0000      0.0154      0.0000      0.0000      0.0000      0.0000      0.0000      0.0000      0.0000
 40      0.0000      0.0213      0.0000      0.0000      0.0240      0.0000      0.0000      0.0000      0.0000
 41      0.0000      0.0212      0.0000      0.0000      0.0000      0.0000      0.0000      0.0000      0.0000
 42      0.0000      0.0221      0.0000      0.0000      0.0000      0.0071      0.0000      0.0000      0.0000
 43      0.0000      0.3756      0.4111      0.5186      0.2752      0.3598      0.4090      0.5262      0.2581
 44      3.4661      3.0968      3.1643      3.1732      3.1711      3.1479      3.1489      3.0722      3.0486
 45      0.0000      0.5206      0.5214      0.5472      0.5558      0.5277      0.5554      0.4354      0.4907

# j      m_j: min, <> & last-chain-values for 1 ...  7 chains
  1  0.0000E+00  1.4781E-04  5.1432E-05  0.0000E+00  0.0000E+00  0.0000E+00  0.0000E+00  3.3029E-04  0.0000E+00
  2  2.6312E-02  1.9802E-02  2.0263E-02  2.1530E-02  1.9547E-02  2.0651E-02  1.9850E-02  2.0620E-02  2.0224E-02
  3  0.0000E+00  4.6762E-04  7.7408E-04  0.0000E+00  8.7564E-04  4.0288E-04  1.8139E-03  2.8053E-04  0.0000E+00
  4  1.0721E-01  1.0528E-01  1.0679E-01  1.0679E-01  1.0696E-01  1.0701E-01  1.0461E-01  1.0236E-01  1.0616E-01
  5  0.0000E+00  3.4659E-03  3.6108E-03  2.5951E-03  3.7479E-03  3.6384E-03  3.0651E-03  0.0000E+00  6.7008E-03
  6  0.0000E+00  1.8548E-03  0.0000E+00  0.0000E+00  7.3726E-04  1.0548E-03  0.0000E+00  0.0000E+00  0.0000E+00
  7  6.8947E-01  7.4949E-01  7.5264E-01  7.5881E-01  7.4388E-01  7.4136E-01  7.4635E-01  7.4427E-01  7.3584E-01
  8  0.0000E+00  2.7834E-03  0.0000E+00  0.0000E+00  0.0000E+00  0.0000E+00  0.0000E+00  6.0400E-03  0.0000E+00
  9  1.5630E-01  7.8019E-02  7.3052E-02  5.7548E-02  8.2020E-02  9.0020E-02  1.2419E-01  1.1878E-01  1.7002E-01
 10  5.0948E-01  1.1390E-01  1.8286E-01  1.7486E-01  1.4085E-01  2.2767E-01  1.3980E-01  1.1096E-01  1.3350E-01
 11  0.0000E+00  5.3901E-02  0.0000E+00  6.3705E-02  5.0594E-02  3.1543E-02  0.0000E+00  2.1062E-02  5.9166E-02
 12  1.2288E+01  1.2481E+01  1.2246E+01  1.2606E+01  1.2436E+01  1.2572E+01  1.2294E+01  1.2339E+01  1.2644E+01
 13  2.6050E+01  2.6372E+01  2.6547E+01  2.6658E+01  2.6386E+01  2.6582E+01  2.5629E+01  2.6027E+01  2.6808E+01
 14  1.9061E+01  1.9004E+01  1.8673E+01  1.9094E+01  1.8759E+01  1.9736E+01  1.8762E+01  1.8956E+01  1.8643E+01
 15  0.0000E+00  2.0713E-01  1.8964E-01  4.6176E-01  0.0000E+00  0.0000E+00  0.0000E+00  1.2919E-01  4.8765E-01
 16  0.0000E+00  7.9363E-05  3.6967E-04  2.0139E-06  0.0000E+00  0.0000E+00  0.0000E+00  0.0000E+00  9.2653E-04
 17  0.0000E+00  9.2210E-05  6.5279E-05  0.0000E+00  1.4518E-04  5.0650E-04  0.0000E+00  0.0000E+00  0.0000E+00
 18  0.0000E+00  5.0581E-04  0.0000E+00  0.0000E+00  7.7155E-04  3.6952E-05  0.0000E+00  1.3554E-03  9.2985E-04
 19  0.0000E+00  4.3423E-04  2.6997E-04  0.0000E+00  0.0000E+00  0.0000E+00  4.7500E-04  8.0231E-04  7.5307E-04
 20  0.0000E+00  4.0788E-04  0.0000E+00  0.0000E+00  0.0000E+00  0.0000E+00  0.0000E+00  0.0000E+00  0.0000E+00
 21  0.0000E+00  1.3969E-03  0.0000E+00  0.0000E+00  4.6873E-03  0.0000E+00  0.0000E+00  0.0000E+00  0.0000E+00
 22  0.0000E+00  2.3785E-03  0.0000E+00  0.0000E+00  6.3316E-06  0.0000E+00  3.1626E-03  0.0000E+00  0.0000E+00
 23  0.0000E+00  1.6853E-03  0.0000E+00  0.0000E+00  0.0000E+00  0.0000E+00  0.0000E+00  0.0000E+00  0.0000E+00
 24  0.0000E+00  3.8530E-03  0.0000E+00  0.0000E+00  0.0000E+00  0.0000E+00  0.0000E+00  0.0000E+00  0.0000E+00
 25  0.0000E+00  8.3409E-03  0.0000E+00  0.0000E+00  0.0000E+00  0.0000E+00  0.0000E+00  0.0000E+00  0.0000E+00
 26  0.0000E+00  2.3961E-02  2.8084E-02  4.0410E-02  0.0000E+00  0.0000E+00  0.0000E+00  0.0000E+00  0.0000E+00
 27  0.0000E+00  4.9670E-02  0.0000E+00  0.0000E+00  0.0000E+00  0.0000E+00  0.0000E+00  7.9730E-02  0.0000E+00
 28  2.2418E+00  1.6093E+00  1.4330E+00  1.4580E+00  1.3978E+00  1.7539E+00  2.1040E+00  1.0842E+00  2.0438E+00
 29  8.4625E+00  4.0796E+00  4.1858E+00  3.2003E+00  4.1412E+00  3.0902E+00  4.2057E+00  4.1870E+00  3.7071E+00
 30  0.0000E+00  1.4332E+00  1.4636E+00  0.0000E+00  1.7386E+00  8.1722E-01  1.7012E+00  3.3391E+00  1.8159E+00
 31  0.0000E+00  1.0037E-04  0.0000E+00  0.0000E+00  0.0000E+00  0.0000E+00  0.0000E+00  4.3463E-04  0.0000E+00
 32  0.0000E+00  1.1247E-04  7.8304E-05  0.0000E+00  0.0000E+00  0.0000E+00  3.2737E-04  2.2619E-05  0.0000E+00
 33  0.0000E+00  2.2421E-04  0.0000E+00  4.3965E-04  0.0000E+00  4.6880E-04  9.7072E-05  3.1927E-04  0.0000E+00
