###################################################################
## OUTPUT of StarlightChains_v04.for    [Cid@UFSC - 01/Apr/2007] ##
###################################################################

## Some input info
NGC6638_a_1.cxt                          [arq_obs]
Base.BC03.N                              [arq_base]
NGC6638_a_1.msk                          [arq_masks]
StCv04.C11.config                        [arq_config]
   45                                    [N_base]
    0                                    [N_YAV_components = # of components with extra extinction!]
    0                                    [i_FitPowerLaw (1/0 = Yes/No)]
-9.99                                    [alpha_PowerLaw]
CCM                                      [red_law_option]
 1.458241                                [q_norm = A(l_norm)/A(V)]

## (Re)Sampling Parameters
 3359.00                                 [l_ini (A)]
 6428.00                                 [l_fin (A)]
    1.00                                 [dl    (A)]     (OBS: dl_cushion =    50.00 A)

## Normalization info
 4020.00                                 [l_norm (A) - for base]
 4010.00                                 [llow_norm (A) - window for f_obs]
 4060.00                                 [lupp_norm (A) - window for f_obs]
7.127479E-15                             [fobs_norm (in input units)]

## S/N
 4730.00                                 [llow_SN (A) - window for S/N]
 4780.00                                 [lupp_SN (A) - window for S/N]
  53.764                                 [S/N in S/N window]
  34.599                                 [S/N in norm. window]
  41.866                                 [S/N_err in S/N window]
  26.942                                 [S/N_err in norm. window]
  1.0000                                 [fscale_chi2]

## etc...
  2147483593                             [idum_orig]
  3067                                   [NOl_eff]
  1671                                   [Nl_eff]
  1396    NSIGMA                         [Ntot_cliped & clip_method]
   884800                                [Nglobal_steps]
   7                                     [N_chains]
  13                                     [NEX0s_base = N_base in EX0s-fits]
 0   0   1      211   2.0   5.860E+02    [Clip-Bug, RC-Crash & Burn-In warning-flags, n_censored_weights, wei_nsig_threshold & wei_limit]
    11     10.585     10.577      0.008  [idt_all, wdt_TotTime, wdt_UsrTime & wdt_SysTime (sec)]

## Synthesis Results - Best model ##

 2.51866E+00                             [chi2/Nl_eff]
     2.26331                             [adev (%)]

    99.34415                             [sum-of-x (%)]
 4.97885E-14                             [Flux_tot (units of input spectrum!)]
 1.22783E-09                             [Mini_tot (???)]
 6.32919E-10                             [Mcor_tot (???)]

   8.34                                  [v0_min  (km/s)]
  57.06                                  [vd_min  (km/s)]
 1.4522                                  [AV_min  (mag)]
 0.0000                                  [YAV_min (mag)]

# j     x_j(%)      Mini_j(%)     Mcor_j(%)     age_j(yr)     Z_j      (L/M)_j    YAV?  Mstars   component_j        a/Fe...       SSP_chi2r SSP_adev(%)   SSP_AV   SSP_x(%)
  1      0.0000     0.0000E+00    0.0000E+00    1.000000E+06  0.00400  1.114E-02    0   1.0000   age020_m42            0.0000     1.0016E+03    31.5796   4.0000    80.1836
  2     13.7411     1.3771E-02    2.6712E-02    3.160000E+06  0.00400  4.073E-02    0   0.9999   age045_m42            0.0000     1.3889E+02     6.5794   4.0000    92.4372
  3      0.0000     0.0000E+00    0.0000E+00    5.010000E+06  0.00400  2.534E-02    0   0.9488   age055_m42            0.0000     3.5543E+02    16.9162   4.0000    87.8554
  4      9.8308     3.1571E-02    5.4277E-02    1.000000E+07  0.00400  1.271E-02    0   0.8862   age070_m42            0.0000     1.6670E+02     8.5945   3.8315    88.6979
  5      0.0000     0.0000E+00    0.0000E+00    2.512000E+07  0.00400  5.070E-03    0   0.8174   age090_m42            0.0000     1.4553E+02     7.9079   3.6843    90.4308
  6      0.0000     0.0000E+00    0.0000E+00    4.000000E+07  0.00400  3.505E-03    0   0.7851   age104_m42            0.0000     1.1285E+02     6.1638   3.3267    93.5965
  7      4.0346     7.2612E-02    1.0152E-01    1.015200E+08  0.00400  2.268E-03    0   0.7207   age116_m42            0.0000     4.9930E+02     8.8986   3.1006   103.3128
  8      0.0000     0.0000E+00    0.0000E+00    2.861200E+08  0.00400  1.079E-03    0   0.6613   age125_m42            0.0000     5.2796E+02    10.4518   2.5396   105.9845
  9      0.0000     0.0000E+00    0.0000E+00    6.405400E+08  0.00400  5.077E-04    0   0.6197   age132_m42            0.0000     5.6517E+02    11.4197   2.1537   110.0231
 10      0.0000     0.0000E+00    0.0000E+00    9.047900E+08  0.00400  3.535E-04    0   0.6024   age135_m42            0.0000     3.8876E+02    10.0052   1.9372   109.3696
 11      0.0000     0.0000E+00    0.0000E+00    1.434000E+09  0.00400  1.910E-04    0   0.5716   age139_m42            0.0000     1.9517E+02     8.1679   1.4118   108.8907
 12      7.8250     3.2532E+00    3.4477E+00    2.500000E+09  0.00400  9.818E-05    0   0.5463   age150_m42            0.0000     5.5752E+01     5.5426   1.1899   104.6419
 13     26.8060     2.3191E+01    2.3521E+01    5.000000E+09  0.00400  4.718E-05    0   0.5228   age161_m42            0.0000     2.4908E+01     4.4247   1.0588   101.5702
 14     20.0868     3.7184E+01    3.5923E+01    1.100000E+10  0.00400  2.205E-05    0   0.4980   age185_m42            0.0000     5.8783E+01     5.6333   0.7797   100.2245
 15      0.0000     0.0000E+00    0.0000E+00    1.300000E+10  0.00400  1.883E-05    0   0.4927   age193_m42            0.0000     6.8566E+01     5.7418   0.7627   100.1708
 16      0.0000     0.0000E+00    0.0000E+00    1.000000E+06  0.02000  1.989E-02    0   1.0000   age020_m62            0.0000     9.5367E+02    30.6951   4.0000    80.9156
 17      0.0000     0.0000E+00    0.0000E+00    3.160000E+06  0.02000  3.772E-02    0   0.9858   age045_m62            0.0000     7.8560E+02    27.2423   4.0000    83.2540
 18      0.0000     0.0000E+00    0.0000E+00    5.010000E+06  0.02000  3.227E-02    0   0.9342   age055_m62            0.0000     2.5322E+02    12.7735   4.0000    90.3723
 19      0.0000     0.0000E+00    0.0000E+00    1.000000E+07  0.02000  1.011E-02    0   0.8751   age070_m62            0.0000     2.8571E+02    12.5585   3.9150    85.0205
 20      0.0000     0.0000E+00    0.0000E+00    2.512000E+07  0.02000  4.206E-03    0   0.8099   age090_m62            0.0000     2.1304E+02    10.3032   3.8159    86.2684
 21      0.0000     0.0000E+00    0.0000E+00    4.000000E+07  0.02000  3.373E-03    0   0.7799   age104_m62            0.0000     1.4930E+02     6.2540   3.5108    94.8725
 22      0.0000     0.0000E+00    0.0000E+00    1.015200E+08  0.02000  1.878E-03    0   0.7221   age116_m62            0.0000     4.3756E+02     8.2122   3.1562   103.3734
 23      0.0000     0.0000E+00    0.0000E+00    2.861200E+08  0.02000  8.869E-04    0   0.6700   age125_m62            0.0000     8.2333E+02    13.1453   2.4775   111.3014
 24      0.0000     0.0000E+00    0.0000E+00    6.405400E+08  0.02000  3.657E-04    0   0.6322   age132_m62            0.0000     5.6616E+02    13.3419   1.7238   115.7348
 25      0.0000     0.0000E+00    0.0000E+00    9.047900E+08  0.02000  2.312E-04    0   0.6152   age135_m62            0.0000     3.3817E+02    11.4081   1.3889   114.7236
 26      0.0000     0.0000E+00    0.0000E+00    1.434000E+09  0.02000  1.168E-04    0   0.5865   age139_m62            0.0000     1.0528E+02     7.6423   1.0679   109.0423
 27      0.0000     0.0000E+00    0.0000E+00    2.500000E+09  0.02000  5.505E-05    0   0.5610   age150_m62            0.0000     8.1964E+01     7.4653   0.7038   106.8014
 28      4.7332     7.4422E+00    7.7284E+00    5.000000E+09  0.02000  2.596E-05    0   0.5353   age161_m62            0.0000     1.7042E+02     9.5190   0.3208   107.7291
 29      0.9897     3.4558E+00    3.4211E+00    1.100000E+10  0.02000  1.169E-05    0   0.5103   age185_m62            0.0000     3.1123E+02    11.9333  -0.1120   110.3594
 30      2.0118     8.4736E+00    8.2964E+00    1.300000E+10  0.02000  9.691E-06    0   0.5047   age193_m62            0.0000     3.4262E+02    12.3220  -0.1679   110.7903
 31      0.0000     0.0000E+00    0.0000E+00    1.000000E+06  0.05000  2.651E-02    0   0.9998   age020_m72            0.0000     9.2005E+02    30.4405   4.0000    81.9036
 32      0.0000     0.0000E+00    0.0000E+00    3.160000E+06  0.05000  4.817E-02    0   0.9577   age045_m72            0.0000     5.6988E+02    22.8371   4.0000    86.9033
 33      0.0000     0.0000E+00    0.0000E+00    5.010000E+06  0.05000  3.101E-02    0   0.9147   age055_m72            0.0000     3.2421E+02    13.6679   4.0000    88.8370
 34      0.0000     0.0000E+00    0.0000E+00    1.000000E+07  0.05000  8.954E-03    0   0.8524   age070_m72            0.0000     4.4902E+02    19.4917   4.0000    88.0771
 35      0.0000     0.0000E+00    0.0000E+00    2.512000E+07  0.05000  4.207E-03    0   0.7902   age090_m72            0.0000     1.6086E+02     7.7134   4.0000    92.4395
 36      0.0000     0.0000E+00    0.0000E+00    4.000000E+07  0.05000  3.198E-03    0   0.7618   age104_m72            0.0000     2.8174E+02     5.8182   3.5898    99.4296
 37      0.0000     0.0000E+00    0.0000E+00    1.015200E+08  0.05000  1.716E-03    0   0.7092   age116_m72            0.0000     5.0909E+02     8.8859   3.2242   103.7234
 38      0.0000     0.0000E+00    0.0000E+00    2.861200E+08  0.05000  7.047E-04    0   0.6618   age125_m72            0.0000     7.8831E+02    13.0605   2.2469   112.3805
 39      0.0000     0.0000E+00    0.0000E+00    6.405400E+08  0.05000  2.633E-04    0   0.6253   age132_m72            0.0000     4.3373E+02    12.7461   1.3406   115.5254
 40      0.0000     0.0000E+00    0.0000E+00    9.047900E+08  0.05000  1.484E-04    0   0.6088   age135_m72            0.0000     1.7857E+02    10.1906   0.9135   110.6384
 41      2.2265     1.1611E+00    1.3170E+00    1.434000E+09  0.05000  7.827E-05    0   0.5847   age139_m72            0.0000     1.3000E+02     9.4420   0.5516   107.9169
 42      4.0733     4.4231E+00    4.7905E+00    2.500000E+09  0.05000  3.759E-05    0   0.5583   age150_m72            0.0000     1.8795E+02    10.0111   0.2341   107.6673
 43      2.0366     5.3700E+00    5.5422E+00    5.000000E+09  0.05000  1.548E-05    0   0.5320   age161_m72            0.0000     2.9924E+02    12.0108  -0.2301   108.3017
 44      0.9487     5.9282E+00    5.8307E+00    1.100000E+10  0.05000  6.532E-06    0   0.5070   age185_m72            0.0000     4.4819E+02    15.6251  -0.7527   110.1756
 45      0.0000     0.0000E+00    0.0000E+00    1.300000E+10  0.05000  5.316E-06    0   0.5018   age193_m72            0.0000     5.1634E+02    17.0880  -0.9376   111.1800


## Synthesis Results - Average & Chains ##

# j      x_j: min, <> & last-chain-values for 1 ...  7 chains
  1      0.0000      0.0092      0.0000      0.0000      0.0000      0.0000      0.0000      0.0000      0.0000
  2     13.7411     13.0117     13.2365     13.0330     13.4196     13.0748     13.2808     13.2020     13.1059
  3      0.0000      0.0814      0.0000      0.0347      0.0000      0.0000      0.0000      0.0000      0.0738
  4      9.8308      9.3523      9.4609      9.6305      9.5573      9.6074      9.3789      9.6191      9.3638
  5      0.0000      0.0347      0.0000      0.0000      0.0000      0.2129      0.0000      0.0000      0.0000
  6      0.0000      0.0336      0.0000      0.0000      0.0700      0.0000      0.0240      0.0000      0.0232
  7      4.0346      4.1588      3.9694      4.1748      3.8466      3.7527      4.3117      4.1300      3.9080
  8      0.0000      0.0263      0.0326      0.0000      0.0685      0.0175      0.0000      0.0000      0.1389
  9      0.0000      0.0507      0.0000      0.0000      0.0000      0.0057      0.1932      0.1412      0.0000
 10      0.0000      0.0979      0.0000      0.0090      0.0000      0.5720      0.0961      0.0000      0.0000
 11      0.0000      0.1265      0.1770      0.2359      0.2211      0.3440      0.0000      0.0576      0.0000
 12      7.8250      8.2717      8.4456      8.2268      8.2787      8.3625      8.0685      8.0406      9.2833
 13     26.8060     27.2466     27.5012     27.6628     27.5564     27.3316     27.2661     26.9966     27.2537
 14     20.0868     20.4750     20.3983     20.4450     20.5781     20.0930     20.4363     20.8628     20.3947
 15      0.0000      0.1095      0.0000      0.0000      0.0000      0.0106      0.0000      0.0000      0.0000
 16      0.0000      0.0066      0.0000      0.0000      0.0000      0.0000      0.0000      0.0000      0.0000
 17      0.0000      0.0058      0.0000      0.0000      0.0000      0.0000      0.0000      0.0000      0.0000
 18      0.0000      0.3394      0.4732      0.3973      0.1481      0.4926      0.3707      0.2484      0.4547
 19      0.0000      0.0126      0.0196      0.0000      0.0000      0.0000      0.0000      0.0000      0.0302
 20      0.0000      0.0086      0.0000      0.0000      0.0000      0.0000      0.0000      0.0000      0.0000
 21      0.0000      0.0457      0.0000      0.0000      0.0000      0.0000      0.0000      0.0000      0.0000
 22      0.0000      0.0344      0.0011      0.0000      0.0000      0.0000      0.0000      0.0000      0.0618
 23      0.0000      0.0151      0.0000      0.0000      0.0000      0.0000      0.0000      0.0000      0.0753
 24      0.0000      0.0165      0.0044      0.0260      0.0035      0.0000      0.0000      0.0000      0.0000
 25      0.0000      0.0184      0.0000      0.0000      0.0000      0.0000      0.0000      0.0308      0.0000
 26      0.0000      0.0935      0.1726      0.0000      0.0000      0.0000      0.0000      0.0000      0.0000
 27      0.0000      0.1308      0.0000      0.0000      0.0000      0.0000      0.0000      0.1747      0.2589
 28      4.7332      6.1133      6.1110      6.0209      6.1809      5.8140      6.3539      6.2040      5.5474
 29      0.9897      2.5184      2.7569      2.1061      2.2185      2.2932      2.5123      2.3621      2.4308
 30      2.0118      3.7848      3.3598      3.7789      3.8595      3.9332      3.8704      3.7266      3.5789
 31      0.0000      0.0036      0.0000      0.0000      0.0000      0.0000      0.0000      0.0000      0.0000
 32      0.0000      0.0207      0.0000      0.0000      0.0000      0.0000      0.0672      0.0000      0.0578
 33      0.0000      0.0871      0.0000      0.0000      0.0753      0.0012      0.1216      0.1098      0.0000
 34      0.0000      0.0114      0.0000      0.0669      0.0000      0.0000      0.0000      0.0000      0.0000
 35      0.0000      0.0151      0.0000      0.0000      0.0000      0.0000      0.0000      0.0000      0.0000
 36      0.0000      0.0936      0.0000      0.0000      0.2074      0.0000      0.0131      0.1753      0.0000
 37      0.0000      0.0384      0.0000      0.0000      0.0000      0.0216      0.0000      0.1272      0.0000
 38      0.0000      0.0129      0.0385      0.0000      0.1115      0.0000      0.0000      0.0031      0.0000
 39      0.0000      0.0413      0.0999      0.0000      0.0000      0.0000      0.0153      0.0000      0.0000
 40      0.0000      0.0528      0.0000      0.1152      0.0000      0.0000      0.0000      0.0000      0.0000
 41      2.2265      0.5887      0.9160      0.9219      0.6277      0.6998      1.1638      0.8032      0.7521
 42      4.0733      0.6734      0.7503      1.1562      1.2204      1.0564      0.3605      0.5243      1.1404
 43      2.0366      0.3150      0.2875      0.2806      0.2643      0.5716      0.2222      0.7647      0.4846
 44      0.9487      0.6729      0.6892      0.5417      0.6387      0.7163      0.5440      0.7386      0.6654
 45      0.0000      0.6051      0.5288      0.5329      0.2495      0.4714      0.7827      0.3761      0.3408

# j      m_j: min, <> & last-chain-values for 1 ...  7 chains
  1  0.0000E+00  5.9657E-05  0.0000E+00  0.0000E+00  0.0000E+00  0.0000E+00  0.0000E+00  0.0000E+00  0.0000E+00
  2  2.6712E-02  2.3045E-02  2.3736E-02  2.3585E-02  2.4410E-02  2.3374E-02  2.3432E-02  2.3525E-02  2.3847E-02
  3  0.0000E+00  2.2001E-04  0.0000E+00  9.5703E-05  0.0000E+00  0.0000E+00  0.0000E+00  0.0000E+00  2.0475E-04
  4  5.4277E-02  4.7043E-02  4.8185E-02  4.9499E-02  4.9376E-02  4.8781E-02  4.6997E-02  4.8682E-02  4.8390E-02
  5  0.0000E+00  4.0324E-04  0.0000E+00  0.0000E+00  0.0000E+00  2.4994E-03  0.0000E+00  0.0000E+00  0.0000E+00
  6  0.0000E+00  5.4295E-04  0.0000E+00  0.0000E+00  1.1613E-03  0.0000E+00  3.8714E-04  0.0000E+00  3.8545E-04
  7  1.0152E-01  9.5339E-02  9.2136E-02  9.7792E-02  9.0570E-02  8.6839E-02  9.8468E-02  9.5259E-02  9.2041E-02
  8  0.0000E+00  1.1636E-03  1.4589E-03  0.0000E+00  3.1127E-03  7.8086E-04  0.0000E+00  0.0000E+00  6.3095E-03
  9  0.0000E+00  4.4669E-03  0.0000E+00  0.0000E+00  0.0000E+00  5.0646E-04  1.6946E-02  1.2514E-02  0.0000E+00
 10  0.0000E+00  1.2040E-02  0.0000E+00  1.1309E-03  0.0000E+00  7.0984E-02  1.1763E-02  0.0000E+00  0.0000E+00
 11  0.0000E+00  2.7313E-02  3.8695E-02  5.2051E-02  4.9039E-02  7.4975E-02  0.0000E+00  1.2503E-02  0.0000E+00
 12  3.4477E+00  3.3204E+00  3.4327E+00  3.3744E+00  3.4132E+00  3.3885E+00  3.2266E+00  3.2474E+00  3.8285E+00
 13  2.3521E+01  2.1781E+01  2.2260E+01  2.2596E+01  2.2625E+01  2.2055E+01  2.1714E+01  2.1713E+01  2.2383E+01
 14  3.5923E+01  3.3361E+01  3.3652E+01  3.4038E+01  3.4437E+01  3.3047E+01  3.3171E+01  3.4201E+01  3.4139E+01
 15  0.0000E+00  2.0674E-01  0.0000E+00  0.0000E+00  0.0000E+00  2.0119E-02  0.0000E+00  0.0000E+00  0.0000E+00
 16  0.0000E+00  2.3852E-05  0.0000E+00  0.0000E+00  0.0000E+00  0.0000E+00  0.0000E+00  0.0000E+00  0.0000E+00
 17  0.0000E+00  1.0992E-05  0.0000E+00  0.0000E+00  0.0000E+00  0.0000E+00  0.0000E+00  0.0000E+00  0.0000E+00
 18  0.0000E+00  7.0881E-04  1.0007E-03  8.4781E-04  3.1771E-04  1.0386E-03  7.7131E-04  5.2206E-04  9.7565E-04
 19  0.0000E+00  7.8529E-05  1.2399E-04  0.0000E+00  0.0000E+00  0.0000E+00  0.0000E+00  0.0000E+00  1.9367E-04
 20  0.0000E+00  1.1943E-04  0.0000E+00  0.0000E+00  0.0000E+00  0.0000E+00  0.0000E+00  0.0000E+00  0.0000E+00
 21  0.0000E+00  7.6224E-04  0.0000E+00  0.0000E+00  0.0000E+00  0.0000E+00  0.0000E+00  0.0000E+00  0.0000E+00
 22  0.0000E+00  9.5334E-04  2.9803E-05  0.0000E+00  0.0000E+00  0.0000E+00  0.0000E+00  0.0000E+00  1.7599E-03
 23  0.0000E+00  8.2260E-04  0.0000E+00  0.0000E+00  0.0000E+00  0.0000E+00  0.0000E+00  0.0000E+00  4.2188E-03
 24  0.0000E+00  2.0608E-03  5.5232E-04  3.3175E-03  4.4617E-04  0.0000E+00  0.0000E+00  0.0000E+00  0.0000E+00
 25  0.0000E+00  3.5363E-03  0.0000E+00  0.0000E+00  0.0000E+00  0.0000E+00  0.0000E+00  5.9409E-03  0.0000E+00
 26  0.0000E+00  3.3877E-02  6.3307E-02  0.0000E+00  0.0000E+00  0.0000E+00  0.0000E+00  0.0000E+00  0.0000E+00
 27  0.0000E+00  9.6197E-02  0.0000E+00  0.0000E+00  0.0000E+00  0.0000E+00  0.0000E+00  1.2920E-01  1.9557E-01
 28  7.7284E+00  9.0941E+00  9.2045E+00  9.1519E+00  9.4436E+00  8.7303E+00  9.4161E+00  9.2855E+00  8.4782E+00
 29  3.4211E+00  7.9309E+00  8.7908E+00  6.7770E+00  7.1758E+00  7.2899E+00  7.8816E+00  7.4843E+00  7.8648E+00
 30  8.2964E+00  1.4220E+01  1.2781E+01  1.4507E+01  1.4893E+01  1.4917E+01  1.4486E+01  1.4087E+01  1.3814E+01
 31  0.0000E+00  9.7254E-06  0.0000E+00  0.0000E+00  0.0000E+00  0.0000E+00  0.0000E+00  0.0000E+00  0.0000E+00
 32  0.0000E+00  2.9639E-05  0.0000E+00  0.0000E+00  0.0000E+00  0.0000E+00  9.5955E-05  0.0000E+00  8.5205E-05
 33  0.0000E+00  1.8537E-04  0.0000E+00  0.0000E+00  1.6465E-04  2.6417E-06  2.5781E-04  2.3502E-04  0.0000E+00
