###################################################################
## OUTPUT of StarlightChains_v04.for    [Cid@UFSC - 01/Apr/2007] ##
###################################################################

## Some input info
NGC6316_b_1.cxt                          [arq_obs]
Base.BC03.N                              [arq_base]
NGC6316_b_1.msk                          [arq_masks]
StCv04.C11.config                        [arq_config]
   45                                    [N_base]
    0                                    [N_YAV_components = # of components with extra extinction!]
    0                                    [i_FitPowerLaw (1/0 = Yes/No)]
-9.99                                    [alpha_PowerLaw]
CCM                                      [red_law_option]
 1.458241                                [q_norm = A(l_norm)/A(V)]

## (Re)Sampling Parameters
 3359.00                                 [l_ini (A)]
 6428.00                                 [l_fin (A)]
    1.00                                 [dl    (A)]     (OBS: dl_cushion =    50.00 A)

## Normalization info
 4020.00                                 [l_norm (A) - for base]
 4010.00                                 [llow_norm (A) - window for f_obs]
 4060.00                                 [lupp_norm (A) - window for f_obs]
4.941922E-15                             [fobs_norm (in input units)]

## S/N
 4730.00                                 [llow_SN (A) - window for S/N]
 4780.00                                 [lupp_SN (A) - window for S/N]
  40.026                                 [S/N in S/N window]
  23.956                                 [S/N in norm. window]
 311.877                                 [S/N_err in S/N window]
 186.662                                 [S/N_err in norm. window]
  1.0000                                 [fscale_chi2]

## etc...
  2147483617                             [idum_orig]
  3069                                   [NOl_eff]
  1300                                   [Nl_eff]
  1769    NSIGMA                         [Ntot_cliped & clip_method]
  1151500                                [Nglobal_steps]
   7                                     [N_chains]
  16                                     [NEX0s_base = N_base in EX0s-fits]
 0   0   1      129   2.0   4.321E+02    [Clip-Bug, RC-Crash & Burn-In warning-flags, n_censored_weights, wei_nsig_threshold & wei_limit]
    12     11.462     11.454      0.008  [idt_all, wdt_TotTime, wdt_UsrTime & wdt_SysTime (sec)]

## Synthesis Results - Best model ##

 2.76851E+00                             [chi2/Nl_eff]
     2.09522                             [adev (%)]

    95.58600                             [sum-of-x (%)]
 6.89300E-14                             [Flux_tot (units of input spectrum!)]
 2.09421E-09                             [Mini_tot (???)]
 1.06427E-09                             [Mcor_tot (???)]

 -13.24                                  [v0_min  (km/s)]
  43.47                                  [vd_min  (km/s)]
 1.9958                                  [AV_min  (mag)]
 0.0000                                  [YAV_min (mag)]

# j     x_j(%)      Mini_j(%)     Mcor_j(%)     age_j(yr)     Z_j      (L/M)_j    YAV?  Mstars   component_j        a/Fe...       SSP_chi2r SSP_adev(%)   SSP_AV   SSP_x(%)
  1      4.6876     1.4490E-02    2.8512E-02    1.000000E+06  0.00400  1.114E-02    0   1.0000   age020_m42            0.0000     2.2766E+03    35.6201   4.0000    95.8091
  2      3.4254     2.8959E-03    5.6978E-03    3.160000E+06  0.00400  4.073E-02    0   0.9999   age045_m42            0.0000     3.6532E+02    13.7858   4.0000   101.5366
  3      8.8045     1.1964E-02    2.2338E-02    5.010000E+06  0.00400  2.534E-02    0   0.9488   age055_m42            0.0000     9.4234E+02    23.0707   4.0000   100.4760
  4      4.3443     1.1770E-02    2.0524E-02    1.000000E+07  0.00400  1.271E-02    0   0.8862   age070_m42            0.0000     2.4709E+02     6.9485   4.0000    95.2954
  5      0.0000     0.0000E+00    0.0000E+00    2.512000E+07  0.00400  5.070E-03    0   0.8174   age090_m42            0.0000     1.8909E+02     6.4151   4.0000    94.6254
  6      0.0000     0.0000E+00    0.0000E+00    4.000000E+07  0.00400  3.505E-03    0   0.7851   age104_m42            0.0000     1.4266E+02     5.2778   3.6938    96.4052
  7      0.0000     0.0000E+00    0.0000E+00    1.015200E+08  0.00400  2.268E-03    0   0.7207   age116_m42            0.0000     5.6153E+02    11.6902   3.5026   105.6944
  8      0.0000     0.0000E+00    0.0000E+00    2.861200E+08  0.00400  1.079E-03    0   0.6613   age125_m42            0.0000     5.9533E+02    12.5404   2.9941   107.2049
  9      0.0000     0.0000E+00    0.0000E+00    6.405400E+08  0.00400  5.077E-04    0   0.6197   age132_m42            0.0000     6.3767E+02    12.6841   2.6429   111.5968
 10      1.3798     1.3441E-01    1.5933E-01    9.047900E+08  0.00400  3.535E-04    0   0.6024   age135_m42            0.0000     4.6555E+02    11.5500   2.4117   110.7705
 11      0.0000     0.0000E+00    0.0000E+00    1.434000E+09  0.00400  1.910E-04    0   0.5716   age139_m42            0.0000     2.7131E+02    10.9651   1.8782   108.6508
 12      0.0000     0.0000E+00    0.0000E+00    2.500000E+09  0.00400  9.818E-05    0   0.5463   age150_m42            0.0000     1.1916E+02     9.4445   1.6069   103.7152
 13     31.8486     2.3245E+01    2.3913E+01    5.000000E+09  0.00400  4.718E-05    0   0.5228   age161_m42            0.0000     7.0828E+01     8.3269   1.4580   100.1835
 14     18.1018     2.8269E+01    2.7702E+01    1.100000E+10  0.00400  2.205E-05    0   0.4980   age185_m42            0.0000     1.0121E+02     9.7472   1.1724    97.7049
 15      6.7968     1.2429E+01    1.2050E+01    1.300000E+10  0.00400  1.883E-05    0   0.4927   age193_m42            0.0000     1.0854E+02     9.8310   1.1569    97.5008
 16      1.1141     1.9288E-03    3.7955E-03    1.000000E+06  0.02000  1.989E-02    0   1.0000   age020_m62            0.0000     2.2180E+03    34.7746   4.0000    96.4770
 17      0.8072     7.3691E-04    1.4294E-03    3.160000E+06  0.02000  3.772E-02    0   0.9858   age045_m62            0.0000     1.8882E+03    31.9022   4.0000    98.3540
 18      2.5666     2.7388E-03    5.0346E-03    5.010000E+06  0.02000  3.227E-02    0   0.9342   age055_m62            0.0000     7.0225E+02    19.7636   4.0000   102.0501
 19      0.0000     0.0000E+00    0.0000E+00    1.000000E+07  0.02000  1.011E-02    0   0.8751   age070_m62            0.0000     4.0120E+02    10.0059   4.0000    93.8300
 20      0.0000     0.0000E+00    0.0000E+00    2.512000E+07  0.02000  4.206E-03    0   0.8099   age090_m62            0.0000     2.8178E+02     8.3831   4.0000    92.7104
 21      0.0000     0.0000E+00    0.0000E+00    4.000000E+07  0.02000  3.373E-03    0   0.7799   age104_m62            0.0000     2.1241E+02     5.7092   3.8913    97.9601
 22      0.0000     0.0000E+00    0.0000E+00    1.015200E+08  0.02000  1.878E-03    0   0.7221   age116_m62            0.0000     5.0243E+02    10.0355   3.5765   105.9686
 23      0.0000     0.0000E+00    0.0000E+00    2.861200E+08  0.02000  8.869E-04    0   0.6700   age125_m62            0.0000     8.7544E+02    14.4584   2.9955   112.2550
 24      0.0000     0.0000E+00    0.0000E+00    6.405400E+08  0.02000  3.657E-04    0   0.6322   age132_m62            0.0000     6.5116E+02    15.0795   2.2742   115.0977
 25      0.0000     0.0000E+00    0.0000E+00    9.047900E+08  0.02000  2.312E-04    0   0.6152   age135_m62            0.0000     4.3223E+02    13.8549   1.9070   114.0109
 26      0.0000     0.0000E+00    0.0000E+00    1.434000E+09  0.02000  1.168E-04    0   0.5865   age139_m62            0.0000     1.8941E+02    11.2597   1.5196   107.7747
 27      0.0000     0.0000E+00    0.0000E+00    2.500000E+09  0.02000  5.505E-05    0   0.5610   age150_m62            0.0000     1.5244E+02    11.2575   1.1447   104.6731
 28      0.0000     0.0000E+00    0.0000E+00    5.000000E+09  0.02000  2.596E-05    0   0.5353   age161_m62            0.0000     2.3084E+02    13.5498   0.7723   104.3673
 29      7.4568     2.1965E+01    2.2056E+01    1.100000E+10  0.02000  1.169E-05    0   0.5103   age185_m62            0.0000     3.7238E+02    16.1724   0.3579   105.6721
 30      0.0000     0.0000E+00    0.0000E+00    1.300000E+10  0.02000  9.691E-06    0   0.5047   age193_m62            0.0000     4.0364E+02    16.5885   0.3056   105.8336
 31      0.7200     9.3517E-04    1.8398E-03    1.000000E+06  0.05000  2.651E-02    0   0.9998   age020_m72            0.0000     2.1719E+03    34.6871   4.0000    97.5719
 32      0.0000     0.0000E+00    0.0000E+00    3.160000E+06  0.05000  4.817E-02    0   0.9577   age045_m72            0.0000     1.4307E+03    28.4490   4.0000   101.1605
 33      0.0000     0.0000E+00    0.0000E+00    5.010000E+06  0.05000  3.101E-02    0   0.9147   age055_m72            0.0000     8.5404E+02    20.2826   4.0000   100.9883
 34      0.0000     0.0000E+00    0.0000E+00    1.000000E+07  0.05000  8.954E-03    0   0.8524   age070_m72            0.0000     1.1661E+03    25.4671   4.0000   101.5944
 35      0.0000     0.0000E+00    0.0000E+00    2.512000E+07  0.05000  4.207E-03    0   0.7902   age090_m72            0.0000     4.5161E+02    15.4523   4.0000   102.1240
 36      0.0000     0.0000E+00    0.0000E+00    4.000000E+07  0.05000  3.198E-03    0   0.7618   age104_m72            0.0000     3.5722E+02     8.6704   3.9402   101.9746
 37      0.0000     0.0000E+00    0.0000E+00    1.015200E+08  0.05000  1.716E-03    0   0.7092   age116_m72            0.0000     5.7720E+02    10.8581   3.6423   106.2290
 38      0.0000     0.0000E+00    0.0000E+00    2.861200E+08  0.05000  7.047E-04    0   0.6618   age125_m72            0.0000     8.4625E+02    15.1941   2.7598   112.6982
 39      0.0000     0.0000E+00    0.0000E+00    6.405400E+08  0.05000  2.633E-04    0   0.6253   age132_m72            0.0000     5.3766E+02    14.9857   1.8928   114.1478
 40      0.0000     0.0000E+00    0.0000E+00    9.047900E+08  0.05000  1.484E-04    0   0.6088   age135_m72            0.0000     2.8967E+02    13.4809   1.4183   108.5082
 41      0.0000     0.0000E+00    0.0000E+00    1.434000E+09  0.05000  7.827E-05    0   0.5847   age139_m72            0.0000     2.2764E+02    13.5286   1.0126   104.9214
 42      0.0000     0.0000E+00    0.0000E+00    2.500000E+09  0.05000  3.759E-05    0   0.5583   age150_m72            0.0000     2.6118E+02    14.2265   0.6797   104.0475
 43      1.8091     4.0243E+00    4.2127E+00    5.000000E+09  0.05000  1.548E-05    0   0.5320   age161_m72            0.0000     4.0509E+02    16.0732   0.2492   102.9741
 44      1.0590     5.5828E+00    5.5696E+00    1.100000E+10  0.05000  6.532E-06    0   0.5070   age185_m72            0.0000     6.2943E+02    19.9008  -0.2321   102.9106
 45      0.6643     4.3028E+00    4.2486E+00    1.300000E+10  0.05000  5.316E-06    0   0.5018   age193_m72            0.0000     7.2799E+02    21.3917  -0.3944   103.1735


## Synthesis Results - Average & Chains ##

# j      x_j: min, <> & last-chain-values for 1 ...  7 chains
  1      4.6876      4.5921      4.6188      4.6606      4.6680      4.5891      4.5900      4.5272      4.7032
  2      3.4254      2.9282      3.0476      3.0806      2.8183      3.0984      3.0336      2.8726      3.1285
  3      8.8045      8.4782      8.5373      8.5560      8.5316      8.6809      8.5351      8.6468      8.3924
  4      4.3443      3.8755      3.8722      3.9575      4.0773      4.0380      3.9432      3.8178      4.0050
  5      0.0000      0.1397      0.1718      0.1506      0.0000      0.0853      0.0837      0.0557      0.0559
  6      0.0000      0.0397      0.0932      0.1404      0.0000      0.0000      0.0000      0.0530      0.0000
  7      0.0000      0.0934      0.0000      0.0611      0.1231      0.0000      0.0000      0.0109      0.0000
  8      0.0000      0.0279      0.0000      0.0977      0.0000      0.0000      0.0000      0.0000      0.0000
  9      0.0000      0.2059      0.1947      0.1334      0.2357      0.2074      0.3473      0.5459      0.1737
 10      1.3798      0.3353      0.6888      0.6183      0.2132      0.6617      0.6921      0.4738      0.5833
 11      0.0000      0.2553      0.2596      0.2057      0.8979      0.1716      0.0000      0.4242      0.0000
 12      0.0000      0.1682      0.0604      0.0000      0.0000      0.0438      0.0692      0.1174      0.1970
 13     31.8486     32.5328     32.1531     32.6807     32.8190     32.3785     32.7348     32.5173     32.7687
 14     18.1018     17.9546     18.3983     18.1453     17.6665     18.1489     18.2929     18.0636     17.8032
 15      6.7968      6.2461      6.0825      5.9239      6.2726      6.4687      6.1987      6.2893      6.2521
 16      1.1141      0.9531      0.9631      0.8886      1.1320      0.9209      1.0018      0.9176      0.9202
 17      0.8072      0.7170      0.7039      0.6441      0.6914      0.8251      0.7591      0.7168      0.7299
 18      2.5666      2.3902      2.5110      2.3418      2.4238      2.5002      2.4981      2.2971      2.3593
 19      0.0000      0.4862      0.3856      0.3804      0.5273      0.5180      0.5297      0.4714      0.5166
 20      0.0000      0.0305      0.0000      0.0000      0.0000      0.0000      0.0062      0.0000      0.0000
 21      0.0000      0.0447      0.0478      0.0402      0.0000      0.0000      0.0845      0.0000      0.1796
 22      0.0000      0.0452      0.0000      0.0000      0.0000      0.0000      0.0000      0.0000      0.0305
 23      0.0000      0.0182      0.0000      0.0000      0.0000      0.0000      0.0476      0.0000      0.0000
 24      0.0000      0.0287      0.0000      0.0535      0.0000      0.0000      0.0000      0.0000      0.0000
 25      0.0000      0.0333      0.0024      0.0000      0.0000      0.0000      0.0000      0.0000      0.0185
 26      0.0000      0.0274      0.0197      0.0000      0.0000      0.0000      0.0000      0.0000      0.0000
 27      0.0000      0.0394      0.0000      0.0000      0.0000      0.0000      0.0037      0.0000      0.0000
 28      0.0000      0.0538      0.0000      0.0000      0.0000      0.0000      0.0000      0.0644      0.0054
 29      7.4568      8.4093      8.4830      8.3467      8.3188      8.3884      8.2011      8.0429      8.4115
 30      0.0000      0.3146      0.1119      0.1838      0.4959      0.1631      0.2977      0.3680      0.2458
 31      0.7200      0.8626      0.8074      0.8561      0.7488      0.6365      0.8343      1.1683      0.8000
 32      0.0000      0.2194      0.1917      0.2439      0.3029      0.0000      0.2202      0.2005      0.1449
 33      0.0000      0.2912      0.3681      0.2226      0.1411      0.3711      0.0979      0.3092      0.3031
 34      0.0000      0.0375      0.0000      0.1161      0.0000      0.0732      0.0000      0.0000      0.0000
 35      0.0000      0.0557      0.0071      0.0566      0.0159      0.0000      0.0000      0.0351      0.0502
 36      0.0000      0.0281      0.0237      0.0103      0.0000      0.0000      0.0000      0.0000      0.0000
 37      0.0000      0.0444      0.0000      0.0000      0.0000      0.0000      0.0000      0.0000      0.1242
 38      0.0000      0.0254      0.0000      0.0000      0.0000      0.1555      0.0425      0.0000      0.0000
 39      0.0000      0.0267      0.1458      0.0000      0.0000      0.0000      0.0000      0.0000      0.0186
 40      0.0000      0.0362      0.0000      0.0000      0.0000      0.0000      0.0000      0.0000      0.0000
 41      0.0000      0.0230      0.0120      0.0000      0.0000      0.0000      0.0000      0.0000      0.0879
 42      0.0000      0.0182      0.0000      0.0000      0.0000      0.0000      0.0000      0.0000      0.0000
 43      1.8091      1.0582      1.0087      1.1577      1.1632      1.0491      1.1284      1.0290      1.2472
 44      1.0590      0.8718      1.0461      1.1136      0.8477      0.8573      0.7791      0.8561      0.9166
 45      0.6643      0.6068      0.6553      0.5960      0.5161      0.6397      0.5956      0.7571      0.4804

# j      m_j: min, <> & last-chain-values for 1 ...  7 chains
  1  2.8512E-02  2.7840E-02  2.7841E-02  2.8140E-02  2.8410E-02  2.7849E-02  2.8019E-02  2.7414E-02  2.8667E-02
  2  5.6978E-03  4.8549E-03  5.0238E-03  5.0868E-03  4.6909E-03  5.1423E-03  5.0645E-03  4.7571E-03  5.2151E-03
  3  2.2338E-02  2.1439E-02  2.1464E-02  2.1548E-02  2.1658E-02  2.1974E-02  2.1733E-02  2.1840E-02  2.1337E-02
  4  2.0524E-02  1.8250E-02  1.8129E-02  1.8560E-02  1.9275E-02  1.9034E-02  1.8697E-02  1.7956E-02  1.8961E-02
  5  0.0000E+00  1.5213E-03  1.8596E-03  1.6327E-03  0.0000E+00  9.2992E-04  9.1778E-04  6.0531E-04  6.1183E-04
  6  0.0000E+00  6.0030E-04  1.4015E-03  2.1151E-03  0.0000E+00  0.0000E+00  0.0000E+00  8.0043E-04  0.0000E+00
  7  0.0000E+00  2.0054E-03  0.0000E+00  1.3049E-03  2.6513E-03  0.0000E+00  0.0000E+00  2.3434E-04  0.0000E+00
  8  0.0000E+00  1.1544E-03  0.0000E+00  4.0273E-03  0.0000E+00  0.0000E+00  0.0000E+00  0.0000E+00  0.0000E+00
  9  0.0000E+00  1.6975E-02  1.5956E-02  1.0953E-02  1.9501E-02  1.7116E-02  2.8825E-02  4.4948E-02  1.4395E-02
 10  1.5933E-01  3.8585E-02  7.8818E-02  7.0872E-02  2.4636E-02  7.6235E-02  8.0209E-02  5.4468E-02  6.7493E-02
 11  0.0000E+00  5.1598E-02  5.2175E-02  4.1413E-02  1.8219E-01  3.4716E-02  0.0000E+00  8.5636E-02  0.0000E+00
 12  0.0000E+00  6.3208E-02  2.2550E-02  0.0000E+00  0.0000E+00  1.6468E-02  2.6191E-02  4.4080E-02  7.4426E-02
 13  2.3913E+01  2.4347E+01  2.3924E+01  2.4357E+01  2.4656E+01  2.4255E+01  2.4667E+01  2.4306E+01  2.4656E+01
 14  2.7702E+01  2.7387E+01  2.7902E+01  2.7564E+01  2.7052E+01  2.7710E+01  2.8096E+01  2.7520E+01  2.7302E+01
 15  1.2050E+01  1.1038E+01  1.0687E+01  1.0426E+01  1.1128E+01  1.1442E+01  1.1030E+01  1.1101E+01  1.1108E+01
 16  3.7955E-03  3.2361E-03  3.2512E-03  3.0051E-03  3.8587E-03  3.1300E-03  3.4252E-03  3.1120E-03  3.1414E-03
 17  1.4294E-03  1.2656E-03  1.2352E-03  1.1322E-03  1.2251E-03  1.4577E-03  1.3491E-03  1.2637E-03  1.2953E-03
 18  5.0346E-03  4.6733E-03  4.8810E-03  4.5598E-03  4.7573E-03  4.8932E-03  4.9180E-03  4.4859E-03  4.6378E-03
 19  0.0000E+00  2.8421E-03  2.2409E-03  2.2148E-03  3.0945E-03  3.0313E-03  3.1179E-03  2.7524E-03  3.0362E-03
 20  0.0000E+00  3.9675E-04  0.0000E+00  0.0000E+00  0.0000E+00  0.0000E+00  8.1706E-05  0.0000E+00  0.0000E+00
 21  0.0000E+00  6.9773E-04  7.4171E-04  6.2472E-04  0.0000E+00  0.0000E+00  1.3290E-03  0.0000E+00  2.8197E-03
 22  0.0000E+00  1.1731E-03  0.0000E+00  0.0000E+00  0.0000E+00  0.0000E+00  0.0000E+00  0.0000E+00  7.9663E-04
 23  0.0000E+00  9.2727E-04  0.0000E+00  0.0000E+00  0.0000E+00  0.0000E+00  2.4470E-03  0.0000E+00  0.0000E+00
 24  0.0000E+00  3.3475E-03  0.0000E+00  6.2154E-03  0.0000E+00  0.0000E+00  0.0000E+00  0.0000E+00  0.0000E+00
 25  0.0000E+00  5.9814E-03  4.2316E-04  0.0000E+00  0.0000E+00  0.0000E+00  0.0000E+00  0.0000E+00  3.3436E-03
 26  0.0000E+00  9.2922E-03  6.6332E-03  0.0000E+00  0.0000E+00  0.0000E+00  0.0000E+00  0.0000E+00  0.0000E+00
 27  0.0000E+00  2.7143E-02  0.0000E+00  0.0000E+00  0.0000E+00  0.0000E+00  2.5707E-03  0.0000E+00  0.0000E+00
 28  0.0000E+00  7.4956E-02  0.0000E+00  0.0000E+00  0.0000E+00  0.0000E+00  0.0000E+00  8.9601E-02  7.5448E-03
 29  2.2056E+01  2.4792E+01  2.4865E+01  2.4507E+01  2.4620E+01  2.4755E+01  2.4345E+01  2.3684E+01  2.4932E+01
 30  0.0000E+00  1.1067E+00  3.9146E-01  6.4400E-01  1.7510E+00  5.7417E-01  1.0545E+00  1.2928E+00  8.6924E-01
 31  1.8398E-03  2.1972E-03  2.0446E-03  2.1715E-03  1.9146E-03  1.6229E-03  2.1398E-03  2.9723E-03  2.0487E-03
 32  0.0000E+00  2.9459E-04  2.5598E-04  3.2614E-04  4.0825E-04  0.0000E+00  2.9769E-04  2.6886E-04  1.9565E-04
 33  0.0000E+00  5.8021E-04  7.2902E-04  4.4157E-04  2.8212E-04  7.4002E-04  1.9632E-04  6.1527E-04  6.0715E-04
