###################################################################
## OUTPUT of StarlightChains_v04.for    [Cid@UFSC - 01/Apr/2007] ##
###################################################################

## Some input info
NGC6316_a_1.cxt                          [arq_obs]
Base.BC03.N                              [arq_base]
NGC6316_a_1.msk                          [arq_masks]
StCv04.C11.config                        [arq_config]
   45                                    [N_base]
    0                                    [N_YAV_components = # of components with extra extinction!]
    0                                    [i_FitPowerLaw (1/0 = Yes/No)]
-9.99                                    [alpha_PowerLaw]
CCM                                      [red_law_option]
 1.458241                                [q_norm = A(l_norm)/A(V)]

## (Re)Sampling Parameters
 3359.00                                 [l_ini (A)]
 6428.00                                 [l_fin (A)]
    1.00                                 [dl    (A)]     (OBS: dl_cushion =    50.00 A)

## Normalization info
 4020.00                                 [l_norm (A) - for base]
 4010.00                                 [llow_norm (A) - window for f_obs]
 4060.00                                 [lupp_norm (A) - window for f_obs]
3.447620E-15                             [fobs_norm (in input units)]

## S/N
 4730.00                                 [llow_SN (A) - window for S/N]
 4780.00                                 [lupp_SN (A) - window for S/N]
  41.849                                 [S/N in S/N window]
  23.735                                 [S/N in norm. window]
 229.586                                 [S/N_err in S/N window]
 130.210                                 [S/N_err in norm. window]
  1.0000                                 [fscale_chi2]

## etc...
  2147483618                             [idum_orig]
  3065                                   [NOl_eff]
   599                                   [Nl_eff]
  2466    NSIGMA                         [Ntot_cliped & clip_method]
  1089760                                [Nglobal_steps]
   7                                     [N_chains]
  13                                     [NEX0s_base = N_base in EX0s-fits]
 0   0   1      227   2.0   2.812E+02    [Clip-Bug, RC-Crash & Burn-In warning-flags, n_censored_weights, wei_nsig_threshold & wei_limit]
    12     11.533     11.517      0.016  [idt_all, wdt_TotTime, wdt_UsrTime & wdt_SysTime (sec)]

## Synthesis Results - Best model ##

 2.83283E+00                             [chi2/Nl_eff]
     1.86201                             [adev (%)]

   100.04070                             [sum-of-x (%)]
 4.17898E-14                             [Flux_tot (units of input spectrum!)]
 1.92223E-09                             [Mini_tot (???)]
 9.72785E-10                             [Mcor_tot (???)]

 -28.74                                  [v0_min  (km/s)]
  58.24                                  [vd_min  (km/s)]
 1.8573                                  [AV_min  (mag)]
 0.0000                                  [YAV_min (mag)]

# j     x_j(%)      Mini_j(%)     Mcor_j(%)     age_j(yr)     Z_j      (L/M)_j    YAV?  Mstars   component_j        a/Fe...       SSP_chi2r SSP_adev(%)   SSP_AV   SSP_x(%)
  1      4.8482     9.4576E-03    1.8688E-02    1.000000E+06  0.00400  1.114E-02    0   1.0000   age020_m42            0.0000     5.4867E+03    41.9223   4.0000   104.5234
  2      3.5040     1.8695E-03    3.6938E-03    3.160000E+06  0.00400  4.073E-02    0   0.9999   age045_m42            0.0000     1.1831E+03    18.2542   4.0000   108.9792
  3      2.5993     2.2291E-03    4.1792E-03    5.010000E+06  0.00400  2.534E-02    0   0.9488   age055_m42            0.0000     2.5263E+03    29.4820   4.0000   108.7420
  4      1.7628     3.0141E-03    5.2781E-03    1.000000E+07  0.00400  1.271E-02    0   0.8862   age070_m42            0.0000     4.2262E+02    12.9160   4.0000    98.7456
  5      0.0000     0.0000E+00    0.0000E+00    2.512000E+07  0.00400  5.070E-03    0   0.8174   age090_m42            0.0000     2.9993E+02    10.2997   4.0000    97.3464
  6      0.0000     0.0000E+00    0.0000E+00    4.000000E+07  0.00400  3.505E-03    0   0.7851   age104_m42            0.0000     2.4278E+02     8.0810   3.8241    96.8529
  7      0.0000     0.0000E+00    0.0000E+00    1.015200E+08  0.00400  2.268E-03    0   0.7207   age116_m42            0.0000     8.3203E+02    15.8451   3.9260   102.1439
  8      0.0000     0.0000E+00    0.0000E+00    2.861200E+08  0.00400  1.079E-03    0   0.6613   age125_m42            0.0000     8.6809E+02    16.4578   3.4405   103.8265
  9      0.0000     0.0000E+00    0.0000E+00    6.405400E+08  0.00400  5.077E-04    0   0.6197   age132_m42            0.0000     9.0821E+02    17.3515   3.0901   107.4241
 10      0.0000     0.0000E+00    0.0000E+00    9.047900E+08  0.00400  3.535E-04    0   0.6024   age135_m42            0.0000     6.8695E+02    15.2092   2.8352   107.4151
 11      0.0000     0.0000E+00    0.0000E+00    1.434000E+09  0.00400  1.910E-04    0   0.5716   age139_m42            0.0000     4.1587E+02    12.1208   2.2920   107.4183
 12      0.0000     0.0000E+00    0.0000E+00    2.500000E+09  0.00400  9.818E-05    0   0.5463   age150_m42            0.0000     1.9044E+02     8.3186   1.9815   104.2793
 13     23.6121     1.0876E+01    1.1235E+01    5.000000E+09  0.00400  4.718E-05    0   0.5228   age161_m42            0.0000     1.0312E+02     6.3128   1.7929   101.9214
 14     11.0428     1.0883E+01    1.0710E+01    1.100000E+10  0.00400  2.205E-05    0   0.4980   age185_m42            0.0000     1.0467E+02     6.7726   1.5205   100.5373
 15      9.5503     1.1022E+01    1.0731E+01    1.300000E+10  0.00400  1.883E-05    0   0.4927   age193_m42            0.0000     1.0509E+02     6.8638   1.5018   100.4997
 16      5.7722     6.3066E-03    1.2462E-02    1.000000E+06  0.02000  1.989E-02    0   1.0000   age020_m62            0.0000     5.2798E+03    40.9770   4.0000   105.2572
 17      0.8039     4.6313E-04    9.0215E-04    3.160000E+06  0.02000  3.772E-02    0   0.9858   age045_m62            0.0000     4.4952E+03    38.6753   4.0000   107.1488
 18      3.3218     2.2370E-03    4.1295E-03    5.010000E+06  0.02000  3.227E-02    0   0.9342   age055_m62            0.0000     2.0001E+03    25.5090   4.0000   110.0201
 19      0.0000     0.0000E+00    0.0000E+00    1.000000E+07  0.02000  1.011E-02    0   0.8751   age070_m62            0.0000     5.8638E+02    17.0495   4.0000    95.9282
 20      0.0000     0.0000E+00    0.0000E+00    2.512000E+07  0.02000  4.206E-03    0   0.8099   age090_m62            0.0000     4.1324E+02    14.0694   4.0000    95.1791
 21      0.0000     0.0000E+00    0.0000E+00    4.000000E+07  0.02000  3.373E-03    0   0.7799   age104_m62            0.0000     3.4012E+02     8.9707   4.0000    98.9727
 22      0.0000     0.0000E+00    0.0000E+00    1.015200E+08  0.02000  1.878E-03    0   0.7221   age116_m62            0.0000     7.5127E+02    14.8562   3.9342   103.1678
 23      0.0000     0.0000E+00    0.0000E+00    2.861200E+08  0.02000  8.869E-04    0   0.6700   age125_m62            0.0000     1.2018E+03    19.6525   3.4760   108.0048
 24      0.0000     0.0000E+00    0.0000E+00    6.405400E+08  0.02000  3.657E-04    0   0.6322   age132_m62            0.0000     9.0975E+02    17.4146   2.7895   111.7516
 25      0.0000     0.0000E+00    0.0000E+00    9.047900E+08  0.02000  2.312E-04    0   0.6152   age135_m62            0.0000     6.1795E+02    14.4965   2.3925   111.9812
 26      0.0000     0.0000E+00    0.0000E+00    1.434000E+09  0.02000  1.168E-04    0   0.5865   age139_m62            0.0000     2.6923E+02     9.5861   1.9321   108.2702
 27      0.0000     0.0000E+00    0.0000E+00    2.500000E+09  0.02000  5.505E-05    0   0.5610   age150_m62            0.0000     1.7897E+02     8.2736   1.5394   106.6096
 28      0.0000     0.0000E+00    0.0000E+00    5.000000E+09  0.02000  2.596E-05    0   0.5353   age161_m62            0.0000     2.3688E+02    10.1794   1.1958   107.5037
 29     12.7828     2.3763E+01    2.3961E+01    1.100000E+10  0.02000  1.169E-05    0   0.5103   age185_m62            0.0000     3.7208E+02    12.5576   0.8243   109.7667
 30     19.3671     4.3430E+01    4.3312E+01    1.300000E+10  0.02000  9.691E-06    0   0.5047   age193_m62            0.0000     4.0090E+02    12.9666   0.7769   110.1587
 31      1.0734     8.7989E-04    1.7383E-03    1.000000E+06  0.05000  2.651E-02    0   0.9998   age020_m72            0.0000     5.2419E+03    40.5797   4.0000   106.4198
 32      0.0000     0.0000E+00    0.0000E+00    3.160000E+06  0.05000  4.817E-02    0   0.9577   age045_m72            0.0000     3.6290E+03    34.6414   4.0000   109.8368
 33      0.0000     0.0000E+00    0.0000E+00    5.010000E+06  0.05000  3.101E-02    0   0.9147   age055_m72            0.0000     2.0575E+03    27.4120   4.0000   108.4872
 34      0.0000     0.0000E+00    0.0000E+00    1.000000E+07  0.05000  8.954E-03    0   0.8524   age070_m72            0.0000     3.0247E+03    31.7690   4.0000   110.0999
 35      0.0000     0.0000E+00    0.0000E+00    2.512000E+07  0.05000  4.207E-03    0   0.7902   age090_m72            0.0000     1.3862E+03    20.6252   4.0000   109.8871
 36      0.0000     0.0000E+00    0.0000E+00    4.000000E+07  0.05000  3.198E-03    0   0.7618   age104_m72            0.0000     7.1142E+02    12.6689   4.0000   107.2828
 37      0.0000     0.0000E+00    0.0000E+00    1.015200E+08  0.05000  1.716E-03    0   0.7092   age116_m72            0.0000     8.5085E+02    15.9428   4.0000   103.9669
 38      0.0000     0.0000E+00    0.0000E+00    2.861200E+08  0.05000  7.047E-04    0   0.6618   age125_m72            0.0000     1.1622E+03    19.3228   3.2838   108.3432
 39      0.0000     0.0000E+00    0.0000E+00    6.405400E+08  0.05000  2.633E-04    0   0.6253   age132_m72            0.0000     7.3604E+02    15.8387   2.4131   111.7759
 40      0.0000     0.0000E+00    0.0000E+00    9.047900E+08  0.05000  1.484E-04    0   0.6088   age135_m72            0.0000     3.8235E+02    11.6160   1.8869   108.7179
 41      0.0000     0.0000E+00    0.0000E+00    1.434000E+09  0.05000  7.827E-05    0   0.5847   age139_m72            0.0000     2.6195E+02    10.2574   1.4662   106.7880
 42      0.0000     0.0000E+00    0.0000E+00    2.500000E+09  0.05000  3.759E-05    0   0.5583   age150_m72            0.0000     2.7137E+02    10.9435   1.1272   107.0160
 43      0.0000     0.0000E+00    0.0000E+00    5.000000E+09  0.05000  1.548E-05    0   0.5320   age161_m72            0.0000     3.9836E+02    12.7657   0.7193   107.3042
 44      0.0000     0.0000E+00    0.0000E+00    1.100000E+10  0.05000  6.532E-06    0   0.5070   age185_m72            0.0000     6.3402E+02    15.3678   0.3410   107.8286
 45      0.0000     0.0000E+00    0.0000E+00    1.300000E+10  0.05000  5.316E-06    0   0.5018   age193_m72            0.0000     7.4453E+02    16.4946   0.2237   108.1276


## Synthesis Results - Average & Chains ##

# j      x_j: min, <> & last-chain-values for 1 ...  7 chains
  1      4.8482      4.7022      4.8635      4.6378      4.6478      4.7857      4.8479      4.7721      4.5019
  2      3.5040      2.7595      2.7648      2.7202      2.7371      2.7618      2.7126      2.8404      3.0722
  3      2.5993      2.1798      2.2660      2.3057      2.2321      2.1750      2.0525      2.0780      2.2303
  4      1.7628      1.5371      1.5740      1.5185      1.7023      1.5337      1.6210      1.5984      1.4836
  5      0.0000      0.0239      0.0000      0.0000      0.0000      0.1149      0.0000      0.0383      0.0000
  6      0.0000      0.0520      0.0000      0.0963      0.0000      0.0723      0.0498      0.1021      0.0000
  7      0.0000      0.0246      0.0000      0.0279      0.2143      0.0750      0.1282      0.0074      0.0382
  8      0.0000      0.0175      0.0000      0.0000      0.0000      0.0000      0.0000      0.0000      0.0000
  9      0.0000      0.0329      0.0159      0.0000      0.0000      0.0000      0.0000      0.0000      0.0000
 10      0.0000      0.0329      0.1800      0.0000      0.0357      0.0000      0.0605      0.0000      0.0000
 11      0.0000      0.0898      0.0000      0.0000      0.0260      0.0000      0.0000      0.0000      0.1673
 12      0.0000      1.9679      1.7887      1.5801      2.1582      2.3527      2.4449      2.6515      1.2545
 13     23.6121     22.3981     22.7375     23.3242     22.6954     22.6129     22.7901     21.5166     23.0626
 14     11.0428     10.2579     10.3104     10.0013     10.0047     10.2394     10.3286     10.2283     10.1767
 15      9.5503      9.0702      9.4138      8.9107      9.2546      9.3378      9.0016      9.6380      9.1926
 16      5.7722      6.0235      5.9778      5.9640      5.8810      6.0932      5.8821      5.7715      5.9371
 17      0.8039      1.1880      1.1884      1.0533      1.2188      1.1728      1.2571      1.2852      1.2710
 18      3.3218      2.9773      3.0017      3.0931      2.9915      2.9514      3.0405      2.9982      3.1523
 19      0.0000      0.0682      0.1531      0.1503      0.2150      0.0000      0.0028      0.0000      0.0000
 20      0.0000      0.0222      0.0000      0.0000      0.0000      0.0000      0.0000      0.0000      0.0005
 21      0.0000      0.0109      0.0000      0.0000      0.0000      0.0000      0.0000      0.0000      0.0000
 22      0.0000      0.0123      0.0000      0.0000      0.0000      0.0000      0.0000      0.0000      0.0870
 23      0.0000      0.0102      0.0000      0.0000      0.0000      0.0000      0.0000      0.0000      0.0000
 24      0.0000      0.0195      0.0000      0.0000      0.0000      0.0000      0.0000      0.0000      0.0000
 25      0.0000      0.0321      0.0000      0.0000      0.0000      0.0000      0.0000      0.0000      0.0000
 26      0.0000      0.0356      0.0000      0.0000      0.0000      0.0000      0.0000      0.0000      0.0000
 27      0.0000      0.1055      0.0000      0.0932      0.0000      0.0000      0.0000      0.0000      0.0265
 28      0.0000      0.1586      0.0788      0.3374      0.0000      0.0986      0.0000      0.0020      0.0000
 29     12.7828     12.6703     12.6937     12.6691     12.6962     12.3378     12.5749     12.6273     12.9082
 30     19.3671     19.6287     19.6485     19.6546     19.7852     19.8265     19.5486     19.8478     19.6845
 31      1.0734      1.5013      1.2657      1.5778      1.5734      1.3587      1.4697      1.3426      1.4524
 32      0.0000      0.0964      0.0570      0.0987      0.0000      0.1143      0.2044      0.1810      0.1872
 33      0.0000      0.0210      0.0000      0.0000      0.0000      0.0000      0.0000      0.2622      0.0000
 34      0.0000      0.0227      0.0000      0.0000      0.0126      0.0000      0.0000      0.0000      0.0000
 35      0.0000      0.0186      0.0000      0.0000      0.0000      0.0000      0.0000      0.1383      0.0000
 36      0.0000      0.0117      0.0514      0.1502      0.0000      0.0000      0.0000      0.0000      0.0109
 37      0.0000      0.0140      0.0000      0.0000      0.0000      0.0000      0.0000      0.0000      0.0000
 38      0.0000      0.0158      0.0584      0.0000      0.0000      0.0000      0.0000      0.0300      0.0000
 39      0.0000      0.0254      0.0000      0.0000      0.0000      0.0129      0.0000      0.0000      0.0000
 40      0.0000      0.0413      0.0000      0.0742      0.0000      0.0247      0.0000      0.0000      0.0000
 41      0.0000      0.0614      0.0000      0.0000      0.0000      0.0000      0.0000      0.0350      0.2239
 42      0.0000      0.0598      0.0000      0.0000      0.0000      0.0000      0.0000      0.1155      0.0000
 43      0.0000      0.0453      0.0000      0.0678      0.0198      0.0535      0.0000      0.0000      0.0000
 44      0.0000      0.0447      0.0000      0.0044      0.0000      0.0000      0.0752      0.0000      0.0000
 45      0.0000      0.0281      0.0000      0.0000      0.0000      0.0000      0.0000      0.0000      0.0000

# j      m_j: min, <> & last-chain-values for 1 ...  7 chains
  1  1.8688E-02  1.8202E-02  1.8805E-02  1.7983E-02  1.7997E-02  1.8552E-02  1.8846E-02  1.8429E-02  1.7380E-02
  2  3.6938E-03  2.9213E-03  2.9235E-03  2.8846E-03  2.8984E-03  2.9280E-03  2.8840E-03  2.9998E-03  3.2437E-03
  3  4.1792E-03  3.5195E-03  3.6545E-03  3.7292E-03  3.6050E-03  3.5169E-03  3.3283E-03  3.3472E-03  3.5915E-03
  4  5.2781E-03  4.6215E-03  4.7270E-03  4.5736E-03  5.1200E-03  4.6181E-03  4.8946E-03  4.7944E-03  4.4487E-03
  5  0.0000E+00  1.6596E-04  0.0000E+00  0.0000E+00  0.0000E+00  8.0011E-04  0.0000E+00  2.6576E-04  0.0000E+00
  6  0.0000E+00  5.0238E-04  0.0000E+00  9.3199E-04  0.0000E+00  6.9893E-04  4.8268E-04  9.8339E-04  0.0000E+00
  7  0.0000E+00  3.3728E-04  0.0000E+00  3.8357E-04  2.9370E-03  1.0295E-03  1.7643E-03  1.0087E-04  5.2225E-04
  8  0.0000E+00  4.6372E-04  0.0000E+00  0.0000E+00  0.0000E+00  0.0000E+00  0.0000E+00  0.0000E+00  0.0000E+00
  9  0.0000E+00  1.7298E-03  8.3691E-04  0.0000E+00  0.0000E+00  0.0000E+00  0.0000E+00  0.0000E+00  0.0000E+00
 10  0.0000E+00  2.4154E-03  1.3209E-02  0.0000E+00  2.6215E-03  0.0000E+00  4.4676E-03  0.0000E+00  0.0000E+00
 11  0.0000E+00  1.1592E-02  0.0000E+00  0.0000E+00  3.3626E-03  0.0000E+00  0.0000E+00  0.0000E+00  2.1537E-02
 12  0.0000E+00  4.7218E-01  4.2868E-01  3.7978E-01  5.1800E-01  5.6533E-01  5.8914E-01  6.3471E-01  3.0021E-01
 13  1.1235E+01  1.0703E+01  1.0852E+01  1.1164E+01  1.0848E+01  1.0821E+01  1.0937E+01  1.0257E+01  1.0991E+01
 14  1.0710E+01  9.9903E+00  1.0030E+01  9.7571E+00  9.7467E+00  9.9870E+00  1.0102E+01  9.9379E+00  9.8848E+00
 15  1.0731E+01  1.0234E+01  1.0609E+01  1.0071E+01  1.0445E+01  1.0551E+01  1.0200E+01  1.0849E+01  1.0345E+01
 16  1.2462E-02  1.3059E-02  1.2945E-02  1.2952E-02  1.2754E-02  1.3230E-02  1.2807E-02  1.2483E-02  1.2838E-02
 17  9.0215E-04  1.3389E-03  1.3378E-03  1.1891E-03  1.3740E-03  1.3236E-03  1.4228E-03  1.4450E-03  1.4286E-03
 18  4.1295E-03  3.7167E-03  3.7429E-03  3.8679E-03  3.7356E-03  3.6898E-03  3.8119E-03  3.7339E-03  3.9247E-03
 19  0.0000E+00  2.5443E-04  5.7094E-04  5.6208E-04  8.0275E-04  0.0000E+00  1.0461E-05  0.0000E+00  0.0000E+00
 20  0.0000E+00  1.8402E-04  0.0000E+00  0.0000E+00  0.0000E+00  0.0000E+00  0.0000E+00  0.0000E+00  4.0649E-06
 21  0.0000E+00  1.0820E-04  0.0000E+00  0.0000E+00  0.0000E+00  0.0000E+00  0.0000E+00  0.0000E+00  0.0000E+00
 22  0.0000E+00  2.0316E-04  0.0000E+00  0.0000E+00  0.0000E+00  0.0000E+00  0.0000E+00  0.0000E+00  1.4389E-03
 23  0.0000E+00  3.3276E-04  0.0000E+00  0.0000E+00  0.0000E+00  0.0000E+00  0.0000E+00  0.0000E+00  0.0000E+00
 24  0.0000E+00  1.4547E-03  0.0000E+00  0.0000E+00  0.0000E+00  0.0000E+00  0.0000E+00  0.0000E+00  0.0000E+00
 25  0.0000E+00  3.6838E-03  0.0000E+00  0.0000E+00  0.0000E+00  0.0000E+00  0.0000E+00  0.0000E+00  0.0000E+00
 26  0.0000E+00  7.7187E-03  0.0000E+00  0.0000E+00  0.0000E+00  0.0000E+00  0.0000E+00  0.0000E+00  0.0000E+00
 27  0.0000E+00  4.6341E-02  0.0000E+00  4.1006E-02  0.0000E+00  0.0000E+00  0.0000E+00  0.0000E+00  1.1615E-02
 28  0.0000E+00  1.4104E-01  6.9946E-02  3.0053E-01  0.0000E+00  8.7761E-02  0.0000E+00  1.7637E-03  0.0000E+00
 29  2.3961E+01  2.3850E+01  2.3867E+01  2.3889E+01  2.3906E+01  2.3259E+01  2.3772E+01  2.3713E+01  2.4234E+01
 30  4.3312E+01  4.4081E+01  4.4075E+01  4.4215E+01  4.4446E+01  4.4591E+01  4.4090E+01  4.4468E+01  4.4089E+01
 31  1.7383E-03  2.4416E-03  2.0560E-03  2.5704E-03  2.5596E-03  2.2129E-03  2.4004E-03  2.1783E-03  2.3557E-03
 32  0.0000E+00  8.2684E-05  4.8773E-05  8.4791E-05  0.0000E+00  9.8129E-05  1.7598E-04  1.5478E-04  1.6006E-04
 33  0.0000E+00  2.6754E-05  0.0000E+00  0.0000E+00  0.0000E+00  0.0000E+00  0.0000E+00  3.3276E-04  0.0000E+00
