###################################################################
## OUTPUT of StarlightChains_v04.for    [Cid@UFSC - 01/Apr/2007] ##
###################################################################

## Some input info
NGC6254_a_1.cxt                          [arq_obs]
Base.BC03.N                              [arq_base]
NGC6254_a_1.msk                          [arq_masks]
StCv04.C11.config                        [arq_config]
   45                                    [N_base]
    0                                    [N_YAV_components = # of components with extra extinction!]
    0                                    [i_FitPowerLaw (1/0 = Yes/No)]
-9.99                                    [alpha_PowerLaw]
CCM                                      [red_law_option]
 1.458241                                [q_norm = A(l_norm)/A(V)]

## (Re)Sampling Parameters
 3359.00                                 [l_ini (A)]
 6428.00                                 [l_fin (A)]
    1.00                                 [dl    (A)]     (OBS: dl_cushion =    50.00 A)

## Normalization info
 4020.00                                 [l_norm (A) - for base]
 4010.00                                 [llow_norm (A) - window for f_obs]
 4060.00                                 [lupp_norm (A) - window for f_obs]
2.492239E-14                             [fobs_norm (in input units)]

## S/N
 4730.00                                 [llow_SN (A) - window for S/N]
 4780.00                                 [lupp_SN (A) - window for S/N]
 102.867                                 [S/N in S/N window]
  85.513                                 [S/N in norm. window]
 113.249                                 [S/N_err in S/N window]
  94.144                                 [S/N_err in norm. window]
  1.0000                                 [fscale_chi2]

## etc...
  2147483623                             [idum_orig]
  3068                                   [NOl_eff]
  1418                                   [Nl_eff]
  1650    NSIGMA                         [Ntot_cliped & clip_method]
  1024100                                [Nglobal_steps]
   7                                     [N_chains]
  14                                     [NEX0s_base = N_base in EX0s-fits]
 0   0   1      142   2.0   2.178E+02    [Clip-Bug, RC-Crash & Burn-In warning-flags, n_censored_weights, wei_nsig_threshold & wei_limit]
    11     11.099     11.095      0.004  [idt_all, wdt_TotTime, wdt_UsrTime & wdt_SysTime (sec)]

## Synthesis Results - Best model ##

 2.58667E+00                             [chi2/Nl_eff]
     1.71853                             [adev (%)]

   102.97511                             [sum-of-x (%)]
 1.00050E-13                             [Flux_tot (units of input spectrum!)]
 8.52431E-10                             [Mini_tot (???)]
 4.60563E-10                             [Mcor_tot (???)]

  -9.22                                  [v0_min  (km/s)]
 109.76                                  [vd_min  (km/s)]
 1.0130                                  [AV_min  (mag)]
 0.0000                                  [YAV_min (mag)]

# j     x_j(%)      Mini_j(%)     Mcor_j(%)     age_j(yr)     Z_j      (L/M)_j    YAV?  Mstars   component_j        a/Fe...       SSP_chi2r SSP_adev(%)   SSP_AV   SSP_x(%)
  1      0.0000     0.0000E+00    0.0000E+00    1.000000E+06  0.00400  1.114E-02    0   1.0000   age020_m42            0.0000     1.7348E+02    10.8103   4.0000    80.8176
  2     13.4637     3.7677E-02    6.9727E-02    3.160000E+06  0.00400  4.073E-02    0   0.9999   age045_m42            0.0000     2.6604E+01     4.4761   3.0605    94.9673
  3      0.0000     0.0000E+00    0.0000E+00    5.010000E+06  0.00400  2.534E-02    0   0.9488   age055_m42            0.0000     7.5673E+01     7.5275   3.4738    88.2025
  4      8.7559     7.8520E-02    1.2879E-01    1.000000E+07  0.00400  1.271E-02    0   0.8862   age070_m42            0.0000     6.4931E+01     7.4166   2.6963    91.9775
  5      0.0000     0.0000E+00    0.0000E+00    2.512000E+07  0.00400  5.070E-03    0   0.8174   age090_m42            0.0000     5.4719E+01     6.8511   2.5661    93.6016
  6      0.0000     0.0000E+00    0.0000E+00    4.000000E+07  0.00400  3.505E-03    0   0.7851   age104_m42            0.0000     2.9456E+01     5.0413   2.2432    96.8702
  7      7.3003     3.6688E-01    4.8938E-01    1.015200E+08  0.00400  2.268E-03    0   0.7207   age116_m42            0.0000     1.5752E+02     7.8947   2.2167   107.0477
  8      0.1771     1.8706E-02    2.2896E-02    2.861200E+08  0.00400  1.079E-03    0   0.6613   age125_m42            0.0000     1.7704E+02     8.8299   1.7243   109.1742
  9      3.9148     8.7888E-01    1.0081E+00    6.405400E+08  0.00400  5.077E-04    0   0.6197   age132_m42            0.0000     1.9113E+02     9.2224   1.3635   113.2844
 10     11.0777     3.5718E+00    3.9824E+00    9.047900E+08  0.00400  3.535E-04    0   0.6024   age135_m42            0.0000     1.1863E+02     7.5455   1.1241   112.4859
 11      0.0153     9.1567E-03    9.6873E-03    1.434000E+09  0.00400  1.910E-04    0   0.5716   age139_m42            0.0000     5.9623E+01     5.9663   0.5984   111.1715
 12     31.5001     3.6569E+01    3.6976E+01    2.500000E+09  0.00400  9.818E-05    0   0.5463   age150_m42            0.0000     3.1762E+01     4.6752   0.3262   106.2307
 13     16.2595     3.9280E+01    3.8008E+01    5.000000E+09  0.00400  4.718E-05    0   0.5228   age161_m42            0.0000     4.0696E+01     4.8449   0.1660   102.5849
 14      0.0000     0.0000E+00    0.0000E+00    1.100000E+10  0.00400  2.205E-05    0   0.4980   age185_m42            0.0000     8.5494E+01     6.5444  -0.0956   100.3748
 15      0.0000     0.0000E+00    0.0000E+00    1.300000E+10  0.00400  1.883E-05    0   0.4927   age193_m42            0.0000     9.2943E+01     6.7938  -0.1120   100.1961
 16      0.0000     0.0000E+00    0.0000E+00    1.000000E+06  0.02000  1.989E-02    0   1.0000   age020_m62            0.0000     1.7566E+02    10.7949   4.0000    80.8131
 17      0.0000     0.0000E+00    0.0000E+00    3.160000E+06  0.02000  3.772E-02    0   0.9858   age045_m62            0.0000     1.5412E+02    10.3345   3.8566    83.1080
 18      6.0533     2.1380E-02    3.6968E-02    5.010000E+06  0.02000  3.227E-02    0   0.9342   age055_m62            0.0000     4.8831E+01     6.0577   3.3267    91.2598
 19      0.0000     0.0000E+00    0.0000E+00    1.000000E+07  0.02000  1.011E-02    0   0.8751   age070_m62            0.0000     1.8381E+02    12.1396   2.7361    87.7123
 20      0.0000     0.0000E+00    0.0000E+00    2.512000E+07  0.02000  4.206E-03    0   0.8099   age090_m62            0.0000     1.2558E+02    10.0917   2.6570    88.9519
 21      0.0000     0.0000E+00    0.0000E+00    4.000000E+07  0.02000  3.373E-03    0   0.7799   age104_m62            0.0000     3.4150E+01     4.8107   2.4538    98.3431
 22      0.0000     0.0000E+00    0.0000E+00    1.015200E+08  0.02000  1.878E-03    0   0.7221   age116_m62            0.0000     1.3036E+02     6.8285   2.2514   107.1533
 23      0.0000     0.0000E+00    0.0000E+00    2.861200E+08  0.02000  8.869E-04    0   0.6700   age125_m62            0.0000     3.0799E+02    11.5070   1.7316   114.4501
 24      0.0000     0.0000E+00    0.0000E+00    6.405400E+08  0.02000  3.657E-04    0   0.6322   age132_m62            0.0000     2.0701E+02    10.3422   1.0395   118.3325
 25      0.0000     0.0000E+00    0.0000E+00    9.047900E+08  0.02000  2.312E-04    0   0.6152   age135_m62            0.0000     1.1802E+02     8.2652   0.6650   117.3083
 26      0.0000     0.0000E+00    0.0000E+00    1.434000E+09  0.02000  1.168E-04    0   0.5865   age139_m62            0.0000     4.9091E+01     5.7060   0.2581   110.9030
 27      0.0000     0.0000E+00    0.0000E+00    2.500000E+09  0.02000  5.505E-05    0   0.5610   age150_m62            0.0000     7.3757E+01     6.6210  -0.1112   107.7344
 28      0.0000     0.0000E+00    0.0000E+00    5.000000E+09  0.02000  2.596E-05    0   0.5353   age161_m62            0.0000     1.4286E+02     8.7582  -0.4451   107.7300
 29      0.0000     0.0000E+00    0.0000E+00    1.100000E+10  0.02000  1.169E-05    0   0.5103   age185_m62            0.0000     2.2754E+02    10.8186  -0.8166   109.4377
 30      0.0000     0.0000E+00    0.0000E+00    1.300000E+10  0.02000  9.691E-06    0   0.5047   age193_m62            0.0000     2.4471E+02    11.1743  -0.8634   109.7095
 31      0.0000     0.0000E+00    0.0000E+00    1.000000E+06  0.05000  2.651E-02    0   0.9998   age020_m72            0.0000     1.6338E+02    10.3050   4.0000    81.7350
 32      0.0000     0.0000E+00    0.0000E+00    3.160000E+06  0.05000  4.817E-02    0   0.9577   age045_m72            0.0000     1.0305E+02     8.5049   3.7095    86.5506
 33      0.0000     0.0000E+00    0.0000E+00    5.010000E+06  0.05000  3.101E-02    0   0.9147   age055_m72            0.0000     8.8938E+01     8.0932   3.3577    89.1628
 34      0.0000     0.0000E+00    0.0000E+00    1.000000E+07  0.05000  8.954E-03    0   0.8524   age070_m72            0.0000     9.9361E+01     8.1954   3.5971    87.6595
 35      0.0000     0.0000E+00    0.0000E+00    2.512000E+07  0.05000  4.207E-03    0   0.7902   age090_m72            0.0000     4.2569E+01     5.4184   3.1533    93.6913
 36      0.0000     0.0000E+00    0.0000E+00    4.000000E+07  0.05000  3.198E-03    0   0.7618   age104_m72            0.0000     6.8578E+01     4.9960   2.6283   102.5949
 37      0.0000     0.0000E+00    0.0000E+00    1.015200E+08  0.05000  1.716E-03    0   0.7092   age116_m72            0.0000     1.6117E+02     7.7629   2.3392   107.3914
 38      0.0000     0.0000E+00    0.0000E+00    2.861200E+08  0.05000  7.047E-04    0   0.6618   age125_m72            0.0000     2.9594E+02    11.6784   1.5182   115.2583
 39      0.0000     0.0000E+00    0.0000E+00    6.405400E+08  0.05000  2.633E-04    0   0.6253   age132_m72            0.0000     1.5909E+02     9.4536   0.6566   117.9897
 40      0.6115     4.6966E-01    5.2921E-01    9.047900E+08  0.05000  1.484E-04    0   0.6088   age135_m72            0.0000     8.3038E+01     7.4322   0.1803   112.3612
 41      0.0000     0.0000E+00    0.0000E+00    1.434000E+09  0.05000  7.827E-05    0   0.5847   age139_m72            0.0000     1.0487E+02     7.8586  -0.2068   108.5110
 42      2.2211     6.7348E+00    6.9592E+00    2.500000E+09  0.05000  3.759E-05    0   0.5583   age150_m72            0.0000     1.5665E+02     9.1846  -0.5252   107.5010
 43      1.6248     1.1963E+01    1.1780E+01    5.000000E+09  0.05000  1.548E-05    0   0.5320   age161_m72            0.0000     2.3354E+02    10.8512  -0.9431   107.3922
 44      0.0000     0.0000E+00    0.0000E+00    1.100000E+10  0.05000  6.532E-06    0   0.5070   age185_m72            0.0000     3.9458E+02    13.9666  -1.0000    99.5148
 45      0.0000     0.0000E+00    0.0000E+00    1.300000E+10  0.05000  5.316E-06    0   0.5018   age193_m72            0.0000     4.8867E+02    15.8612  -1.0000    96.5789


## Synthesis Results - Average & Chains ##

# j      x_j: min, <> & last-chain-values for 1 ...  7 chains
  1      0.0000      0.0080      0.0000      0.0000      0.0000      0.0000      0.0000      0.0319      0.0000
  2     13.4637      8.1958      8.4708      8.6079      8.5528      8.3281      8.6799      8.4852      8.8757
  3      0.0000      0.0704      0.0000      0.0000      0.0000      0.0068      0.0000      0.0000      0.2220
  4      8.7559      9.9260     10.0211     10.0765      9.9729     10.0429     10.0906      9.6637      9.8250
  5      0.0000      0.1049      0.0000      0.0000      0.0396      0.0000      0.0000      0.0038      0.1412
  6      0.0000      0.0408      0.0000      0.0000      0.0000      0.0000      0.0000      0.1533      0.0240
  7      7.3003      5.7175      5.8467      5.6385      5.7690      6.1223      5.8020      5.6556      5.7147
  8      0.1771      0.5334      0.9252      0.6747      0.5235      0.7916      0.6176      0.5836      0.8535
  9      3.9148      3.0807      2.9057      3.4784      3.0964      2.8706      3.4254      2.7380      3.4127
 10     11.0777      9.1450      9.0716      9.9861      9.8860      8.7957      9.7770     10.4601      9.7400
 11      0.0153      5.6032      5.5886      4.5291      4.4975      5.4174      4.0981      6.2251      3.8762
 12     31.5001     31.0744     30.6904     31.6972     30.8877     31.1184     30.8724     30.9426     30.7680
 13     16.2595     16.8873     16.9530     16.5266     16.9598     16.8480     16.8712     16.4769     17.0781
 14      0.0000      0.0248      0.0000      0.0033      0.0000      0.0000      0.0000      0.0119      0.0000
 15      0.0000      0.0294      0.0000      0.0000      0.0000      0.1136      0.2909      0.0000      0.0000
 16      0.0000      0.0062      0.0000      0.0000      0.0021      0.0000      0.0000      0.0000      0.0000
 17      0.0000      0.0052      0.0000      0.0000      0.0000      0.0000      0.0000      0.0000      0.0000
 18      6.0533      8.3415      8.5772      8.2920      8.3299      8.3863      8.3758      8.7298      8.1963
 19      0.0000      0.0148      0.0000      0.0000      0.1023      0.0000      0.0000      0.0000      0.0000
 20      0.0000      0.0094      0.0000      0.0000      0.0000      0.0000      0.0000      0.0000      0.0000
 21      0.0000      0.0306      0.0000      0.0000      0.0000      0.0000      0.0000      0.0000      0.0000
 22      0.0000      0.1029      0.0000      0.0000      0.0000      0.1008      0.2207      0.0000      0.0000
 23      0.0000      0.0297      0.0000      0.0017      0.1082      0.0000      0.0000      0.0019      0.0000
 24      0.0000      0.0206      0.0000      0.0000      0.0000      0.0000      0.1267      0.0000      0.0000
 25      0.0000      0.0413      0.0000      0.0000      0.0000      0.0000      0.0000      0.0000      0.0000
 26      0.0000      0.1157      0.0000      0.0000      0.0231      0.0000      0.1603      0.0303      0.1201
 27      0.0000      0.1997      0.0000      0.2504      0.0970      0.2700      0.1726      0.0000      0.0000
 28      0.0000      0.0600      0.0457      0.0000      0.0000      0.0000      0.0000      0.1021      0.0000
 29      0.0000      0.0796      0.0705      0.0000      0.0000      0.0000      0.0000      0.0000      0.0000
 30      0.0000      0.0397      0.0000      0.0000      0.0464      0.0000      0.0000      0.0000      0.0000
 31      0.0000      0.0039      0.0000      0.0000      0.0000      0.0000      0.0000      0.0000      0.0000
 32      0.0000      0.0093      0.0000      0.0000      0.0114      0.0000      0.0000      0.0000      0.0000
 33      0.0000      0.0614      0.0210      0.0000      0.0000      0.0000      0.0000      0.1338      0.0000
 34      0.0000      0.0047      0.0000      0.0000      0.0000      0.0000      0.0000      0.0000      0.0000
 35      0.0000      0.0144      0.0000      0.0000      0.0000      0.0000      0.0000      0.0000      0.0000
 36      0.0000      0.0377      0.0000      0.0000      0.0000      0.0000      0.0000      0.0000      0.0212
 37      0.0000      0.6114      0.7938      0.5350      0.6940      0.9812      0.3608      0.0000      0.6731
 38      0.0000      0.0575      0.0397      0.0000      0.0000      0.0000      0.0353      0.0016      0.0000
 39      0.0000      0.0958      0.0000      0.0085      0.0000      0.0000      0.1808      0.0158      0.0000
 40      0.6115      0.1260      0.0000      0.0800      0.0477      0.2520      0.0106      0.0000      0.9208
 41      0.0000      0.4579      0.6791      0.3242      1.1017      0.4735      0.5937      0.3785      0.4141
 42      2.2211      0.6143      0.7093      0.6979      0.8738      0.6081      0.5026      0.5889      0.7153
 43      1.6248      0.6678      0.8316      0.9027      0.7107      0.5709      0.8109      0.6740      0.6284
 44      0.0000      0.4387      0.4717      0.4799      0.4081      0.5239      0.4211      0.5692      0.5186
 45      0.0000      0.2680      0.2641      0.2717      0.2623      0.3400      0.4828      0.3276      0.2423

# j      m_j: min, <> & last-chain-values for 1 ...  7 chains
  1  0.0000E+00  1.4225E-04  0.0000E+00  0.0000E+00  0.0000E+00  0.0000E+00  0.0000E+00  5.6109E-04  0.0000E+00
  2  6.9727E-02  3.9739E-02  4.0931E-02  4.1633E-02  4.1713E-02  4.0067E-02  4.0636E-02  4.0821E-02  4.3629E-02
  3  0.0000E+00  5.2093E-04  0.0000E+00  0.0000E+00  0.0000E+00  4.9919E-05  0.0000E+00  0.0000E+00  1.6647E-03
  4  1.2879E-01  1.3669E-01  1.3753E-01  1.3842E-01  1.3814E-01  1.3723E-01  1.3417E-01  1.3204E-01  1.3717E-01
  5  0.0000E+00  3.3408E-03  0.0000E+00  0.0000E+00  1.2691E-03  0.0000E+00  0.0000E+00  1.1927E-04  4.5587E-03
  6  0.0000E+00  1.8061E-03  0.0000E+00  0.0000E+00  0.0000E+00  0.0000E+00  0.0000E+00  6.7304E-03  1.0771E-03
  7  4.8938E-01  3.5884E-01  3.6569E-01  3.5300E-01  3.6420E-01  3.8126E-01  3.5160E-01  3.5218E-01  3.6361E-01
  8  2.2896E-02  6.4560E-02  1.1161E-01  8.1466E-02  6.3739E-02  9.5082E-02  7.2185E-02  7.0091E-02  1.0474E-01
  9  1.0081E+00  7.4268E-01  6.9810E-01  8.3649E-01  7.5085E-01  6.8667E-01  7.9735E-01  6.5492E-01  8.3407E-01
 10  3.9824E+00  3.0779E+00  3.0428E+00  3.3527E+00  3.3469E+00  2.9374E+00  3.1773E+00  3.4931E+00  3.3234E+00
 11  9.6873E-03  3.3118E+00  3.2920E+00  2.6703E+00  2.6739E+00  3.1772E+00  2.3388E+00  3.6508E+00  2.3227E+00
 12  3.6976E+01  3.4150E+01  3.3613E+01  3.4748E+01  3.4144E+01  3.3933E+01  3.2759E+01  3.3740E+01  3.4280E+01
 13  3.8008E+01  3.6958E+01  3.6976E+01  3.6079E+01  3.7335E+01  3.6587E+01  3.5652E+01  3.5780E+01  3.7892E+01
 14  0.0000E+00  1.1066E-01  0.0000E+00  1.4521E-02  0.0000E+00  0.0000E+00  0.0000E+00  5.2849E-02  0.0000E+00
 15  0.0000E+00  1.5214E-01  0.0000E+00  0.0000E+00  0.0000E+00  5.8264E-01  1.4513E+00  0.0000E+00  0.0000E+00
 16  0.0000E+00  6.1074E-05  0.0000E+00  0.0000E+00  2.0986E-05  0.0000E+00  0.0000E+00  0.0000E+00  0.0000E+00
 17  0.0000E+00  2.6700E-05  0.0000E+00  0.0000E+00  0.0000E+00  0.0000E+00  0.0000E+00  0.0000E+00  0.0000E+00
 18  3.6968E-02  4.7694E-02  4.8874E-02  4.7293E-02  4.7907E-02  4.7578E-02  4.6241E-02  4.9525E-02  4.7511E-02
 19  0.0000E+00  2.5386E-04  0.0000E+00  0.0000E+00  1.7589E-03  0.0000E+00  0.0000E+00  0.0000E+00  0.0000E+00
 20  0.0000E+00  3.5616E-04  0.0000E+00  0.0000E+00  0.0000E+00  0.0000E+00  0.0000E+00  0.0000E+00  0.0000E+00
 21  0.0000E+00  1.3954E-03  0.0000E+00  0.0000E+00  0.0000E+00  0.0000E+00  0.0000E+00  0.0000E+00  0.0000E+00
 22  0.0000E+00  7.8116E-03  0.0000E+00  0.0000E+00  0.0000E+00  7.5981E-03  1.6184E-02  0.0000E+00  0.0000E+00
 23  0.0000E+00  4.4243E-03  0.0000E+00  2.5749E-04  1.6245E-02  0.0000E+00  0.0000E+00  2.8156E-04  0.0000E+00
 24  0.0000E+00  7.0484E-03  0.0000E+00  0.0000E+00  0.0000E+00  0.0000E+00  4.1754E-02  0.0000E+00  0.0000E+00
 25  0.0000E+00  2.1722E-02  0.0000E+00  0.0000E+00  0.0000E+00  0.0000E+00  0.0000E+00  0.0000E+00  0.0000E+00
 26  0.0000E+00  1.1471E-01  0.0000E+00  0.0000E+00  2.3005E-02  0.0000E+00  1.5354E-01  2.9774E-02  1.2080E-01
 27  0.0000E+00  4.0203E-01  0.0000E+00  5.0279E-01  1.9644E-01  5.3914E-01  3.3545E-01  0.0000E+00  0.0000E+00
 28  0.0000E+00  2.4432E-01  1.8558E-01  0.0000E+00  0.0000E+00  0.0000E+00  0.0000E+00  4.1240E-01  0.0000E+00
 29  0.0000E+00  6.8644E-01  6.0605E-01  0.0000E+00  0.0000E+00  0.0000E+00  0.0000E+00  0.0000E+00  0.0000E+00
 30  0.0000E+00  4.0864E-01  0.0000E+00  0.0000E+00  4.8054E-01  0.0000E+00  0.0000E+00  0.0000E+00  0.0000E+00
 31  0.0000E+00  2.8969E-05  0.0000E+00  0.0000E+00  0.0000E+00  0.0000E+00  0.0000E+00  0.0000E+00  0.0000E+00
 32  0.0000E+00  3.6552E-05  0.0000E+00  0.0000E+00  4.4848E-05  0.0000E+00  0.0000E+00  0.0000E+00  0.0000E+00
 33  0.0000E+00  3.5768E-04  1.2182E-04  0.0000E+00  0.0000E+00  0.0000E+00  0.0000E+00  7.7344E-04  0.0000E+00
