###################################################################
## OUTPUT of StarlightChains_v04.for    [Cid@UFSC - 01/Apr/2007] ##
###################################################################

## Some input info
NGC6284_a_1.cxt                          [arq_obs]
Base.BC03.N                              [arq_base]
NGC6284_a_1.msk                          [arq_masks]
StCv04.C11.config                        [arq_config]
   45                                    [N_base]
    0                                    [N_YAV_components = # of components with extra extinction!]
    0                                    [i_FitPowerLaw (1/0 = Yes/No)]
-9.99                                    [alpha_PowerLaw]
CCM                                      [red_law_option]
 1.458241                                [q_norm = A(l_norm)/A(V)]

## (Re)Sampling Parameters
 3359.00                                 [l_ini (A)]
 6428.00                                 [l_fin (A)]
    1.00                                 [dl    (A)]     (OBS: dl_cushion =    50.00 A)

## Normalization info
 4020.00                                 [l_norm (A) - for base]
 4010.00                                 [llow_norm (A) - window for f_obs]
 4060.00                                 [lupp_norm (A) - window for f_obs]
9.247314E-15                             [fobs_norm (in input units)]

## S/N
 4730.00                                 [llow_SN (A) - window for S/N]
 4780.00                                 [lupp_SN (A) - window for S/N]
  76.302                                 [S/N in S/N window]
  62.584                                 [S/N in norm. window]
  42.607                                 [S/N_err in S/N window]
  34.947                                 [S/N_err in norm. window]
  1.0000                                 [fscale_chi2]

## etc...
  2147483621                             [idum_orig]
  3068                                   [NOl_eff]
  1896                                   [Nl_eff]
  1172    NSIGMA                         [Ntot_cliped & clip_method]
   881440                                [Nglobal_steps]
   7                                     [N_chains]
  13                                     [NEX0s_base = N_base in EX0s-fits]
 0   0   1      208   2.0   7.609E+02    [Clip-Bug, RC-Crash & Burn-In warning-flags, n_censored_weights, wei_nsig_threshold & wei_limit]
    10     10.185     10.181      0.004  [idt_all, wdt_TotTime, wdt_UsrTime & wdt_SysTime (sec)]

## Synthesis Results - Best model ##

 1.57065E+00                             [chi2/Nl_eff]
     1.90268                             [adev (%)]

   100.64943                             [sum-of-x (%)]
 3.29466E-14                             [Flux_tot (units of input spectrum!)]
 4.81283E-10                             [Mini_tot (???)]
 2.49956E-10                             [Mcor_tot (???)]

  -5.54                                  [v0_min  (km/s)]
  72.63                                  [vd_min  (km/s)]
 0.9412                                  [AV_min  (mag)]
 0.0000                                  [YAV_min (mag)]

# j     x_j(%)      Mini_j(%)     Mcor_j(%)     age_j(yr)     Z_j      (L/M)_j    YAV?  Mstars   component_j        a/Fe...       SSP_chi2r SSP_adev(%)   SSP_AV   SSP_x(%)
  1      0.0000     0.0000E+00    0.0000E+00    1.000000E+06  0.00400  1.114E-02    0   1.0000   age020_m42            0.0000     6.7937E+02    10.7658   4.0000    76.2717
  2      2.9006     4.8436E-03    9.3253E-03    3.160000E+06  0.00400  4.073E-02    0   0.9999   age045_m42            0.0000     9.9456E+01     5.6452   3.3496    90.1821
  3      0.0000     0.0000E+00    0.0000E+00    5.010000E+06  0.00400  2.534E-02    0   0.9488   age055_m42            0.0000     2.4004E+02    10.3801   3.8841    83.2137
  4      5.8570     3.1342E-02    5.3481E-02    1.000000E+07  0.00400  1.271E-02    0   0.8862   age070_m42            0.0000     1.7667E+02     9.1440   3.0924    86.6033
  5      0.0000     0.0000E+00    0.0000E+00    2.512000E+07  0.00400  5.070E-03    0   0.8174   age090_m42            0.0000     1.5176E+02     8.3778   2.9498    88.1835
  6      0.0000     0.0000E+00    0.0000E+00    4.000000E+07  0.00400  3.505E-03    0   0.7851   age104_m42            0.0000     9.1818E+01     5.8455   2.5743    91.5166
  7     25.2570     7.5742E-01    1.0511E+00    1.015200E+08  0.00400  2.268E-03    0   0.7207   age116_m42            0.0000     3.4363E+02    10.1142   2.1345   103.0519
  8      0.0000     0.0000E+00    0.0000E+00    2.861200E+08  0.00400  1.079E-03    0   0.6613   age125_m42            0.0000     3.7614E+02    11.8452   1.5749   105.5162
  9      2.7751     3.7176E-01    4.4360E-01    6.405400E+08  0.00400  5.077E-04    0   0.6197   age132_m42            0.0000     4.2210E+02    12.9421   1.1862   109.5651
 10      6.8067     1.3096E+00    1.5190E+00    9.047900E+08  0.00400  3.535E-04    0   0.6024   age135_m42            0.0000     2.4623E+02    10.3895   1.0177   108.7141
 11      0.0294     1.0464E-02    1.1516E-02    1.434000E+09  0.00400  1.910E-04    0   0.5716   age139_m42            0.0000     8.4367E+01     7.6653   0.5532   108.1102
 12      3.0590     2.1192E+00    2.2291E+00    2.500000E+09  0.00400  9.818E-05    0   0.5463   age150_m42            0.0000     3.1146E+01     4.8962   0.3937   103.6791
 13     40.6491     5.8599E+01    5.8988E+01    5.000000E+09  0.00400  4.718E-05    0   0.5228   age161_m42            0.0000     7.0030E+01     3.9060   0.3023   100.4627
 14      8.1233     2.5057E+01    2.4026E+01    1.100000E+10  0.00400  2.205E-05    0   0.4980   age185_m42            0.0000     1.7234E+02     5.4291   0.0000    99.4335
 15      1.3207     4.7704E+00    4.5256E+00    1.300000E+10  0.00400  1.883E-05    0   0.4927   age193_m42            0.0000     1.9330E+02     5.3800   0.0000    99.2863
 16      0.0000     0.0000E+00    0.0000E+00    1.000000E+06  0.02000  1.989E-02    0   1.0000   age020_m62            0.0000     6.5454E+02     9.8574   4.0000    76.8426
 17      0.0000     0.0000E+00    0.0000E+00    3.160000E+06  0.02000  3.772E-02    0   0.9858   age045_m62            0.0000     5.1633E+02     7.3837   4.0000    78.8238
 18      1.0756     2.2670E-03    4.0778E-03    5.010000E+06  0.02000  3.227E-02    0   0.9342   age055_m62            0.0000     1.5771E+02     8.1392   3.6872    86.2214
 19      0.0000     0.0000E+00    0.0000E+00    1.000000E+07  0.02000  1.011E-02    0   0.8751   age070_m62            0.0000     4.2086E+02    14.0666   3.2450    82.0093
 20      0.0000     0.0000E+00    0.0000E+00    2.512000E+07  0.02000  4.206E-03    0   0.8099   age090_m62            0.0000     3.2174E+02    12.0960   3.1367    83.2077
 21      0.0000     0.0000E+00    0.0000E+00    4.000000E+07  0.02000  3.373E-03    0   0.7799   age104_m62            0.0000     8.8337E+01     4.6542   2.7434    92.5994
 22      0.0000     0.0000E+00    0.0000E+00    1.015200E+08  0.02000  1.878E-03    0   0.7221   age116_m62            0.0000     2.8088E+02     8.5571   2.2469   102.1921
 23      0.0000     0.0000E+00    0.0000E+00    2.861200E+08  0.02000  8.869E-04    0   0.6700   age125_m62            0.0000     6.8833E+02    16.4332   1.4383   111.0526
 24      0.0000     0.0000E+00    0.0000E+00    6.405400E+08  0.02000  3.657E-04    0   0.6322   age132_m62            0.0000     4.2418E+02    16.0232   0.7198   115.4242
 25      0.0000     0.0000E+00    0.0000E+00    9.047900E+08  0.02000  2.312E-04    0   0.6152   age135_m62            0.0000     2.1564E+02    12.8587   0.4471   114.2318
 26      0.0000     0.0000E+00    0.0000E+00    1.434000E+09  0.02000  1.168E-04    0   0.5865   age139_m62            0.0000     6.4126E+01     7.4894   0.2385   107.9687
 27      0.0000     0.0000E+00    0.0000E+00    2.500000E+09  0.02000  5.505E-05    0   0.5610   age150_m62            0.0000     1.2310E+02     7.0024  -0.0750   105.7312
 28      0.0000     0.0000E+00    0.0000E+00    5.000000E+09  0.02000  2.596E-05    0   0.5353   age161_m62            0.0000     2.8951E+02     8.6797  -0.4272   106.7974
 29      0.0000     0.0000E+00    0.0000E+00    1.100000E+10  0.02000  1.169E-05    0   0.5103   age185_m62            0.0000     4.9357E+02    10.6807  -0.8359   109.4146
 30      0.0000     0.0000E+00    0.0000E+00    1.300000E+10  0.02000  9.691E-06    0   0.5047   age193_m62            0.0000     5.3772E+02    10.9558  -0.8862   109.8434
 31      0.0000     0.0000E+00    0.0000E+00    1.000000E+06  0.05000  2.651E-02    0   0.9998   age020_m72            0.0000     6.1634E+02     9.6435   4.0000    77.7660
 32      0.0000     0.0000E+00    0.0000E+00    3.160000E+06  0.05000  4.817E-02    0   0.9577   age045_m72            0.0000     3.2733E+02     8.1122   4.0000    82.0880
 33      1.2109     2.6558E-03    4.6775E-03    5.010000E+06  0.05000  3.101E-02    0   0.9147   age055_m72            0.0000     2.6932E+02    11.4839   3.7894    84.0638
 34      0.0000     0.0000E+00    0.0000E+00    1.000000E+07  0.05000  8.954E-03    0   0.8524   age070_m72            0.0000     3.0561E+02    10.9525   4.0000    82.8715
 35      0.0000     0.0000E+00    0.0000E+00    2.512000E+07  0.05000  4.207E-03    0   0.7902   age090_m72            0.0000     1.4450E+02     7.0072   3.4834    88.6439
 36      0.0000     0.0000E+00    0.0000E+00    4.000000E+07  0.05000  3.198E-03    0   0.7618   age104_m72            0.0000     1.4987E+02     4.7381   2.7302    97.8053
 37      0.0000     0.0000E+00    0.0000E+00    1.015200E+08  0.05000  1.716E-03    0   0.7092   age116_m72            0.0000     3.5063E+02     9.8930   2.2793   102.8393
 38      0.0000     0.0000E+00    0.0000E+00    2.861200E+08  0.05000  7.047E-04    0   0.6618   age125_m72            0.0000     6.5482E+02    16.7773   1.1820   112.5661
 39      0.0000     0.0000E+00    0.0000E+00    6.405400E+08  0.05000  2.633E-04    0   0.6253   age132_m72            0.0000     3.0091E+02    15.0278   0.3503   115.6477
 40      0.0000     0.0000E+00    0.0000E+00    9.047900E+08  0.05000  1.484E-04    0   0.6088   age135_m72            0.0000     1.1246E+02    11.2843   0.0000   110.5275
 41      0.0000     0.0000E+00    0.0000E+00    1.434000E+09  0.05000  7.827E-05    0   0.5847   age139_m72            0.0000     1.6174E+02     9.1776  -0.2511   107.4572
 42      0.0000     0.0000E+00    0.0000E+00    2.500000E+09  0.05000  3.759E-05    0   0.5583   age150_m72            0.0000     3.0185E+02     9.2291  -0.5252   107.0957
 43      1.5851     6.9642E+00    7.1338E+00    5.000000E+09  0.05000  1.548E-05    0   0.5320   age161_m72            0.0000     4.6884E+02    10.6906  -0.9675   107.8471
 44      0.0000     0.0000E+00    0.0000E+00    1.100000E+10  0.05000  6.532E-06    0   0.5070   age185_m72            0.0000     7.1290E+02    13.8999  -1.0000   107.1316
 45      0.0000     0.0000E+00    0.0000E+00    1.300000E+10  0.05000  5.316E-06    0   0.5018   age193_m72            0.0000     8.5420E+02    17.6302  -1.0000   106.7554


## Synthesis Results - Average & Chains ##

# j      x_j: min, <> & last-chain-values for 1 ...  7 chains
  1      0.0000      0.0241      0.0198      0.0000      0.0000      0.0108      0.0000      0.1026      0.0155
  2      2.9006      1.7840      1.6082      1.9515      1.8383      1.9316      1.7606      1.9000      1.6881
  3      0.0000      0.1446      0.1468      0.1894      0.3672      0.0989      0.0699      0.1998      0.3726
  4      5.8570      5.4361      5.7676      5.5194      5.0073      5.4157      5.5237      5.4008      5.5617
  5      0.0000      0.2790      0.4115      0.3188      0.4899      0.1643      0.2300      0.2701      0.2876
  6      0.0000      0.0381      0.0000      0.0000      0.0999      0.0172      0.0000      0.2047      0.0000
  7     25.2570     28.1964     28.1452     27.3833     27.4087     27.3844     28.3973     27.3995     28.0250
  8      0.0000      0.0346      0.0000      0.0553      0.0000      0.0486      0.0000      0.0000      0.0000
  9      2.7751      1.3411      2.3573      1.6078      1.7059      1.4158      1.4618      1.5133      1.4270
 10      6.8067      2.2856      2.2708      3.5150      3.9026      3.5072      2.2921      3.2430      3.3527
 11      0.0294      0.5930      0.6102      0.7626      0.0000      0.6812      1.0863      0.7496      0.0000
 12      3.0590      9.5694      8.5398      8.9933      9.0708      9.3365      9.5853      9.6216      8.9326
 13     40.6491     39.7039     40.2359     39.5396     39.8299     39.9458     39.5280     39.6081     39.9277
 14      8.1233      5.7918      6.2044      6.2689      5.8167      5.9139      5.8434      5.6854      5.9203
 15      1.3207      0.4827      0.3222      0.0251      0.8227      0.6145      0.8381      0.6031      1.0320
 16      0.0000      0.0103      0.0000      0.0000      0.0000      0.0000      0.0816      0.0000      0.0000
 17      0.0000      0.0504      0.0000      0.0000      0.0000      0.0401      0.1325      0.0000      0.0000
 18      1.0756      0.4877      0.4565      0.7791      0.5307      0.5766      0.6371      0.5149      0.3582
 19      0.0000      0.2172      0.2450      0.0000      0.1334      0.2056      0.1538      0.3084      0.1478
 20      0.0000      0.0168      0.0000      0.0000      0.0000      0.0000      0.0000      0.0000      0.0076
 21      0.0000      0.1509      0.0000      0.1772      0.1701      0.0000      0.0352      0.1107      0.0000
 22      0.0000      0.2593      0.0000      0.0000      0.0466      0.0101      0.0546      0.2666      0.1021
 23      0.0000      0.0151      0.0000      0.0000      0.0000      0.0000      0.0000      0.0000      0.0367
 24      0.0000      0.0084      0.0000      0.0000      0.0000      0.0000      0.0000      0.0000      0.0000
 25      0.0000      0.0110      0.0000      0.0000      0.0000      0.0000      0.0000      0.0000      0.0000
 26      0.0000      0.0106      0.0000      0.0000      0.0175      0.0000      0.0000      0.0000      0.0000
 27      0.0000      0.0194      0.0000      0.0000      0.0000      0.0000      0.0000      0.0000      0.0000
 28      0.0000      0.0287      0.0000      0.0000      0.0000      0.0000      0.0000      0.0000      0.0000
 29      0.0000      0.0355      0.0000      0.0717      0.0748      0.0000      0.0000      0.0000      0.0000
 30      0.0000      0.0504      0.1933      0.0000      0.3524      0.0000      0.0000      0.0000      0.0000
 31      0.0000      0.0192      0.0577      0.0000      0.0000      0.0000      0.0527      0.0000      0.0759
 32      0.0000      0.4775      0.3574      0.5547      0.8083      0.3703      0.6276      0.5437      0.3860
 33      1.2109      0.4753      0.7954      0.8337      0.4565      1.0927      0.4615      0.4496      0.6867
 34      0.0000      0.0132      0.0000      0.0000      0.0000      0.0000      0.0000      0.0000      0.0000
 35      0.0000      0.0564      0.0000      0.0000      0.0044      0.0530      0.0000      0.0267      0.0000
 36      0.0000      0.1033      0.0000      0.0000      0.0000      0.0000      0.0090      0.0000      0.0000
 37      0.0000      0.2189      0.0235      0.0000      0.0281      0.1109      0.0000      0.0000      0.2401
 38      0.0000      0.0079      0.0000      0.0000      0.0000      0.0000      0.0000      0.0000      0.0000
 39      0.0000      0.0056      0.0000      0.0000      0.0000      0.0000      0.0000      0.0000      0.0000
 40      0.0000      0.0092      0.0000      0.0000      0.0000      0.0000      0.0000      0.0000      0.0000
 41      0.0000      0.0151      0.0000      0.0000      0.0000      0.0000      0.0000      0.0079      0.0000
 42      0.0000      0.0426      0.0999      0.0239      0.0000      0.1649      0.0000      0.1164      0.1081
 43      1.5851      1.0163      1.0036      1.0582      0.8977      1.1593      1.0362      0.9305      1.0738
 44      0.0000      0.6148      0.3996      0.3884      0.4776      0.4521      0.5954      0.5007      0.5680
 45      0.0000      0.6393      0.5175      0.7058      0.4163      0.0000      0.2006      0.4832      0.4552

# j      m_j: min, <> & last-chain-values for 1 ...  7 chains
  1  0.0000E+00  2.7007E-04  2.2609E-04  0.0000E+00  0.0000E+00  1.3109E-04  0.0000E+00  1.1897E-03  1.7464E-04
  2  9.3253E-03  5.4567E-03  5.0234E-03  6.0906E-03  5.7001E-03  6.4021E-03  5.6532E-03  6.0270E-03  5.2095E-03
  3  0.0000E+00  6.7450E-04  6.9954E-04  9.0141E-04  1.7364E-03  5.0004E-04  3.4257E-04  9.6690E-04  1.7536E-03
  4  5.3481E-02  4.7224E-02  5.1166E-02  4.8924E-02  4.4097E-02  5.0981E-02  5.0375E-02  4.8658E-02  4.8748E-02
  5  0.0000E+00  5.6041E-03  8.4404E-03  6.5337E-03  9.9755E-03  3.5762E-03  4.8502E-03  5.6267E-03  5.8295E-03
  6  0.0000E+00  1.0626E-03  0.0000E+00  0.0000E+00  2.8263E-03  5.2020E-04  0.0000E+00  5.9258E-03  0.0000E+00
  7  1.0511E+00  1.1163E+00  1.1379E+00  1.1062E+00  1.1001E+00  1.1748E+00  1.1803E+00  1.1250E+00  1.1195E+00
  8  0.0000E+00  2.6413E-03  0.0000E+00  4.3081E-03  0.0000E+00  4.0228E-03  0.0000E+00  0.0000E+00  0.0000E+00
  9  4.4360E-01  2.0395E-01  3.6610E-01  2.4949E-01  2.6300E-01  2.3331E-01  2.3337E-01  2.3868E-01  2.1896E-01
 10  1.5190E+00  4.8527E-01  4.9236E-01  7.6148E-01  8.4000E-01  8.0690E-01  5.1090E-01  7.1408E-01  7.1821E-01
 11  1.1516E-02  2.2112E-01  2.3235E-01  2.9013E-01  0.0000E+00  2.7524E-01  4.2521E-01  2.8988E-01  0.0000E+00
 12  2.2291E+00  6.6341E+00  6.0459E+00  6.3617E+00  6.3750E+00  7.0138E+00  6.9761E+00  6.9177E+00  6.2481E+00
 13  5.8988E+01  5.4816E+01  5.6728E+01  5.5700E+01  5.5746E+01  5.9761E+01  5.7290E+01  5.6711E+01  5.5618E+01
 14  2.4026E+01  1.6298E+01  1.7829E+01  1.7999E+01  1.6593E+01  1.8033E+01  1.7262E+01  1.6592E+01  1.6809E+01
 15  4.5256E+00  1.5737E+00  1.0727E+00  8.3384E-02  2.7188E+00  2.1707E+00  2.8682E+00  2.0389E+00  3.3944E+00
 16  0.0000E+00  6.4640E-05  0.0000E+00  0.0000E+00  0.0000E+00  0.0000E+00  5.3650E-04  0.0000E+00  0.0000E+00
 17  0.0000E+00  1.6405E-04  0.0000E+00  0.0000E+00  0.0000E+00  1.4158E-04  4.5294E-04  0.0000E+00  0.0000E+00
 18  4.0778E-03  1.7591E-03  1.6816E-03  2.8672E-03  1.9406E-03  2.2535E-03  2.4125E-03  1.9261E-03  1.3037E-03
 19  0.0000E+00  2.3428E-03  2.6982E-03  0.0000E+00  1.4585E-03  2.4021E-03  1.7412E-03  3.4491E-03  1.6087E-03
 20  0.0000E+00  4.0393E-04  0.0000E+00  0.0000E+00  0.0000E+00  0.0000E+00  0.0000E+00  0.0000E+00  1.8343E-04
 21  0.0000E+00  4.3483E-03  0.0000E+00  5.2080E-03  4.9671E-03  0.0000E+00  1.0644E-03  3.3074E-03  0.0000E+00
 22  0.0000E+00  1.2422E-02  0.0000E+00  0.0000E+00  2.2636E-03  5.2609E-04  2.7439E-03  1.3246E-02  4.9362E-03
 23  0.0000E+00  1.4253E-03  0.0000E+00  0.0000E+00  0.0000E+00  0.0000E+00  0.0000E+00  0.0000E+00  3.4834E-03
 24  0.0000E+00  1.8161E-03  0.0000E+00  0.0000E+00  0.0000E+00  0.0000E+00  0.0000E+00  0.0000E+00  0.0000E+00
 25  0.0000E+00  3.6335E-03  0.0000E+00  0.0000E+00  0.0000E+00  0.0000E+00  0.0000E+00  0.0000E+00  0.0000E+00
 26  0.0000E+00  6.6264E-03  0.0000E+00  0.0000E+00  1.1122E-02  0.0000E+00  0.0000E+00  0.0000E+00  0.0000E+00
 27  0.0000E+00  2.4645E-02  0.0000E+00  0.0000E+00  0.0000E+00  0.0000E+00  0.0000E+00  0.0000E+00  0.0000E+00
 28  0.0000E+00  7.3851E-02  0.0000E+00  0.0000E+00  0.0000E+00  0.0000E+00  0.0000E+00  0.0000E+00  0.0000E+00
 29  0.0000E+00  1.9293E-01  0.0000E+00  3.9765E-01  4.1217E-01  0.0000E+00  0.0000E+00  0.0000E+00  0.0000E+00
 30  0.0000E+00  3.2700E-01  1.2809E+00  0.0000E+00  2.3180E+00  0.0000E+00  0.0000E+00  0.0000E+00  0.0000E+00
 31  0.0000E+00  9.0306E-05  2.7673E-04  0.0000E+00  0.0000E+00  0.0000E+00  2.5978E-04  0.0000E+00  3.5989E-04
 32  0.0000E+00  1.1829E-03  9.0405E-04  1.4020E-03  2.0298E-03  9.9399E-04  1.6319E-03  1.3967E-03  9.6462E-04
 33  4.6775E-03  1.7467E-03  2.9851E-03  3.1263E-03  1.7007E-03  4.3517E-03  1.7806E-03  1.7138E-03  2.5461E-03
