###################################################################
## OUTPUT of StarlightChains_v04.for    [Cid@UFSC - 01/Apr/2007] ##
###################################################################

## Some input info
NGC6266_a_1.cxt                          [arq_obs]
Base.BC03.N                              [arq_base]
NGC6266_a_1.msk                          [arq_masks]
StCv04.C11.config                        [arq_config]
   45                                    [N_base]
    0                                    [N_YAV_components = # of components with extra extinction!]
    0                                    [i_FitPowerLaw (1/0 = Yes/No)]
-9.99                                    [alpha_PowerLaw]
CCM                                      [red_law_option]
 1.458241                                [q_norm = A(l_norm)/A(V)]

## (Re)Sampling Parameters
 3359.00                                 [l_ini (A)]
 6428.00                                 [l_fin (A)]
    1.00                                 [dl    (A)]     (OBS: dl_cushion =    50.00 A)

## Normalization info
 4020.00                                 [l_norm (A) - for base]
 4010.00                                 [llow_norm (A) - window for f_obs]
 4060.00                                 [lupp_norm (A) - window for f_obs]
4.260575E-14                             [fobs_norm (in input units)]

## S/N
 4730.00                                 [llow_SN (A) - window for S/N]
 4780.00                                 [lupp_SN (A) - window for S/N]
  58.893                                 [S/N in S/N window]
  42.056                                 [S/N in norm. window]
 225.721                                 [S/N_err in S/N window]
 161.191                                 [S/N_err in norm. window]
  1.0000                                 [fscale_chi2]

## etc...
  2147483622                             [idum_orig]
  3068                                   [NOl_eff]
   694                                   [Nl_eff]
  2374    NSIGMA                         [Ntot_cliped & clip_method]
   882840                                [Nglobal_steps]
   7                                     [N_chains]
   8                                     [NEX0s_base = N_base in EX0s-fits]
 0   0   1        2   2.0   4.774E+02    [Clip-Bug, RC-Crash & Burn-In warning-flags, n_censored_weights, wei_nsig_threshold & wei_limit]
    12     11.563     11.559      0.004  [idt_all, wdt_TotTime, wdt_UsrTime & wdt_SysTime (sec)]

## Synthesis Results - Best model ##

 2.48659E+00                             [chi2/Nl_eff]
     1.06154                             [adev (%)]

    98.56146                             [sum-of-x (%)]
 3.57823E-13                             [Flux_tot (units of input spectrum!)]
 3.80712E-09                             [Mini_tot (???)]
 2.02822E-09                             [Mcor_tot (???)]

 -11.60                                  [v0_min  (km/s)]
  56.09                                  [vd_min  (km/s)]
 1.5952                                  [AV_min  (mag)]
 0.0000                                  [YAV_min (mag)]

# j     x_j(%)      Mini_j(%)     Mcor_j(%)     age_j(yr)     Z_j      (L/M)_j    YAV?  Mstars   component_j        a/Fe...       SSP_chi2r SSP_adev(%)   SSP_AV   SSP_x(%)
  1      0.0000     0.0000E+00    0.0000E+00    1.000000E+06  0.00400  1.114E-02    0   1.0000   age020_m42            0.0000     2.9621E+03    26.3628   4.0000    89.5882
  2      8.8948     2.0825E-02    3.9086E-02    3.160000E+06  0.00400  4.073E-02    0   0.9999   age045_m42            0.0000     1.3031E+02     5.6768   3.8823    89.4342
  3      0.0000     0.0000E+00    0.0000E+00    5.010000E+06  0.00400  2.534E-02    0   0.9488   age055_m42            0.0000     4.9585E+02    12.1406   4.0000    89.2163
  4     10.9158     8.1898E-02    1.3623E-01    1.000000E+07  0.00400  1.271E-02    0   0.8862   age070_m42            0.0000     2.4089E+02     8.5860   3.4797    87.1236
  5      1.8764     3.5293E-02    5.4151E-02    2.512000E+07  0.00400  5.070E-03    0   0.8174   age090_m42            0.0000     2.0981E+02     8.0166   3.3518    88.7942
  6      0.0000     0.0000E+00    0.0000E+00    4.000000E+07  0.00400  3.505E-03    0   0.7851   age104_m42            0.0000     1.3360E+02     6.2165   3.0404    92.0548
  7      0.0000     0.0000E+00    0.0000E+00    1.015200E+08  0.00400  2.268E-03    0   0.7207   age116_m42            0.0000     6.5527E+02    10.4521   3.0309   102.9090
  8      0.0000     0.0000E+00    0.0000E+00    2.861200E+08  0.00400  1.079E-03    0   0.6613   age125_m42            0.0000     7.0700E+02    11.3721   2.5374   105.1990
  9      3.1338     5.8861E-01    6.8469E-01    6.405400E+08  0.00400  5.077E-04    0   0.6197   age132_m42            0.0000     7.4943E+02    11.8490   2.1596   109.7556
 10      8.3488     2.2522E+00    2.5466E+00    9.047900E+08  0.00400  3.535E-04    0   0.6024   age135_m42            0.0000     4.7868E+02     9.6673   1.9216   108.9496
 11      0.0000     0.0000E+00    0.0000E+00    1.434000E+09  0.00400  1.910E-04    0   0.5716   age139_m42            0.0000     2.2393E+02     7.0394   1.4059   108.0167
 12     30.9445     3.0056E+01    3.0820E+01    2.500000E+09  0.00400  9.818E-05    0   0.5463   age150_m42            0.0000     8.2470E+01     4.6576   1.1470   102.7890
 13     33.1299     6.6962E+01    6.5712E+01    5.000000E+09  0.00400  4.718E-05    0   0.5228   age161_m42            0.0000     8.1198E+01     4.1565   0.9847    99.3570
 14      0.0000     0.0000E+00    0.0000E+00    1.100000E+10  0.00400  2.205E-05    0   0.4980   age185_m42            0.0000     1.9423E+02     5.9062   0.7286    97.6123
 15      0.0000     0.0000E+00    0.0000E+00    1.300000E+10  0.00400  1.883E-05    0   0.4927   age193_m42            0.0000     2.1318E+02     6.1793   0.7120    97.4780
 16      0.0000     0.0000E+00    0.0000E+00    1.000000E+06  0.02000  1.989E-02    0   1.0000   age020_m62            0.0000     2.7597E+03    25.3332   4.0000    89.8523
 17      0.0000     0.0000E+00    0.0000E+00    3.160000E+06  0.02000  3.772E-02    0   0.9858   age045_m62            0.0000     1.9722E+03    22.1405   4.0000    90.5236
 18      1.3176     3.8936E-03    6.8277E-03    5.010000E+06  0.02000  3.227E-02    0   0.9342   age055_m62            0.0000     2.3133E+02     8.4681   4.0000    89.3131
 19      0.0000     0.0000E+00    0.0000E+00    1.000000E+07  0.02000  1.011E-02    0   0.8751   age070_m62            0.0000     6.4644E+02    13.2312   3.5204    82.6190
 20      0.0000     0.0000E+00    0.0000E+00    2.512000E+07  0.02000  4.206E-03    0   0.8099   age090_m62            0.0000     4.4149E+02    11.0473   3.4582    83.6191
 21      0.0000     0.0000E+00    0.0000E+00    4.000000E+07  0.02000  3.373E-03    0   0.7799   age104_m62            0.0000     1.5913E+02     5.8563   3.2586    93.5366
 22      0.0000     0.0000E+00    0.0000E+00    1.015200E+08  0.02000  1.878E-03    0   0.7221   age116_m62            0.0000     5.3065E+02     9.0911   3.0587   103.0828
 23      0.0000     0.0000E+00    0.0000E+00    2.861200E+08  0.02000  8.869E-04    0   0.6700   age125_m62            0.0000     1.1685E+03    14.5993   2.5492   110.6212
 24      0.0000     0.0000E+00    0.0000E+00    6.405400E+08  0.02000  3.657E-04    0   0.6322   age132_m62            0.0000     8.0565E+02    12.6911   1.8736   114.2223
 25      0.0000     0.0000E+00    0.0000E+00    9.047900E+08  0.02000  2.312E-04    0   0.6152   age135_m62            0.0000     4.7784E+02     9.9809   1.5050   113.0855
 26      0.0000     0.0000E+00    0.0000E+00    1.434000E+09  0.02000  1.168E-04    0   0.5865   age139_m62            0.0000     1.8063E+02     6.4122   1.1080   106.7344
 27      0.0000     0.0000E+00    0.0000E+00    2.500000E+09  0.02000  5.505E-05    0   0.5610   age150_m62            0.0000     2.2653E+02     6.9045   0.7436   104.0475
 28      0.0000     0.0000E+00    0.0000E+00    5.000000E+09  0.02000  2.596E-05    0   0.5353   age161_m62            0.0000     4.7840E+02     9.4473   0.4113   104.8005
 29      0.0000     0.0000E+00    0.0000E+00    1.100000E+10  0.02000  1.169E-05    0   0.5103   age185_m62            0.0000     8.0676E+02    11.9476   0.0500   106.9247
 30      0.0000     0.0000E+00    0.0000E+00    1.300000E+10  0.02000  9.691E-06    0   0.5047   age193_m62            0.0000     8.6896E+02    12.3505   0.0050   107.2502
 31      0.0000     0.0000E+00    0.0000E+00    1.000000E+06  0.05000  2.651E-02    0   0.9998   age020_m72            0.0000     2.7331E+03    24.9129   4.0000    90.9290
 32      0.0000     0.0000E+00    0.0000E+00    3.160000E+06  0.05000  4.817E-02    0   0.9577   age045_m72            0.0000     1.2052E+03    17.5730   4.0000    92.1422
 33      0.0000     0.0000E+00    0.0000E+00    5.010000E+06  0.05000  3.101E-02    0   0.9147   age055_m72            0.0000     3.7184E+02    10.6165   4.0000    87.6962
 34      0.0000     0.0000E+00    0.0000E+00    1.000000E+07  0.05000  8.954E-03    0   0.8524   age070_m72            0.0000     8.7188E+02    15.0173   4.0000    91.3429
 35      0.0000     0.0000E+00    0.0000E+00    2.512000E+07  0.05000  4.207E-03    0   0.7902   age090_m72            0.0000     1.6781E+02     6.2711   3.9749    88.3745
 36      0.0000     0.0000E+00    0.0000E+00    4.000000E+07  0.05000  3.198E-03    0   0.7618   age104_m72            0.0000     3.1999E+02     6.8985   3.4582    97.9678
 37      0.0000     0.0000E+00    0.0000E+00    1.015200E+08  0.05000  1.716E-03    0   0.7092   age116_m72            0.0000     6.6911E+02    10.3987   3.1668   103.0482
 38      0.0000     0.0000E+00    0.0000E+00    2.861200E+08  0.05000  7.047E-04    0   0.6618   age125_m72            0.0000     1.1567E+03    14.6273   2.3606   111.0630
 39      0.0000     0.0000E+00    0.0000E+00    6.405400E+08  0.05000  2.633E-04    0   0.6253   age132_m72            0.0000     6.5199E+02    11.5450   1.5146   113.6055
 40      0.0000     0.0000E+00    0.0000E+00    9.047900E+08  0.05000  1.484E-04    0   0.6088   age135_m72            0.0000     3.2091E+02     8.7376   1.0409   108.3485
 41      0.0000     0.0000E+00    0.0000E+00    1.434000E+09  0.05000  7.827E-05    0   0.5847   age139_m72            0.0000     3.5556E+02     8.6779   0.6634   104.9411
 42      0.0000     0.0000E+00    0.0000E+00    2.500000E+09  0.05000  3.759E-05    0   0.5583   age150_m72            0.0000     5.3863E+02    10.0982   0.3445   104.4915
 43      0.0000     0.0000E+00    0.0000E+00    5.000000E+09  0.05000  1.548E-05    0   0.5320   age161_m72            0.0000     8.3779E+02    11.9963  -0.0540   104.8432
 44      0.0000     0.0000E+00    0.0000E+00    1.100000E+10  0.05000  6.532E-06    0   0.5070   age185_m72            0.0000     1.2025E+03    14.2090  -0.4307   105.7890
 45      0.0000     0.0000E+00    0.0000E+00    1.300000E+10  0.05000  5.316E-06    0   0.5018   age193_m72            0.0000     1.3617E+03    15.1664  -0.5475   106.2532


## Synthesis Results - Average & Chains ##

# j      x_j: min, <> & last-chain-values for 1 ...  7 chains
  1      0.0000      0.0138      0.0000      0.0000      0.0000      0.0000      0.0000      0.0123      0.0148
  2      8.8948      8.4644      8.6117      8.7739      8.4626      8.4103      8.6855      8.6860      8.4607
  3      0.0000      0.0459      0.0000      0.0000      0.0575      0.1101      0.0000      0.2039      0.0000
  4     10.9158     10.4248     10.4650     10.5405     10.7007     10.6548     10.4716     10.5492     10.5153
  5      1.8764      2.2657      2.3363      2.2144      1.9232      2.3501      2.3483      2.0173      2.3358
  6      0.0000      0.0392      0.0173      0.0917      0.0000      0.0000      0.0000      0.0845      0.0701
  7      0.0000      0.6588      0.6054      0.5807      0.5636      0.7647      0.8829      0.7829      0.6009
  8      0.0000      0.0309      0.0000      0.0000      0.0937      0.0000      0.0000      0.0000      0.0000
  9      3.1338      3.0796      3.1615      3.1637      3.1400      2.8314      2.8526      2.8784      3.1727
 10      8.3488      7.6761      7.6885      7.8119      7.8063      7.7066      7.8255      7.8313      7.6708
 11      0.0000      0.2555      0.1144      0.0000      0.4974      0.6701      0.2028      0.8590      0.6149
 12     30.9445     30.1929     30.3046     30.3716     30.2267     29.9230     30.6596     29.9248     30.2557
 13     33.1299     32.8509     33.0707     33.2896     32.9273     32.8928     32.4001     32.9776     32.8036
 14      0.0000      0.0451      0.0000      0.0000      0.0000      0.0000      0.0000      0.0000      0.0227
 15      0.0000      0.0253      0.0000      0.0000      0.0000      0.0000      0.0000      0.0000      0.0000
 16      0.0000      0.0160      0.0000      0.0000      0.1115      0.0000      0.0690      0.0307      0.0000
 17      0.0000      0.0098      0.0000      0.0000      0.0000      0.0000      0.0000      0.0000      0.0000
 18      1.3176      1.1835      1.2520      1.1318      1.2427      1.0209      1.2509      0.9365      1.2185
 19      0.0000      0.0172      0.0000      0.0000      0.0000      0.0517      0.0000      0.0000      0.0000
 20      0.0000      0.0164      0.0000      0.0000      0.0099      0.0000      0.0000      0.0000      0.0000
 21      0.0000      0.0633      0.0000      0.0000      0.0669      0.0252      0.0000      0.0000      0.0278
 22      0.0000      0.0295      0.0000      0.0045      0.0000      0.1020      0.0000      0.0000      0.0000
 23      0.0000      0.0251      0.0673      0.0569      0.0000      0.0000      0.0693      0.0000      0.0000
 24      0.0000      0.0243      0.0000      0.0000      0.0000      0.0000      0.0316      0.0000      0.0000
 25      0.0000      0.0787      0.0000      0.0000      0.0034      0.2197      0.1159      0.0000      0.0000
 26      0.0000      0.0815      0.0000      0.0000      0.0205      0.0518      0.0084      0.0000      0.0673
 27      0.0000      0.0407      0.0000      0.0000      0.0000      0.0000      0.0000      0.0000      0.0282
 28      0.0000      0.0650      0.0447      0.0000      0.0469      0.0318      0.0585      0.0000      0.0000
 29      0.0000      0.5542      0.6118      0.4921      0.5871      0.6148      0.3989      0.5728      0.5398
 30      0.0000      0.0192      0.0846      0.1064      0.0000      0.0000      0.0000      0.0000      0.0000
 31      0.0000      0.0088      0.0000      0.0000      0.0000      0.0000      0.0000      0.0000      0.0000
 32      0.0000      0.0231      0.0000      0.0000      0.0000      0.0000      0.0000      0.0665      0.0000
 33      0.0000      0.0452      0.0000      0.0094      0.0115      0.0843      0.0000      0.0872      0.0124
 34      0.0000      0.0103      0.0000      0.0000      0.0628      0.0000      0.0000      0.0210      0.0000
 35      0.0000      0.0188      0.0000      0.0000      0.0000      0.0000      0.0000      0.0000      0.1111
 36      0.0000      0.0233      0.1553      0.0213      0.0016      0.0521      0.0000      0.0000      0.0000
 37      0.0000      0.0286      0.0264      0.0000      0.0173      0.0716      0.0000      0.0000      0.0000
 38      0.0000      0.0189      0.0000      0.0000      0.0000      0.0000      0.0000      0.0000      0.0000
 39      0.0000      0.0367      0.0014      0.0000      0.0000      0.0145      0.0000      0.0000      0.0000
 40      0.0000      0.0512      0.0000      0.0000      0.0000      0.0380      0.0000      0.0000      0.0787
 41      0.0000      0.0240      0.0000      0.0000      0.0000      0.0035      0.0388      0.0668      0.0000
 42      0.0000      0.0268      0.0176      0.0000      0.0000      0.0000      0.0000      0.0000      0.0000
 43      0.0000      0.0203      0.0000      0.0000      0.0000      0.0000      0.2564      0.0000      0.0000
 44      0.0000      0.0052      0.0000      0.0000      0.0000      0.0000      0.0000      0.0000      0.0000
 45      0.0000      0.0635      0.0412      0.0000      0.1035      0.0000      0.0589      0.0800      0.0764

# j      m_j: min, <> & last-chain-values for 1 ...  7 chains
  1  0.0000E+00  2.1065E-04  0.0000E+00  0.0000E+00  0.0000E+00  0.0000E+00  0.0000E+00  1.8777E-04  2.2668E-04
  2  3.9086E-02  3.5307E-02  3.5819E-02  3.6904E-02  3.5228E-02  3.5608E-02  3.6609E-02  3.6388E-02  3.5539E-02
  3  0.0000E+00  2.9203E-04  0.0000E+00  0.0000E+00  3.6514E-04  7.1118E-04  0.0000E+00  1.3031E-03  0.0000E+00
  4  1.3623E-01  1.2350E-01  1.2362E-01  1.2592E-01  1.2651E-01  1.2812E-01  1.2536E-01  1.2552E-01  1.2545E-01
  5  5.4151E-02  6.2066E-02  6.3818E-02  6.1168E-02  5.2576E-02  6.5344E-02  6.5004E-02  5.5500E-02  6.4432E-02
  6  0.0000E+00  1.4935E-03  6.5768E-04  3.5175E-03  0.0000E+00  0.0000E+00  0.0000E+00  3.2297E-03  2.6876E-03
  7  0.0000E+00  3.5571E-02  3.2592E-02  3.1617E-02  3.0371E-02  4.1908E-02  4.8171E-02  4.2452E-02  3.2673E-02
  8  0.0000E+00  3.2185E-03  0.0000E+00  0.0000E+00  9.7330E-03  0.0000E+00  0.0000E+00  0.0000E+00  0.0000E+00
  9  6.8469E-01  6.3868E-01  6.5381E-01  6.6161E-01  6.4990E-01  5.9604E-01  5.9782E-01  5.9954E-01  6.6261E-01
 10  2.5466E+00  2.2226E+00  2.2198E+00  2.2808E+00  2.2557E+00  2.2649E+00  2.2896E+00  2.2773E+00  2.2366E+00
 11  0.0000E+00  1.2991E-01  5.8000E-02  0.0000E+00  2.5241E-01  3.4587E-01  1.0421E-01  4.3868E-01  3.1488E-01
 12  3.0820E+01  2.8545E+01  2.8569E+01  2.8954E+01  2.8520E+01  2.8715E+01  2.9291E+01  2.8414E+01  2.8805E+01
 13  6.5712E+01  6.1851E+01  6.2087E+01  6.3201E+01  6.1870E+01  6.2860E+01  6.1642E+01  6.2358E+01  6.2194E+01
 14  0.0000E+00  1.7289E-01  0.0000E+00  0.0000E+00  0.0000E+00  0.0000E+00  0.0000E+00  0.0000E+00  8.7741E-02
 15  0.0000E+00  1.1246E-01  0.0000E+00  0.0000E+00  0.0000E+00  0.0000E+00  0.0000E+00  0.0000E+00  0.0000E+00
 16  0.0000E+00  1.3643E-04  0.0000E+00  0.0000E+00  9.5026E-04  0.0000E+00  5.9565E-04  2.6364E-04  0.0000E+00
 17  0.0000E+00  4.3614E-05  0.0000E+00  0.0000E+00  0.0000E+00  0.0000E+00  0.0000E+00  0.0000E+00  0.0000E+00
 18  6.8277E-03  5.8215E-03  6.1407E-03  5.6138E-03  6.1002E-03  5.0970E-03  6.2174E-03  4.6263E-03  6.0354E-03
 19  0.0000E+00  2.5306E-04  0.0000E+00  0.0000E+00  0.0000E+00  7.7149E-04  0.0000E+00  0.0000E+00  0.0000E+00
 20  0.0000E+00  5.3497E-04  0.0000E+00  0.0000E+00  3.2479E-04  0.0000E+00  0.0000E+00  0.0000E+00  0.0000E+00
 21  0.0000E+00  2.4852E-03  0.0000E+00  0.0000E+00  2.6224E-03  1.0065E-03  0.0000E+00  0.0000E+00  1.1005E-03
 22  0.0000E+00  1.9292E-03  0.0000E+00  2.9898E-04  0.0000E+00  6.7607E-03  0.0000E+00  0.0000E+00  0.0000E+00
 23  0.0000E+00  3.2232E-03  8.6137E-03  7.3623E-03  0.0000E+00  0.0000E+00  8.9871E-03  0.0000E+00  0.0000E+00
 24  0.0000E+00  7.1248E-03  0.0000E+00  0.0000E+00  0.0000E+00  0.0000E+00  9.3841E-03  0.0000E+00  0.0000E+00
 25  0.0000E+00  3.5592E-02  0.0000E+00  0.0000E+00  1.5214E-03  1.0080E-01  5.2971E-02  0.0000E+00  0.0000E+00
 26  0.0000E+00  6.9508E-02  0.0000E+00  0.0000E+00  1.7428E-02  4.4857E-02  7.2293E-03  0.0000E+00  5.7800E-02
 27  0.0000E+00  7.0468E-02  0.0000E+00  0.0000E+00  0.0000E+00  0.0000E+00  0.0000E+00  0.0000E+00  4.9134E-02
 28  0.0000E+00  2.2761E-01  1.5632E-01  0.0000E+00  1.6388E-01  1.1305E-01  2.0724E-01  0.0000E+00  0.0000E+00
 29  0.0000E+00  4.1102E+00  4.5246E+00  3.6803E+00  4.3455E+00  4.6288E+00  2.9899E+00  4.2671E+00  4.0314E+00
 30  0.0000E+00  1.6990E-01  7.4682E-01  9.4940E-01  0.0000E+00  0.0000E+00  0.0000E+00  0.0000E+00  0.0000E+00
 31  0.0000E+00  5.6461E-05  0.0000E+00  0.0000E+00  0.0000E+00  0.0000E+00  0.0000E+00  0.0000E+00  0.0000E+00
 32  0.0000E+00  7.8129E-05  0.0000E+00  0.0000E+00  0.0000E+00  0.0000E+00  0.0000E+00  2.2564E-04  0.0000E+00
 33  0.0000E+00  2.2665E-04  0.0000E+00  4.7272E-05  5.7721E-05  4.2902E-04  0.0000E+00  4.3906E-04  6.2512E-05
