###################################################################
## OUTPUT of StarlightChains_v04.for    [Cid@UFSC - 01/Apr/2007] ##
###################################################################

## Some input info
NGC6626_a_1.cxt                          [arq_obs]
Base.BC03.N                              [arq_base]
NGC6626_a_1.msk                          [arq_masks]
StCv04.C11.config                        [arq_config]
   45                                    [N_base]
    0                                    [N_YAV_components = # of components with extra extinction!]
    0                                    [i_FitPowerLaw (1/0 = Yes/No)]
-9.99                                    [alpha_PowerLaw]
CCM                                      [red_law_option]
 1.458241                                [q_norm = A(l_norm)/A(V)]

## (Re)Sampling Parameters
 3359.00                                 [l_ini (A)]
 6428.00                                 [l_fin (A)]
    1.00                                 [dl    (A)]     (OBS: dl_cushion =    50.00 A)

## Normalization info
 4020.00                                 [l_norm (A) - for base]
 4010.00                                 [llow_norm (A) - window for f_obs]
 4060.00                                 [lupp_norm (A) - window for f_obs]
2.684846E-14                             [fobs_norm (in input units)]

## S/N
 4730.00                                 [llow_SN (A) - window for S/N]
 4780.00                                 [lupp_SN (A) - window for S/N]
  76.546                                 [S/N in S/N window]
  58.380                                 [S/N in norm. window]
 133.097                                 [S/N_err in S/N window]
 101.509                                 [S/N_err in norm. window]
  1.0000                                 [fscale_chi2]

## etc...
  2147483595                             [idum_orig]
  3069                                   [NOl_eff]
  1123                                   [Nl_eff]
  1946    NSIGMA                         [Ntot_cliped & clip_method]
   983640                                [Nglobal_steps]
   7                                     [N_chains]
  12                                     [NEX0s_base = N_base in EX0s-fits]
 0   0   1      124   2.0   2.431E+02    [Clip-Bug, RC-Crash & Burn-In warning-flags, n_censored_weights, wei_nsig_threshold & wei_limit]
    11     11.281     11.273      0.008  [idt_all, wdt_TotTime, wdt_UsrTime & wdt_SysTime (sec)]

## Synthesis Results - Best model ##

 2.96119E+00                             [chi2/Nl_eff]
     1.88820                             [adev (%)]

    99.93867                             [sum-of-x (%)]
 1.89493E-13                             [Flux_tot (units of input spectrum!)]
 1.50925E-09                             [Mini_tot (???)]
 8.21207E-10                             [Mcor_tot (???)]

  -3.85                                  [v0_min  (km/s)]
  60.02                                  [vd_min  (km/s)]
 1.4554                                  [AV_min  (mag)]
 0.0000                                  [YAV_min (mag)]

# j     x_j(%)      Mini_j(%)     Mcor_j(%)     age_j(yr)     Z_j      (L/M)_j    YAV?  Mstars   component_j        a/Fe...       SSP_chi2r SSP_adev(%)   SSP_AV   SSP_x(%)
  1      0.0000     0.0000E+00    0.0000E+00    1.000000E+06  0.00400  1.114E-02    0   1.0000   age020_m42            0.0000     4.3454E+02    17.4201   4.0000    89.3551
  2      4.2255     1.3033E-02    2.3951E-02    3.160000E+06  0.00400  4.073E-02    0   0.9999   age045_m42            0.0000     4.7750E+01     6.0966   3.5875    90.8899
  3      0.0000     0.0000E+00    0.0000E+00    5.010000E+06  0.00400  2.534E-02    0   0.9488   age055_m42            0.0000     1.0389E+02     9.1974   3.9474    85.5475
  4     11.0138     1.0886E-01    1.7731E-01    1.000000E+07  0.00400  1.271E-02    0   0.8862   age070_m42            0.0000     9.3808E+01     9.2881   3.1486    90.0356
  5      2.6257     6.5064E-02    9.7742E-02    2.512000E+07  0.00400  5.070E-03    0   0.8174   age090_m42            0.0000     8.2691E+01     8.7540   3.0309    91.2891
  6      0.0000     0.0000E+00    0.0000E+00    4.000000E+07  0.00400  3.505E-03    0   0.7851   age104_m42            0.0000     5.0893E+01     6.8813   2.7457    93.5111
  7      0.5373     2.9761E-02    3.9419E-02    1.015200E+08  0.00400  2.268E-03    0   0.7207   age116_m42            0.0000     1.0300E+02     6.3855   2.8411    99.8246
  8      0.0000     0.0000E+00    0.0000E+00    2.861200E+08  0.00400  1.079E-03    0   0.6613   age125_m42            0.0000     1.1017E+02     6.8650   2.3702   100.9748
  9     10.6010     2.6232E+00    2.9876E+00    6.405400E+08  0.00400  5.077E-04    0   0.6197   age132_m42            0.0000     1.1808E+02     7.3563   2.0097   104.7854
 10     20.6217     7.3288E+00    8.1138E+00    9.047900E+08  0.00400  3.535E-04    0   0.6024   age135_m42            0.0000     6.9526E+01     5.8402   1.7604   104.4913
 11      0.0000     0.0000E+00    0.0000E+00    1.434000E+09  0.00400  1.910E-04    0   0.5716   age139_m42            0.0000     3.0852E+01     4.2748   1.2323   103.8562
 12     29.6949     3.7998E+01    3.8150E+01    2.500000E+09  0.00400  9.818E-05    0   0.5463   age150_m42            0.0000     2.3689E+01     3.9547   0.9414   100.0017
 13     15.4857     4.1235E+01    3.9620E+01    5.000000E+09  0.00400  4.718E-05    0   0.5228   age161_m42            0.0000     3.9438E+01     4.5714   0.7608    97.2793
 14      0.0000     0.0000E+00    0.0000E+00    1.100000E+10  0.00400  2.205E-05    0   0.4980   age185_m42            0.0000     8.7346E+01     6.3452   0.5056    95.2957
 15      0.0000     0.0000E+00    0.0000E+00    1.300000E+10  0.00400  1.883E-05    0   0.4927   age193_m42            0.0000     9.4839E+01     6.6023   0.4886    95.1642
 16      0.0000     0.0000E+00    0.0000E+00    1.000000E+06  0.02000  1.989E-02    0   1.0000   age020_m62            0.0000     4.0356E+02    16.6396   4.0000    89.2878
 17      0.0000     0.0000E+00    0.0000E+00    3.160000E+06  0.02000  3.772E-02    0   0.9858   age045_m62            0.0000     2.8015E+02    14.3484   4.0000    88.6168
 18      0.0000     0.0000E+00    0.0000E+00    5.010000E+06  0.02000  3.227E-02    0   0.9342   age055_m62            0.0000     7.1776E+01     7.8726   3.8145    88.2935
 19      0.0000     0.0000E+00    0.0000E+00    1.000000E+07  0.02000  1.011E-02    0   0.8751   age070_m62            0.0000     2.5364E+02    14.2426   3.1361    87.0132
 20      0.0000     0.0000E+00    0.0000E+00    2.512000E+07  0.02000  4.206E-03    0   0.8099   age090_m62            0.0000     1.7823E+02    12.1670   3.0959    87.2036
 21      0.0000     0.0000E+00    0.0000E+00    4.000000E+07  0.02000  3.373E-03    0   0.7799   age104_m62            0.0000     5.0251E+01     6.3850   2.9704    94.4322
 22      0.0000     0.0000E+00    0.0000E+00    1.015200E+08  0.02000  1.878E-03    0   0.7221   age116_m62            0.0000     8.5123E+01     5.7285   2.8552   100.4780
 23      0.0000     0.0000E+00    0.0000E+00    2.861200E+08  0.02000  8.869E-04    0   0.6700   age125_m62            0.0000     1.9238E+02     9.1104   2.4058   105.1823
 24      0.0000     0.0000E+00    0.0000E+00    6.405400E+08  0.02000  3.657E-04    0   0.6322   age132_m62            0.0000     1.3012E+02     8.0151   1.7426   108.0490
 25      0.0000     0.0000E+00    0.0000E+00    9.047900E+08  0.02000  2.312E-04    0   0.6152   age135_m62            0.0000     7.5710E+01     6.5547   1.3539   107.8203
 26      0.0000     0.0000E+00    0.0000E+00    1.434000E+09  0.02000  1.168E-04    0   0.5865   age139_m62            0.0000     3.9306E+01     5.0370   0.9118   103.3449
 27      1.3336     3.0434E+00    3.1378E+00    2.500000E+09  0.02000  5.505E-05    0   0.5610   age150_m62            0.0000     7.5307E+01     6.3134   0.5361   101.0284
 28      0.0000     0.0000E+00    0.0000E+00    5.000000E+09  0.02000  2.596E-05    0   0.5353   age161_m62            0.0000     1.6181E+02     8.4866   0.2107   101.2577
 29      0.0000     0.0000E+00    0.0000E+00    1.100000E+10  0.02000  1.169E-05    0   0.5103   age185_m62            0.0000     2.6401E+02    10.5171  -0.1364   102.4778
 30      0.0000     0.0000E+00    0.0000E+00    1.300000E+10  0.02000  9.691E-06    0   0.5047   age193_m62            0.0000     2.8310E+02    10.8528  -0.1803   102.6952
 31      0.0000     0.0000E+00    0.0000E+00    1.000000E+06  0.05000  2.651E-02    0   0.9998   age020_m72            0.0000     3.9780E+02    16.3999   4.0000    90.2610
 32      0.0000     0.0000E+00    0.0000E+00    3.160000E+06  0.05000  4.817E-02    0   0.9577   age045_m72            0.0000     1.6554E+02    11.4204   4.0000    88.6055
 33      1.5222     6.1671E-03    1.0367E-02    5.010000E+06  0.05000  3.101E-02    0   0.9147   age055_m72            0.0000     1.2253E+02     9.8739   3.8109    86.9219
 34      0.0000     0.0000E+00    0.0000E+00    1.000000E+07  0.05000  8.954E-03    0   0.8524   age070_m72            0.0000     1.3454E+02    10.0957   4.0000    86.5704
 35      0.0000     0.0000E+00    0.0000E+00    2.512000E+07  0.05000  4.207E-03    0   0.7902   age090_m72            0.0000     6.5656E+01     7.1538   3.6565    90.0168
 36      0.0000     0.0000E+00    0.0000E+00    4.000000E+07  0.05000  3.198E-03    0   0.7618   age104_m72            0.0000     5.3773E+01     4.8604   3.2143    96.6697
 37      0.0000     0.0000E+00    0.0000E+00    1.015200E+08  0.05000  1.716E-03    0   0.7092   age116_m72            0.0000     1.0819E+02     6.5003   2.9594   100.1976
 38      0.0000     0.0000E+00    0.0000E+00    2.861200E+08  0.05000  7.047E-04    0   0.6618   age125_m72            0.0000     1.8771E+02     9.1972   2.2172   105.4000
 39      0.0000     0.0000E+00    0.0000E+00    6.405400E+08  0.05000  2.633E-04    0   0.6253   age132_m72            0.0000     1.0359E+02     7.5032   1.3717   107.7904
 40      0.0000     0.0000E+00    0.0000E+00    9.047900E+08  0.05000  1.484E-04    0   0.6088   age135_m72            0.0000     6.6937E+01     6.4385   0.8697   103.8176
 41      1.6794     2.6956E+00    2.8967E+00    1.434000E+09  0.05000  7.827E-05    0   0.5847   age139_m72            0.0000     1.1003E+02     7.4908   0.4712   101.0702
 42      0.0000     0.0000E+00    0.0000E+00    2.500000E+09  0.05000  3.759E-05    0   0.5583   age150_m72            0.0000     1.7884E+02     8.9270   0.1444   100.7410
 43      0.5980     4.8534E+00    4.7453E+00    5.000000E+09  0.05000  1.548E-05    0   0.5320   age161_m72            0.0000     2.7820E+02    10.6298  -0.2548   100.4831
 44      0.0000     0.0000E+00    0.0000E+00    1.100000E+10  0.05000  6.532E-06    0   0.5070   age185_m72            0.0000     3.9937E+02    12.7241  -0.6065   100.0336
 45      0.0000     0.0000E+00    0.0000E+00    1.300000E+10  0.05000  5.316E-06    0   0.5018   age193_m72            0.0000     4.4965E+02    13.5836  -0.7109    99.8790


## Synthesis Results - Average & Chains ##

# j      x_j: min, <> & last-chain-values for 1 ...  7 chains
  1      0.0000      0.0309      0.0000      0.0000      0.0000      0.1716      0.0000      0.0000      0.0000
  2      4.2255      3.7988      3.9082      3.9130      3.7764      3.9430      3.9295      3.9364      3.7164
  3      0.0000      0.1810      0.1127      0.4691      0.1423      0.0796      0.3495      0.1980      0.0000
  4     11.0138     10.2295     10.2387     10.2119     10.1869     10.3886     10.4431     10.6537     10.1166
  5      2.6257      2.6426      2.8474      2.7416      2.7497      2.6457      2.5823      2.6710      2.4283
  6      0.0000      0.0354      0.0000      0.0000      0.0000      0.0000      0.0000      0.0000      0.0000
  7      0.5373      3.1497      3.1084      2.9943      3.0849      2.5694      2.9575      3.1303      3.2340
  8      0.0000      0.0390      0.0000      0.0863      0.0248      0.0244      0.0000      0.0000      0.0588
  9     10.6010      9.9171      9.8583     10.1534     10.0611      9.8541     10.0528     10.0798      9.9317
 10     20.6217     17.5043     18.3230     17.6504     17.7018     18.3434     17.8142     17.7477     18.1796
 11      0.0000      0.3041      0.0000      1.0131      0.4368      0.4580      0.0448      0.0000      0.0000
 12     29.6949     30.9750     30.7525     30.3484     30.4962     31.0935     31.4106     30.8892     30.8356
 13     15.4857     17.2902     16.8823     17.1115     16.6671     17.3727     17.1585     16.5975     17.0074
 14      0.0000      0.0354      0.0000      0.0378      0.0000      0.0000      0.0050      0.0650      0.0423
 15      0.0000      0.0157      0.0000      0.0000      0.0000      0.0000      0.0000      0.0128      0.0000
 16      0.0000      0.0303      0.0000      0.0000      0.0000      0.0000      0.0184      0.0000      0.1991
 17      0.0000      0.0505      0.0000      0.0000      0.1668      0.0000      0.0000      0.0321      0.0000
 18      0.0000      0.2605      0.2823      0.1924      0.2751      0.4019      0.2336      0.3818      0.5946
 19      0.0000      0.0849      0.0412      0.0986      0.2610      0.0000      0.0356      0.0000      0.1168
 20      0.0000      0.0370      0.0000      0.0000      0.0000      0.0000      0.0669      0.0000      0.0000
 21      0.0000      0.0414      0.0000      0.0006      0.0000      0.0158      0.0000      0.0000      0.0000
 22      0.0000      0.0453      0.0000      0.0000      0.0000      0.0000      0.0000      0.0000      0.0000
 23      0.0000      0.0161      0.0000      0.0000      0.0000      0.0000      0.0000      0.0000      0.0000
 24      0.0000      0.0288      0.0000      0.0000      0.0000      0.0000      0.0000      0.0000      0.0000
 25      0.0000      0.0404      0.0000      0.0000      0.0342      0.0000      0.0266      0.0000      0.0000
 26      0.0000      0.1476      0.0812      0.0000      0.7153      0.0000      0.0282      0.4294      0.4493
 27      1.3336      0.6244      0.4426      0.5701      0.7099      0.3159      0.4999      0.6091      0.7651
 28      0.0000      0.2158      0.3443      0.4717      0.3101      0.2090      0.3446      0.3756      0.1388
 29      0.0000      0.1703      0.1483      0.2646      0.1539      0.1566      0.1737      0.2027      0.2719
 30      0.0000      0.0276      0.0120      0.0867      0.0000      0.0490      0.0000      0.0010      0.0059
 31      0.0000      0.0711      0.0955      0.0000      0.0000      0.0000      0.0000      0.0000      0.0000
 32      0.0000      0.2099      0.2543      0.2274      0.3498      0.1431      0.3979      0.1521      0.3069
 33      1.5222      0.3629      0.5869      0.3817      0.3625      0.3486      0.2913      0.3467      0.4331
 34      0.0000      0.0790      0.0000      0.1321      0.0000      0.2237      0.0000      0.0000      0.1643
 35      0.0000      0.0473      0.0924      0.0000      0.0000      0.0533      0.0000      0.0107      0.0000
 36      0.0000      0.0457      0.0000      0.0000      0.0450      0.0000      0.0000      0.0081      0.0000
 37      0.0000      0.0244      0.0243      0.0000      0.0000      0.0000      0.0000      0.0554      0.0000
 38      0.0000      0.0204      0.0000      0.0000      0.0000      0.0000      0.0000      0.0000      0.0000
 39      0.0000      0.0298      0.0000      0.0000      0.0000      0.0000      0.0000      0.0000      0.0000
 40      0.0000      0.0491      0.0000      0.0000      0.0000      0.0000      0.0084      0.0000      0.0000
 41      1.6794      0.3802      0.5718      0.5015      0.4591      0.4702      0.4919      0.7320      0.2784
 42      0.0000      0.2467      0.3995      0.0000      0.5845      0.2110      0.1846      0.2656      0.2238
 43      0.5980      0.2743      0.4052      0.2095      0.2159      0.2851      0.3066      0.3448      0.3185
 44      0.0000      0.0721      0.0961      0.0687      0.0000      0.0721      0.0040      0.0195      0.0726
 45      0.0000      0.0109      0.0000      0.0000      0.0000      0.0000      0.0000      0.0000      0.0000

# j      m_j: min, <> & last-chain-values for 1 ...  7 chains
  1  0.0000E+00  6.1158E-04  0.0000E+00  0.0000E+00  0.0000E+00  3.4130E-03  0.0000E+00  0.0000E+00  0.0000E+00
  2  2.3951E-02  2.0549E-02  2.1111E-02  2.1111E-02  2.0881E-02  2.1449E-02  2.1566E-02  2.1463E-02  2.0118E-02
  3  0.0000E+00  1.4937E-03  9.2826E-04  3.8602E-03  1.2000E-03  6.6051E-04  2.9253E-03  1.6466E-03  0.0000E+00
  4  1.7731E-01  1.5716E-01  1.5708E-01  1.5648E-01  1.5997E-01  1.6051E-01  1.6278E-01  1.6498E-01  1.5554E-01
  5  9.7742E-02  9.3879E-02  1.0101E-01  9.7137E-02  9.9847E-02  9.4519E-02  9.3072E-02  9.5642E-02  8.6331E-02
  6  0.0000E+00  1.7476E-03  0.0000E+00  0.0000E+00  0.0000E+00  0.0000E+00  0.0000E+00  0.0000E+00  0.0000E+00
  7  3.9419E-02  2.2054E-01  2.1734E-01  2.0911E-01  2.2079E-01  1.8092E-01  2.1010E-01  2.2093E-01  2.2661E-01
  8  0.0000E+00  5.2605E-03  0.0000E+00  1.1619E-02  3.4195E-03  3.3182E-03  0.0000E+00  0.0000E+00  7.9460E-03
  9  2.9876E+00  2.6673E+00  2.6477E+00  2.7236E+00  2.7659E+00  2.6653E+00  2.7432E+00  2.7326E+00  2.6732E+00
 10  8.1138E+00  6.5728E+00  6.8704E+00  6.6101E+00  6.7941E+00  6.9266E+00  6.7866E+00  6.7172E+00  6.8314E+00
 11  0.0000E+00  2.0050E-01  0.0000E+00  6.6631E-01  2.9443E-01  3.0371E-01  2.9997E-02  0.0000E+00  0.0000E+00
 12  3.8150E+01  3.7978E+01  3.7651E+01  3.7111E+01  3.8218E+01  3.8338E+01  3.9073E+01  3.8174E+01  3.7835E+01
 13  3.9620E+01  4.2217E+01  4.1162E+01  4.1670E+01  4.1597E+01  4.2657E+01  4.2506E+01  4.0848E+01  4.1557E+01
 14  0.0000E+00  1.7614E-01  0.0000E+00  1.8783E-01  0.0000E+00  0.0000E+00  2.5354E-02  3.2614E-01  2.1081E-01
 15  0.0000E+00  9.0687E-02  0.0000E+00  0.0000E+00  0.0000E+00  0.0000E+00  0.0000E+00  7.4379E-02  0.0000E+00
 16  0.0000E+00  3.3575E-04  0.0000E+00  0.0000E+00  0.0000E+00  0.0000E+00  2.0720E-04  0.0000E+00  2.2078E-03
 17  0.0000E+00  2.9094E-04  0.0000E+00  0.0000E+00  9.8166E-04  0.0000E+00  0.0000E+00  1.8633E-04  0.0000E+00
 18  0.0000E+00  1.6617E-03  1.7979E-03  1.2238E-03  1.7935E-03  2.5784E-03  1.5117E-03  2.4549E-03  3.7954E-03
 19  0.0000E+00  1.6187E-03  7.8411E-04  1.8762E-03  5.0890E-03  0.0000E+00  6.8840E-04  0.0000E+00  2.2288E-03
 20  0.0000E+00  1.5719E-03  0.0000E+00  0.0000E+00  0.0000E+00  0.0000E+00  2.8817E-03  0.0000E+00  0.0000E+00
 21  0.0000E+00  2.1101E-03  0.0000E+00  3.2429E-05  0.0000E+00  8.1078E-04  0.0000E+00  0.0000E+00  0.0000E+00
 22  0.0000E+00  3.8399E-03  0.0000E+00  0.0000E+00  0.0000E+00  0.0000E+00  0.0000E+00  0.0000E+00  0.0000E+00
 23  0.0000E+00  2.6866E-03  0.0000E+00  0.0000E+00  0.0000E+00  0.0000E+00  0.0000E+00  0.0000E+00  0.0000E+00
 24  0.0000E+00  1.0969E-02  0.0000E+00  0.0000E+00  0.0000E+00  0.0000E+00  0.0000E+00  0.0000E+00  0.0000E+00
 25  0.0000E+00  2.3690E-02  0.0000E+00  0.0000E+00  2.0486E-02  0.0000E+00  1.5801E-02  0.0000E+00  0.0000E+00
 26  0.0000E+00  1.6327E-01  8.9744E-02  0.0000E+00  8.0898E-01  0.0000E+00  3.1641E-02  4.7892E-01  4.9754E-01
 27  3.1378E+00  1.4020E+00  9.9247E-01  1.2767E+00  1.6293E+00  7.1333E-01  1.1389E+00  1.3785E+00  1.7193E+00
 28  0.0000E+00  9.8054E-01  1.5620E+00  2.1378E+00  1.4401E+00  9.5511E-01  1.5886E+00  1.7202E+00  6.3131E-01
 29  0.0000E+00  1.6381E+00  1.4243E+00  2.5383E+00  1.5126E+00  1.5143E+00  1.6952E+00  1.9648E+00  2.6174E+00
 30  0.0000E+00  3.1719E-01  1.3783E-01  9.9220E-01  0.0000E+00  5.6496E-01  0.0000E+00  1.1367E-02  6.7282E-02
 31  0.0000E+00  5.9055E-04  7.9276E-04  0.0000E+00  0.0000E+00  0.0000E+00  0.0000E+00  0.0000E+00  0.0000E+00
 32  0.0000E+00  9.1949E-04  1.1126E-03  9.9336E-04  1.5664E-03  6.3033E-04  1.7686E-03  6.7146E-04  1.3453E-03
 33  1.0367E-02  2.3587E-03  3.8092E-03  2.4741E-03  2.4081E-03  2.2786E-03  1.9206E-03  2.2712E-03  2.8171E-03
