###################################################################
## OUTPUT of StarlightChains_v04.for    [Cid@UFSC - 01/Apr/2007] ##
###################################################################

## Some input info
NGC6342_a_2.cxt                          [arq_obs]
Base.BC03.N                              [arq_base]
NGC6342_a_2.msk                          [arq_masks]
StCv04.C11.config                        [arq_config]
   45                                    [N_base]
    0                                    [N_YAV_components = # of components with extra extinction!]
    0                                    [i_FitPowerLaw (1/0 = Yes/No)]
-9.99                                    [alpha_PowerLaw]
CCM                                      [red_law_option]
 1.458241                                [q_norm = A(l_norm)/A(V)]

## (Re)Sampling Parameters
 3359.00                                 [l_ini (A)]
 6428.00                                 [l_fin (A)]
    1.00                                 [dl    (A)]     (OBS: dl_cushion =    50.00 A)

## Normalization info
 4020.00                                 [l_norm (A) - for base]
 4010.00                                 [llow_norm (A) - window for f_obs]
 4060.00                                 [lupp_norm (A) - window for f_obs]
3.704827E-15                             [fobs_norm (in input units)]

## S/N
 4730.00                                 [llow_SN (A) - window for S/N]
 4780.00                                 [lupp_SN (A) - window for S/N]
  43.866                                 [S/N in S/N window]
  28.421                                 [S/N in norm. window]
 215.944                                 [S/N_err in S/N window]
 139.911                                 [S/N_err in norm. window]
  1.0000                                 [fscale_chi2]

## etc...
  2147483614                             [idum_orig]
  3067                                   [NOl_eff]
   677                                   [Nl_eff]
  2390    NSIGMA                         [Ntot_cliped & clip_method]
   871920                                [Nglobal_steps]
   7                                     [N_chains]
   9                                     [NEX0s_base = N_base in EX0s-fits]
 0   0   1      177   2.0   3.168E+02    [Clip-Bug, RC-Crash & Burn-In warning-flags, n_censored_weights, wei_nsig_threshold & wei_limit]
    10     10.179     10.179      0.000  [idt_all, wdt_TotTime, wdt_UsrTime & wdt_SysTime (sec)]

## Synthesis Results - Best model ##

 2.90241E+00                             [chi2/Nl_eff]
     1.69663                             [adev (%)]

    98.37006                             [sum-of-x (%)]
 1.94848E-14                             [Flux_tot (units of input spectrum!)]
 5.71627E-10                             [Mini_tot (???)]
 2.94839E-10                             [Mcor_tot (???)]

 -19.19                                  [v0_min  (km/s)]
  54.40                                  [vd_min  (km/s)]
 1.2482                                  [AV_min  (mag)]
 0.0000                                  [YAV_min (mag)]

# j     x_j(%)      Mini_j(%)     Mcor_j(%)     age_j(yr)     Z_j      (L/M)_j    YAV?  Mstars   component_j        a/Fe...       SSP_chi2r SSP_adev(%)   SSP_AV   SSP_x(%)
  1      0.0000     0.0000E+00    0.0000E+00    1.000000E+06  0.00400  1.114E-02    0   1.0000   age020_m42            0.0000     3.2805E+03    39.2067   4.0000    99.9582
  2      1.7042     1.4499E-03    2.8107E-03    3.160000E+06  0.00400  4.073E-02    0   0.9999   age045_m42            0.0000     2.5823E+02    12.0140   4.0000    94.1068
  3      0.0000     0.0000E+00    0.0000E+00    5.010000E+06  0.00400  2.534E-02    0   0.9488   age055_m42            0.0000     9.0793E+02    22.9463   4.0000    98.0264
  4      5.0973     1.3897E-02    2.3877E-02    1.000000E+07  0.00400  1.271E-02    0   0.8862   age070_m42            0.0000     3.4600E+02    14.3475   3.6890    89.0984
  5      0.0000     0.0000E+00    0.0000E+00    2.512000E+07  0.00400  5.070E-03    0   0.8174   age090_m42            0.0000     3.2255E+02    13.7983   3.5647    90.6020
  6      0.0000     0.0000E+00    0.0000E+00    4.000000E+07  0.00400  3.505E-03    0   0.7851   age104_m42            0.0000     2.4591E+02    11.8141   3.2646    93.4316
  7      0.0000     0.0000E+00    0.0000E+00    1.015200E+08  0.00400  2.268E-03    0   0.7207   age116_m42            0.0000     4.8954E+02    12.4162   3.3326   101.3911
  8      0.0000     0.0000E+00    0.0000E+00    2.861200E+08  0.00400  1.079E-03    0   0.6613   age125_m42            0.0000     5.1475E+02    12.4874   2.8530   102.9214
  9      0.0000     0.0000E+00    0.0000E+00    6.405400E+08  0.00400  5.077E-04    0   0.6197   age132_m42            0.0000     5.2927E+02    12.8328   2.4834   107.1050
 10      0.0000     0.0000E+00    0.0000E+00    9.047900E+08  0.00400  3.535E-04    0   0.6024   age135_m42            0.0000     3.5896E+02    10.4359   2.2373   106.6017
 11      0.0000     0.0000E+00    0.0000E+00    1.434000E+09  0.00400  1.910E-04    0   0.5716   age139_m42            0.0000     1.5551E+02     6.8590   1.7198   105.4137
 12     17.6811     6.2403E+00    6.6094E+00    2.500000E+09  0.00400  9.818E-05    0   0.5463   age150_m42            0.0000     3.2230E+01     3.2519   1.4434   100.7729
 13     54.5467     4.0062E+01    4.0606E+01    5.000000E+09  0.00400  4.718E-05    0   0.5228   age161_m42            0.0000     5.9204E+00     1.9505   1.2703    97.6346
 14      2.9416     4.6227E+00    4.4632E+00    1.100000E+10  0.00400  2.205E-05    0   0.4980   age185_m42            0.0000     2.1796E+01     3.1990   1.0154    95.5676
 15      0.5094     9.3732E-01    8.9536E-01    1.300000E+10  0.00400  1.883E-05    0   0.4927   age193_m42            0.0000     2.6909E+01     3.5189   0.9976    95.4509
 16      0.0000     0.0000E+00    0.0000E+00    1.000000E+06  0.02000  1.989E-02    0   1.0000   age020_m62            0.0000     3.0787E+03    37.9973   4.0000   100.2654
 17      0.0000     0.0000E+00    0.0000E+00    3.160000E+06  0.02000  3.772E-02    0   0.9858   age045_m62            0.0000     2.3574E+03    34.4001   4.0000   100.5817
 18      0.7825     8.4023E-04    1.5218E-03    5.010000E+06  0.02000  3.227E-02    0   0.9342   age055_m62            0.0000     5.7205E+02    18.7911   4.0000    97.7603
 19      0.0000     0.0000E+00    0.0000E+00    1.000000E+07  0.02000  1.011E-02    0   0.8751   age070_m62            0.0000     6.9682E+02    19.5092   3.6784    85.6456
 20      0.0000     0.0000E+00    0.0000E+00    2.512000E+07  0.02000  4.206E-03    0   0.8099   age090_m62            0.0000     5.1582E+02    17.2924   3.6298    86.1847
 21      0.0000     0.0000E+00    0.0000E+00    4.000000E+07  0.02000  3.373E-03    0   0.7799   age104_m62            0.0000     2.8645E+02    11.6057   3.4811    94.6260
 22      0.0000     0.0000E+00    0.0000E+00    1.015200E+08  0.02000  1.878E-03    0   0.7221   age116_m62            0.0000     4.5726E+02    11.6541   3.3436   102.0047
 23      0.0000     0.0000E+00    0.0000E+00    2.861200E+08  0.02000  8.869E-04    0   0.6700   age125_m62            0.0000     7.6744E+02    15.3975   2.8758   107.6759
 24      0.0000     0.0000E+00    0.0000E+00    6.405400E+08  0.02000  3.657E-04    0   0.6322   age132_m62            0.0000     5.0447E+02    12.1616   2.2099   110.6539
 25      0.0000     0.0000E+00    0.0000E+00    9.047900E+08  0.02000  2.312E-04    0   0.6152   age135_m62            0.0000     2.8518E+02     8.9317   1.8307   109.8877
 26      0.0000     0.0000E+00    0.0000E+00    1.434000E+09  0.02000  1.168E-04    0   0.5865   age139_m62            0.0000     7.4537E+01     4.6457   1.4087   104.2517
 27      0.0000     0.0000E+00    0.0000E+00    2.500000E+09  0.02000  5.505E-05    0   0.5610   age150_m62            0.0000     4.4992E+01     4.3455   1.0423   101.3399
 28      0.0000     0.0000E+00    0.0000E+00    5.000000E+09  0.02000  2.596E-05    0   0.5353   age161_m62            0.0000     1.0371E+02     6.6028   0.7280   101.0541
 29      9.6434     2.8585E+01    2.8281E+01    1.100000E+10  0.02000  1.169E-05    0   0.5103   age185_m62            0.0000     2.1182E+02     9.0611   0.3801   102.2416
 30      5.4639     1.9537E+01    1.9117E+01    1.300000E+10  0.02000  9.691E-06    0   0.5047   age193_m62            0.0000     2.3370E+02     9.4403   0.3358   102.4705
 31      0.0000     0.0000E+00    0.0000E+00    1.000000E+06  0.05000  2.651E-02    0   0.9998   age020_m72            0.0000     3.0613E+03    37.6679   4.0000   101.4114
 32      0.0000     0.0000E+00    0.0000E+00    3.160000E+06  0.05000  4.817E-02    0   0.9577   age045_m72            0.0000     1.6616E+03    29.4276   4.0000   101.7686
 33      0.0000     0.0000E+00    0.0000E+00    5.010000E+06  0.05000  3.101E-02    0   0.9147   age055_m72            0.0000     6.7433E+02    20.5828   4.0000    95.8372
 34      0.0000     0.0000E+00    0.0000E+00    1.000000E+07  0.05000  8.954E-03    0   0.8524   age070_m72            0.0000     1.2622E+03    26.1366   4.0000   100.2623
 35      0.0000     0.0000E+00    0.0000E+00    2.512000E+07  0.05000  4.207E-03    0   0.7902   age090_m72            0.0000     3.6174E+02    14.5084   4.0000    95.1601
 36      0.0000     0.0000E+00    0.0000E+00    4.000000E+07  0.05000  3.198E-03    0   0.7618   age104_m72            0.0000     3.4860E+02    10.2039   3.7118    97.6816
 37      0.0000     0.0000E+00    0.0000E+00    1.015200E+08  0.05000  1.716E-03    0   0.7092   age116_m72            0.0000     5.2917E+02    12.4852   3.4391   102.0106
 38      0.0000     0.0000E+00    0.0000E+00    2.861200E+08  0.05000  7.047E-04    0   0.6618   age125_m72            0.0000     7.1931E+02    14.8389   2.6785   108.1359
 39      0.0000     0.0000E+00    0.0000E+00    6.405400E+08  0.05000  2.633E-04    0   0.6253   age132_m72            0.0000     3.6093E+02    10.2006   1.8403   110.1519
 40      0.0000     0.0000E+00    0.0000E+00    9.047900E+08  0.05000  1.484E-04    0   0.6088   age135_m72            0.0000     1.3283E+02     6.2276   1.3598   105.0129
 41      0.0000     0.0000E+00    0.0000E+00    1.434000E+09  0.05000  7.827E-05    0   0.5847   age139_m72            0.0000     8.9135E+01     5.9137   0.9770   101.4137
 42      0.0000     0.0000E+00    0.0000E+00    2.500000E+09  0.05000  3.759E-05    0   0.5583   age150_m72            0.0000     1.2619E+02     7.1852   0.6588   100.5902
 43      0.0000     0.0000E+00    0.0000E+00    5.000000E+09  0.05000  1.548E-05    0   0.5320   age161_m72            0.0000     2.2724E+02     8.9193   0.2517   100.5208
 44      0.0000     0.0000E+00    0.0000E+00    1.100000E+10  0.05000  6.532E-06    0   0.5070   age185_m72            0.0000     3.9723E+02    11.3073  -0.1034   100.2862
 45      0.0000     0.0000E+00    0.0000E+00    1.300000E+10  0.05000  5.316E-06    0   0.5018   age193_m72            0.0000     4.7701E+02    12.3297  -0.2102   100.2524


## Synthesis Results - Average & Chains ##

# j      x_j: min, <> & last-chain-values for 1 ...  7 chains
  1      0.0000      0.0143      0.0000      0.0000      0.0000      0.0126      0.0000      0.0000      0.0000
  2      1.7042      1.3739      1.4199      1.3340      1.3452      1.3553      1.5918      1.5003      1.4288
  3      0.0000      0.3991      0.3738      0.4086      0.3432      0.5024      0.4624      0.3813      0.4893
  4      5.0973      4.5374      4.7632      4.5892      4.6487      4.6907      4.6382      4.5708      4.4807
  5      0.0000      0.0269      0.0000      0.0591      0.0000      0.0000      0.0000      0.0127      0.0000
  6      0.0000      0.0161      0.0000      0.0000      0.0000      0.0000      0.0000      0.0000      0.0000
  7      0.0000      0.1047      0.0280      0.1411      0.0000      0.3075      0.2754      0.0000      0.0499
  8      0.0000      0.0521      0.2346      0.0369      0.0000      0.1493      0.0000      0.0157      0.0438
  9      0.0000      0.0937      0.2299      0.1312      0.0000      0.0923      0.0780      0.2119      0.0000
 10      0.0000      0.1068      0.2245      0.1831      0.3458      0.4812      0.1912      0.1954      0.1576
 11      0.0000      0.1341      0.0171      0.3418      0.0520      0.1211      0.0236      0.0835      0.3606
 12     17.6811     14.9057     15.2297     14.7151     15.0997     14.7454     14.9279     15.3320     15.7619
 13     54.5467     56.2197     56.2435     56.4228     56.4326     55.7826     56.0110     56.3915     56.2169
 14      2.9416      3.6371      3.1576      4.0268      3.4433      4.0492      4.0533      3.2542      3.4872
 15      0.5094      0.4942      0.3032      0.0000      0.0828      0.5280      0.0000      0.5192      0.2976
 16      0.0000      0.0204      0.0824      0.0000      0.0000      0.0000      0.0028      0.0000      0.0000
 17      0.0000      0.0123      0.0000      0.0000      0.0000      0.0000      0.0000      0.0000      0.0000
 18      0.7825      0.6020      0.5115      0.6885      0.8544      0.3995      0.5211      0.6226      0.6113
 19      0.0000      0.0216      0.0000      0.0000      0.0000      0.1070      0.0000      0.0000      0.0608
 20      0.0000      0.0266      0.0000      0.0000      0.0000      0.0000      0.0000      0.0000      0.0000
 21      0.0000      0.0222      0.0000      0.0000      0.0286      0.0000      0.2040      0.0000      0.0000
 22      0.0000      0.0259      0.0000      0.0000      0.0000      0.0000      0.0000      0.0000      0.0000
 23      0.0000      0.0144      0.0000      0.0000      0.0000      0.0000      0.0000      0.0000      0.0000
 24      0.0000      0.0246      0.0000      0.0000      0.0000      0.0000      0.0000      0.1065      0.0000
 25      0.0000      0.0683      0.0518      0.0000      0.0000      0.0000      0.0000      0.0000      0.0000
 26      0.0000      0.1031      0.0000      0.0000      0.0000      0.0000      0.0000      0.0000      0.0000
 27      0.0000      0.1951      0.0000      0.1992      0.1280      0.0002      0.0271      0.0000      0.0000
 28      0.0000      0.1127      0.0607      0.3319      0.0428      0.1360      0.0000      0.0450      0.0000
 29      9.6434      8.6161      8.9722      8.3488      8.5432      9.0159      8.8515      8.8906      8.7472
 30      5.4639      5.6806      6.0033      5.5713      5.7978      5.7159      5.8684      5.7182      5.6437
 31      0.0000      0.0151      0.0000      0.0065      0.0000      0.0000      0.0000      0.0000      0.0000
 32      0.0000      0.0231      0.1228      0.0000      0.0000      0.0000      0.0017      0.0000      0.0000
 33      0.0000      0.0355      0.0082      0.0888      0.0500      0.0810      0.0000      0.1601      0.0000
 34      0.0000      0.0121      0.0000      0.0000      0.0000      0.0000      0.0000      0.0000      0.0000
 35      0.0000      0.0193      0.0000      0.0371      0.0000      0.0000      0.0000      0.0000      0.0741
 36      0.0000      0.0147      0.0000      0.0000      0.0000      0.0000      0.0000      0.0000      0.0120
 37      0.0000      0.0211      0.0690      0.0000      0.1728      0.0348      0.0000      0.0641      0.0000
 38      0.0000      0.0125      0.0000      0.0000      0.0000      0.0000      0.0000      0.0000      0.0000
 39      0.0000      0.0333      0.0000      0.0111      0.1358      0.0000      0.0000      0.0000      0.0000
 40      0.0000      0.0722      0.0425      0.0411      0.0000      0.0367      0.0379      0.0000      0.0000
 41      0.0000      0.1526      0.0273      0.0000      0.2844      0.0000      0.0871      0.0000      0.0000
 42      0.0000      0.1920      0.2040      0.5508      0.5299      0.0000      0.4832      0.2749      0.4347
 43      0.0000      0.0200      0.0000      0.0740      0.0166      0.0000      0.0000      0.0000      0.0000
 44      0.0000      0.0349      0.0000      0.0000      0.0000      0.0000      0.0000      0.0117      0.0000
 45      0.0000      0.0075      0.0000      0.0000      0.0000      0.0000      0.0000      0.0000      0.0000

# j      m_j: min, <> & last-chain-values for 1 ...  7 chains
  1  0.0000E+00  8.6246E-05  0.0000E+00  0.0000E+00  0.0000E+00  7.5581E-05  0.0000E+00  0.0000E+00  0.0000E+00
  2  2.8107E-03  2.2671E-03  2.3275E-03  2.2212E-03  2.2337E-03  2.2159E-03  2.6112E-03  2.4710E-03  2.3682E-03
  3  0.0000E+00  1.0046E-03  9.3466E-04  1.0377E-03  8.6929E-04  1.2528E-03  1.1570E-03  9.5773E-04  1.2368E-03
  4  2.3877E-02  2.1266E-02  2.2176E-02  2.1703E-02  2.1924E-02  2.1781E-02  2.1609E-02  2.1381E-02  2.1092E-02
  5  0.0000E+00  2.9143E-04  0.0000E+00  6.4658E-04  0.0000E+00  0.0000E+00  0.0000E+00  1.3736E-04  0.0000E+00
  6  0.0000E+00  2.4183E-04  0.0000E+00  0.0000E+00  0.0000E+00  0.0000E+00  0.0000E+00  0.0000E+00  0.0000E+00
  7  0.0000E+00  2.2365E-03  5.9479E-04  3.0419E-03  0.0000E+00  6.5082E-03  5.8474E-03  0.0000E+00  1.0705E-03
  8  0.0000E+00  2.1464E-03  9.6019E-03  1.5356E-03  0.0000E+00  6.0935E-03  0.0000E+00  6.4416E-04  1.8135E-03
  9  0.0000E+00  7.6848E-03  1.8741E-02  1.0863E-02  0.0000E+00  7.4999E-03  6.3645E-03  1.7353E-02  0.0000E+00
 10  0.0000E+00  1.2231E-02  2.5547E-02  2.1168E-02  3.9861E-02  5.4610E-02  2.1772E-02  2.2343E-02  1.8127E-02
 11  0.0000E+00  2.6977E-02  3.4197E-03  6.9384E-02  1.0526E-02  2.4129E-02  4.7267E-03  1.6761E-02  7.2855E-02
 12  6.6094E+00  5.5751E+00  5.6585E+00  5.5533E+00  5.6829E+00  5.4642E+00  5.5503E+00  5.7235E+00  5.9211E+00
 13  4.0606E+01  4.1875E+01  4.1615E+01  4.2405E+01  4.2296E+01  4.1166E+01  4.1472E+01  4.1923E+01  4.2056E+01
 14  4.4632E+00  5.5216E+00  4.7618E+00  6.1683E+00  5.2600E+00  6.0905E+00  6.1170E+00  4.9309E+00  5.3173E+00
 15  8.9536E-01  8.6925E-01  5.2982E-01  0.0000E+00  1.4656E-01  9.2004E-01  0.0000E+00  9.1152E-01  5.2564E-01
 16  0.0000E+00  6.9094E-05  2.7673E-04  0.0000E+00  0.0000E+00  0.0000E+00  9.2392E-06  0.0000E+00  0.0000E+00
 17  0.0000E+00  2.1696E-05  0.0000E+00  0.0000E+00  0.0000E+00  0.0000E+00  0.0000E+00  0.0000E+00  0.0000E+00
 18  1.5218E-03  1.1715E-03  9.8871E-04  1.3518E-03  1.6731E-03  7.7014E-04  1.0080E-03  1.2092E-03  1.1948E-03
 19  0.0000E+00  1.2557E-04  0.0000E+00  0.0000E+00  0.0000E+00  6.1707E-04  0.0000E+00  0.0000E+00  3.5514E-04
 20  0.0000E+00  3.4399E-04  0.0000E+00  0.0000E+00  0.0000E+00  0.0000E+00  0.0000E+00  0.0000E+00  0.0000E+00
 21  0.0000E+00  3.4576E-04  0.0000E+00  0.0000E+00  4.4685E-04  0.0000E+00  3.1516E-03  0.0000E+00  0.0000E+00
 22  0.0000E+00  6.6846E-04  0.0000E+00  0.0000E+00  0.0000E+00  0.0000E+00  0.0000E+00  0.0000E+00  0.0000E+00
 23  0.0000E+00  7.3012E-04  0.0000E+00  0.0000E+00  0.0000E+00  0.0000E+00  0.0000E+00  0.0000E+00  0.0000E+00
 24  0.0000E+00  2.8575E-03  0.0000E+00  0.0000E+00  0.0000E+00  0.0000E+00  0.0000E+00  1.2351E-02  0.0000E+00
 25  0.0000E+00  1.2221E-02  9.2067E-03  0.0000E+00  0.0000E+00  0.0000E+00  0.0000E+00  0.0000E+00  0.0000E+00
 26  0.0000E+00  3.4795E-02  0.0000E+00  0.0000E+00  0.0000E+00  0.0000E+00  0.0000E+00  0.0000E+00  0.0000E+00
 27  0.0000E+00  1.3363E-01  0.0000E+00  1.3767E-01  8.8260E-02  1.4146E-04  1.8455E-02  0.0000E+00  0.0000E+00
 28  0.0000E+00  1.5619E-01  8.3519E-02  4.6413E-01  5.9642E-02  1.8681E-01  0.0000E+00  6.2254E-02  0.0000E+00
 29  2.8281E+01  2.5282E+01  2.6152E+01  2.4718E+01  2.5225E+01  2.6211E+01  2.5819E+01  2.6037E+01  2.5779E+01
 30  1.9117E+01  1.9886E+01  2.0876E+01  1.9679E+01  2.0423E+01  1.9825E+01  2.0422E+01  1.9979E+01  1.9843E+01
 31  0.0000E+00  3.8264E-05  0.0000E+00  1.6504E-05  0.0000E+00  0.0000E+00  0.0000E+00  0.0000E+00  0.0000E+00
 32  0.0000E+00  3.0817E-05  1.6307E-04  0.0000E+00  0.0000E+00  0.0000E+00  2.2302E-06  0.0000E+00  0.0000E+00
 33  0.0000E+00  7.0464E-05  1.6055E-05  1.7775E-04  9.9781E-05  1.5913E-04  0.0000E+00  3.1691E-04  0.0000E+00
