###################################################################
## OUTPUT of StarlightChains_v04.for    [Cid@UFSC - 01/Apr/2007] ##
###################################################################

## Some input info
NGC7078_a_2.cxt                          [arq_obs]
Base.BC03.N                              [arq_base]
NGC7078_a_2.msk                          [arq_masks]
StCv04.C11.config                        [arq_config]
   45                                    [N_base]
    0                                    [N_YAV_components = # of components with extra extinction!]
    0                                    [i_FitPowerLaw (1/0 = Yes/No)]
-9.99                                    [alpha_PowerLaw]
CCM                                      [red_law_option]
 1.458241                                [q_norm = A(l_norm)/A(V)]

## (Re)Sampling Parameters
 3359.00                                 [l_ini (A)]
 6428.00                                 [l_fin (A)]
    1.00                                 [dl    (A)]     (OBS: dl_cushion =    50.00 A)

## Normalization info
 4020.00                                 [l_norm (A) - for base]
 4010.00                                 [llow_norm (A) - window for f_obs]
 4060.00                                 [lupp_norm (A) - window for f_obs]
1.263103E-13                             [fobs_norm (in input units)]

## S/N
 4730.00                                 [llow_SN (A) - window for S/N]
 4780.00                                 [lupp_SN (A) - window for S/N]
 205.831                                 [S/N in S/N window]
 202.695                                 [S/N in norm. window]
 485.220                                 [S/N_err in S/N window]
 477.827                                 [S/N_err in norm. window]
  1.0000                                 [fscale_chi2]

## etc...
  2147483587                             [idum_orig]
  3067                                   [NOl_eff]
   681                                   [Nl_eff]
  2386    NSIGMA                         [Ntot_cliped & clip_method]
  2108680                                [Nglobal_steps]
   7                                     [N_chains]
   7                                     [NEX0s_base = N_base in EX0s-fits]
 0   1   1      254   2.0   1.005E+03    [Clip-Bug, RC-Crash & Burn-In warning-flags, n_censored_weights, wei_nsig_threshold & wei_limit]
    21     21.106     21.106      0.000  [idt_all, wdt_TotTime, wdt_UsrTime & wdt_SysTime (sec)]

## Synthesis Results - Best model ##

 2.58195E+00                             [chi2/Nl_eff]
     0.35126                             [adev (%)]

   104.53817                             [sum-of-x (%)]
 6.21395E-13                             [Flux_tot (units of input spectrum!)]
 1.23832E-09                             [Mini_tot (???)]
 7.17674E-10                             [Mcor_tot (???)]

 -55.04                                  [v0_min  (km/s)]
 138.15                                  [vd_min  (km/s)]
 1.1532                                  [AV_min  (mag)]
 0.0000                                  [YAV_min (mag)]

# j     x_j(%)      Mini_j(%)     Mcor_j(%)     age_j(yr)     Z_j      (L/M)_j    YAV?  Mstars   component_j        a/Fe...       SSP_chi2r SSP_adev(%)   SSP_AV   SSP_x(%)
  1      0.0000     0.0000E+00    0.0000E+00    1.000000E+06  0.00400  1.114E-02    0   1.0000   age020_m42            0.0000     3.9821E+03     9.7467   3.3984    78.4875
  2     28.4810     3.3566E-01    5.7911E-01    3.160000E+06  0.00400  4.073E-02    0   0.9999   age045_m42            0.0000     5.3042E+02     3.5351   2.3857    95.1376
  3      0.0000     0.0000E+00    0.0000E+00    5.010000E+06  0.00400  2.534E-02    0   0.9488   age055_m42            0.0000     1.8380E+03     6.6514   2.8137    87.4378
  4      9.3299     3.5236E-01    5.3880E-01    1.000000E+07  0.00400  1.271E-02    0   0.8862   age070_m42            0.0000     1.4777E+03     6.4117   2.0089    91.3701
  5      0.0000     0.0000E+00    0.0000E+00    2.512000E+07  0.00400  5.070E-03    0   0.8174   age090_m42            0.0000     1.2763E+03     5.8691   1.8810    92.8705
  6      0.0000     0.0000E+00    0.0000E+00    4.000000E+07  0.00400  3.505E-03    0   0.7851   age104_m42            0.0000     6.4223E+02     3.9369   1.5589    96.2931
  7     27.7524     5.8738E+00    7.3043E+00    1.015200E+08  0.00400  2.268E-03    0   0.7207   age116_m42            0.0000     1.2061E+03     4.8111   1.5284   108.6590
  8      0.0000     0.0000E+00    0.0000E+00    2.861200E+08  0.00400  1.079E-03    0   0.6613   age125_m42            0.0000     1.4722E+03     5.6044   1.0391   110.8168
  9      0.0000     0.0000E+00    0.0000E+00    6.405400E+08  0.00400  5.077E-04    0   0.6197   age132_m42            0.0000     1.7366E+03     6.0169   0.6634   115.6580
 10     25.8869     3.5152E+01    3.6538E+01    9.047900E+08  0.00400  3.535E-04    0   0.6024   age135_m42            0.0000     1.0166E+03     5.0039   0.4321   114.2656
 11      4.5772     1.1503E+01    1.1346E+01    1.434000E+09  0.00400  1.910E-04    0   0.5716   age139_m42            0.0000     8.4369E+02     5.1240  -0.0741   111.5521
 12      7.5321     3.6826E+01    3.4713E+01    2.500000E+09  0.00400  9.818E-05    0   0.5463   age150_m42            0.0000     1.1291E+03     4.6693  -0.3236   105.3230
 13      0.9786     9.9569E+00    8.9818E+00    5.000000E+09  0.00400  4.718E-05    0   0.5228   age161_m42            0.0000     1.5955E+03     4.8018  -0.4755   101.0052
 14      0.0000     0.0000E+00    0.0000E+00    1.100000E+10  0.00400  2.205E-05    0   0.4980   age185_m42            0.0000     2.6009E+03     6.1180  -0.7209    98.0242
 15      0.0000     0.0000E+00    0.0000E+00    1.300000E+10  0.00400  1.883E-05    0   0.4927   age193_m42            0.0000     2.7574E+03     6.2567  -0.7360    97.7271
 16      0.0000     0.0000E+00    0.0000E+00    1.000000E+06  0.02000  1.989E-02    0   1.0000   age020_m62            0.0000     4.0871E+03     9.7986   3.3600    79.2083
 17      0.0000     0.0000E+00    0.0000E+00    3.160000E+06  0.02000  3.772E-02    0   0.9858   age045_m62            0.0000     3.5585E+03     9.1660   3.2107    81.6058
 18      0.0000     0.0000E+00    0.0000E+00    5.010000E+06  0.02000  3.227E-02    0   0.9342   age055_m62            0.0000     1.0203E+03     4.8707   2.6644    90.9078
 19      0.0000     0.0000E+00    0.0000E+00    1.000000E+07  0.02000  1.011E-02    0   0.8751   age070_m62            0.0000     4.1352E+03    10.6969   2.0473    85.9953
 20      0.0000     0.0000E+00    0.0000E+00    2.512000E+07  0.02000  4.206E-03    0   0.8099   age090_m62            0.0000     2.9378E+03     8.7062   1.9815    87.3831
 21      0.0000     0.0000E+00    0.0000E+00    4.000000E+07  0.02000  3.373E-03    0   0.7799   age104_m62            0.0000     3.9976E+02     3.2778   1.7709    98.0496
 22      0.0000     0.0000E+00    0.0000E+00    1.015200E+08  0.02000  1.878E-03    0   0.7221   age116_m62            0.0000     7.3854E+02     3.4415   1.5589   108.4214
 23      0.0000     0.0000E+00    0.0000E+00    2.861200E+08  0.02000  8.869E-04    0   0.6700   age125_m62            0.0000     2.9987E+03     7.6279   1.0281   116.8535
 24      0.0000     0.0000E+00    0.0000E+00    6.405400E+08  0.02000  3.657E-04    0   0.6322   age132_m62            0.0000     2.2558E+03     7.8100   0.3511   120.2152
 25      0.0000     0.0000E+00    0.0000E+00    9.047900E+08  0.02000  2.312E-04    0   0.6152   age135_m62            0.0000     1.5814E+03     7.0399  -0.0093   118.2913
 26      0.0000     0.0000E+00    0.0000E+00    1.434000E+09  0.02000  1.168E-04    0   0.5865   age139_m62            0.0000     1.3470E+03     5.5711  -0.3913   110.1462
 27      0.0000     0.0000E+00    0.0000E+00    2.500000E+09  0.02000  5.505E-05    0   0.5610   age150_m62            0.0000     2.2404E+03     6.4444  -0.7434   105.9671
 28      0.0000     0.0000E+00    0.0000E+00    5.000000E+09  0.02000  2.596E-05    0   0.5353   age161_m62            0.0000     3.7782E+03     7.8765  -1.0000   103.4716
 29      0.0000     0.0000E+00    0.0000E+00    1.100000E+10  0.02000  1.169E-05    0   0.5103   age185_m62            0.0000     6.9491E+03    10.8939  -1.0000    93.8419
 30      0.0000     0.0000E+00    0.0000E+00    1.300000E+10  0.02000  9.691E-06    0   0.5047   age193_m62            0.0000     7.5822E+03    11.4898  -1.0000    92.5917
 31      0.0000     0.0000E+00    0.0000E+00    1.000000E+06  0.05000  2.651E-02    0   0.9998   age020_m72            0.0000     3.8096E+03     9.2732   3.3673    80.1468
 32      0.0000     0.0000E+00    0.0000E+00    3.160000E+06  0.05000  4.817E-02    0   0.9577   age045_m72            0.0000     2.3606E+03     7.1654   3.0652    85.4828
 33      0.0000     0.0000E+00    0.0000E+00    5.010000E+06  0.05000  3.101E-02    0   0.9147   age055_m72            0.0000     2.1408E+03     7.1203   2.6963    88.2477
 34      0.0000     0.0000E+00    0.0000E+00    1.000000E+07  0.05000  8.954E-03    0   0.8524   age070_m72            0.0000     2.4088E+03     7.1923   2.9549    86.4149
 35      0.0000     0.0000E+00    0.0000E+00    2.512000E+07  0.05000  4.207E-03    0   0.7902   age090_m72            0.0000     9.2252E+02     4.3983   2.5004    92.9094
 36      0.0000     0.0000E+00    0.0000E+00    4.000000E+07  0.05000  3.198E-03    0   0.7618   age104_m72            0.0000     2.2870E+02     2.1844   1.9527   103.0182
 37      0.0000     0.0000E+00    0.0000E+00    1.015200E+08  0.05000  1.716E-03    0   0.7092   age116_m72            0.0000     1.0941E+03     4.3334   1.6444   108.8676
 38      0.0000     0.0000E+00    0.0000E+00    2.861200E+08  0.05000  7.047E-04    0   0.6618   age125_m72            0.0000     3.0983E+03     8.2019   0.8195   117.3909
 39      0.0000     0.0000E+00    0.0000E+00    6.405400E+08  0.05000  2.633E-04    0   0.6253   age132_m72            0.0000     2.1351E+03     7.9932  -0.0231   119.0953
 40      0.0000     0.0000E+00    0.0000E+00    9.047900E+08  0.05000  1.484E-04    0   0.6088   age135_m72            0.0000     1.8428E+03     7.0025  -0.4695   111.7410
 41      0.0000     0.0000E+00    0.0000E+00    1.434000E+09  0.05000  7.827E-05    0   0.5847   age139_m72            0.0000     2.8397E+03     7.7284  -0.8293   106.5490
 42      0.0000     0.0000E+00    0.0000E+00    2.500000E+09  0.05000  3.759E-05    0   0.5583   age150_m72            0.0000     4.2100E+03     8.2729  -1.0000   100.9046
 43      0.0000     0.0000E+00    0.0000E+00    5.000000E+09  0.05000  1.548E-05    0   0.5320   age161_m72            0.0000     8.2315E+03    12.5705  -1.0000    88.0793
 44      0.0000     0.0000E+00    0.0000E+00    1.100000E+10  0.05000  6.532E-06    0   0.5070   age185_m72            0.0000     1.4240E+04    16.7129  -1.0000    76.8377
 45      0.0000     0.0000E+00    0.0000E+00    1.300000E+10  0.05000  5.316E-06    0   0.5018   age193_m72            0.0000     1.6496E+04    17.8891  -1.0000    73.5841


## Synthesis Results - Average & Chains ##

# j      x_j: min, <> & last-chain-values for 1 ...  7 chains
  1      0.0000      0.0041      0.0000      0.0031      0.0000      0.0031      0.0000      0.0000      0.0000
  2     28.4810     27.3422     27.4196     27.2737     27.4819     27.4368     27.4032     27.6258     28.1737
  3      0.0000      0.0330      0.0000      0.0076      0.0000      0.0000      0.0000      0.0026      0.0185
  4      9.3299      8.9337      8.9613      9.0340      8.9592      8.8089      9.0596      8.8184      8.8124
  5      0.0000      0.2218      0.4138      0.2700      0.2937      0.3058      0.2544      0.2663      0.1558
  6      0.0000      0.4131      0.4215      0.1387      0.2800      0.2886      0.1819      0.5507      0.3695
  7     27.7524     26.9768     27.1038     27.1599     27.0565     27.1006     26.9718     26.9655     26.9550
  8      0.0000      0.1636      0.0575      0.2807      0.1648      0.0373      0.2429      0.1175      0.0747
  9      0.0000      0.0559      0.0573      0.0144      0.0000      0.0000      0.0000      0.0303      0.0000
 10     25.8869     26.0635     26.0151     26.0323     25.9919     26.1095     26.1260     25.7924     26.1838
 11      4.5772      4.6054      4.6350      4.5554      4.5542      4.7526      4.5598      4.6475      4.6828
 12      7.5321      7.4532      7.4086      7.4779      7.4569      7.5106      7.4453      7.5451      7.1391
 13      0.9786      0.9546      0.9916      0.9110      0.9830      0.9571      0.9454      1.0244      0.9507
 14      0.0000      0.0188      0.0059      0.0219      0.0155      0.0000      0.0779      0.0000      0.0000
 15      0.0000      0.0116      0.0000      0.0266      0.0000      0.0052      0.0000      0.0056      0.0000
 16      0.0000      0.0196      0.0000      0.0000      0.0000      0.0000      0.0000      0.0000      0.0034
 17      0.0000      0.0106      0.0000      0.0000      0.0000      0.0000      0.0000      0.0000      0.0000
 18      0.0000      0.0358      0.0614      0.0228      0.0000      0.0000      0.0000      0.0046      0.0000
 19      0.0000      0.0911      0.0000      0.2714      0.1521      0.0755      0.0000      0.0406      0.0251
 20      0.0000      0.1606      0.1417      0.2193      0.1127      0.2391      0.3927      0.2155      0.2042
 21      0.0000      0.1758      0.2436      0.0504      0.1344      0.1904      0.1778      0.1267      0.0942
 22      0.0000      0.0648      0.0073      0.0119      0.0000      0.0451      0.0500      0.0631      0.0259
 23      0.0000      0.0642      0.0641      0.0000      0.0283      0.0000      0.0651      0.1075      0.0000
 24      0.0000      0.0357      0.0318      0.0000      0.0000      0.0102      0.0234      0.0000      0.2011
 25      0.0000      0.0198      0.0000      0.0000      0.0395      0.0000      0.0000      0.0000      0.0000
 26      0.0000      0.0157      0.0000      0.0439      0.0000      0.0000      0.0000      0.0106      0.0000
 27      0.0000      0.0034      0.0067      0.0000      0.0000      0.0000      0.0000      0.0025      0.0000
 28      0.0000      0.0034      0.0000      0.0000      0.0000      0.0000      0.0000      0.0000      0.0000
 29      0.0000      0.0067      0.0000      0.0000      0.0000      0.0000      0.0000      0.0000      0.0133
 30      0.0000      0.0030      0.0000      0.0000      0.0018      0.0000      0.0000      0.0000      0.0000
 31      0.0000      0.0202      0.0091      0.0000      0.0099      0.0000      0.0000      0.0000      0.0000
 32      0.0000      0.0219      0.0491      0.0440      0.0000      0.0000      0.0000      0.0351      0.0482
 33      0.0000      0.0284      0.0000      0.0000      0.0903      0.0901      0.0269      0.0000      0.0000
 34      0.0000      0.0152      0.0000      0.0723      0.0438      0.0000      0.0000      0.0000      0.0000
 35      0.0000      0.0627      0.0317      0.0713      0.0385      0.1615      0.1454      0.0000      0.0406
 36      0.0000      0.0633      0.0000      0.1095      0.0351      0.1122      0.0000      0.1378      0.0037
 37      0.0000      0.1606      0.1520      0.1147      0.2966      0.1046      0.1701      0.2509      0.1991
 38      0.0000      0.1666      0.2299      0.2590      0.2321      0.2027      0.2026      0.1757      0.1569
 39      0.0000      0.0402      0.0000      0.0230      0.0172      0.0000      0.0000      0.0000      0.0000
 40      0.0000      0.0106      0.0023      0.0000      0.0597      0.0000      0.0180      0.0031      0.0000
 41      0.0000      0.0118      0.0000      0.0154      0.0000      0.0000      0.0000      0.0000      0.0327
 42      0.0000      0.0052      0.0261      0.0000      0.0000      0.0000      0.0000      0.0000      0.0000
 43      0.0000      0.0019      0.0000      0.0180      0.0000      0.0000      0.0000      0.0000      0.0000
 44      0.0000      0.0078      0.0000      0.0000      0.0560      0.0000      0.0255      0.0000      0.0000
 45      0.0000      0.0105      0.0380      0.0112      0.0000      0.0319      0.0163      0.0143      0.0152

# j      m_j: min, <> & last-chain-values for 1 ...  7 chains
  1  0.0000E+00  2.9828E-04  0.0000E+00  2.2706E-04  0.0000E+00  2.1980E-04  0.0000E+00  0.0000E+00  0.0000E+00
  2  5.7911E-01  5.4021E-01  5.3743E-01  5.4183E-01  5.3525E-01  5.4004E-01  5.3373E-01  5.4959E-01  5.6769E-01
  3  0.0000E+00  9.9464E-04  0.0000E+00  2.2979E-04  0.0000E+00  0.0000E+00  0.0000E+00  7.9413E-05  5.6774E-04
  4  5.3880E-01  5.0131E-01  4.9886E-01  5.0974E-01  4.9559E-01  4.9245E-01  5.0115E-01  4.9827E-01  5.0432E-01
  5  0.0000E+00  2.8779E-02  5.3259E-02  3.5227E-02  3.7566E-02  3.9531E-02  3.2538E-02  3.4794E-02  2.0622E-02
  6  0.0000E+00  7.4463E-02  7.5384E-02  2.5135E-02  4.9763E-02  5.1838E-02  3.2321E-02  9.9954E-02  6.7931E-02
  7  7.3043E+00  6.8990E+00  6.8764E+00  6.9842E+00  6.8210E+00  6.9046E+00  6.7998E+00  6.9439E+00  7.0304E+00
  8  0.0000E+00  8.0675E-02  2.8113E-02  1.3921E-01  8.0125E-02  1.8342E-02  1.1812E-01  5.8364E-02  3.7561E-02
  9  0.0000E+00  5.4944E-02  5.5882E-02  1.4208E-02  0.0000E+00  0.0000E+00  0.0000E+00  3.0014E-02  0.0000E+00
 10  3.6538E+01  3.5745E+01  3.5395E+01  3.5900E+01  3.5140E+01  3.5673E+01  3.5322E+01  3.5618E+01  3.6623E+01
 11  1.1346E+01  1.1092E+01  1.1075E+01  1.1032E+01  1.0813E+01  1.1403E+01  1.0826E+01  1.1271E+01  1.1503E+01
 12  3.4713E+01  3.3376E+01  3.2913E+01  3.3672E+01  3.2918E+01  3.3507E+01  3.2868E+01  3.4022E+01  3.2605E+01
 13  8.9818E+00  8.5130E+00  8.7726E+00  8.1689E+00  8.6417E+00  8.5032E+00  8.3111E+00  9.1990E+00  8.6465E+00
 14  0.0000E+00  3.4157E-01  1.0688E-01  3.9979E-01  2.7736E-01  0.0000E+00  1.3959E+00  0.0000E+00  0.0000E+00
 15  0.0000E+00  2.4420E-01  0.0000E+00  5.6386E-01  0.0000E+00  1.0896E-01  0.0000E+00  1.1957E-01  0.0000E+00
 16  0.0000E+00  7.9381E-04  0.0000E+00  0.0000E+00  0.0000E+00  0.0000E+00  0.0000E+00  0.0000E+00  1.4094E-04
 17  0.0000E+00  2.2215E-04  0.0000E+00  0.0000E+00  0.0000E+00  0.0000E+00  0.0000E+00  0.0000E+00  0.0000E+00
 18  0.0000E+00  8.3448E-04  1.4189E-03  5.3398E-04  0.0000E+00  0.0000E+00  0.0000E+00  1.0843E-04  0.0000E+00
 19  0.0000E+00  6.3464E-03  0.0000E+00  1.9008E-02  1.0445E-02  5.2369E-03  0.0000E+00  2.8480E-03  1.7859E-03
 20  0.0000E+00  2.4889E-02  2.1792E-02  3.4177E-02  1.7220E-02  3.6907E-02  5.9986E-02  3.3627E-02  3.2274E-02
 21  0.0000E+00  3.2707E-02  4.4969E-02  9.4395E-03  2.4653E-02  3.5303E-02  3.2623E-02  2.3736E-02  1.7876E-02
 22  0.0000E+00  2.0058E-02  2.2430E-03  3.6972E-03  0.0000E+00  1.3899E-02  1.5254E-02  1.9661E-02  8.1815E-03
 23  0.0000E+00  3.9007E-02  3.8675E-02  0.0000E+00  1.6983E-02  0.0000E+00  3.9011E-02  6.5816E-02  0.0000E+00
 24  0.0000E+00  4.9630E-02  4.3822E-02  0.0000E+00  0.0000E+00  1.4173E-02  3.2056E-02  0.0000E+00  2.8528E-01
 25  0.0000E+00  4.2331E-02  0.0000E+00  0.0000E+00  8.3297E-02  0.0000E+00  0.0000E+00  0.0000E+00  0.0000E+00
 26  0.0000E+00  6.3246E-02  0.0000E+00  1.7852E-01  0.0000E+00  0.0000E+00  0.0000E+00  4.3231E-02  0.0000E+00
 27  0.0000E+00  2.8085E-02  5.4369E-02  0.0000E+00  0.0000E+00  0.0000E+00  0.0000E+00  2.0432E-02  0.0000E+00
 28  0.0000E+00  5.6397E-02  0.0000E+00  0.0000E+00  0.0000E+00  0.0000E+00  0.0000E+00  0.0000E+00  0.0000E+00
 29  0.0000E+00  2.3404E-01  0.0000E+00  0.0000E+00  0.0000E+00  0.0000E+00  0.0000E+00  0.0000E+00  4.7482E-01
 30  0.0000E+00  1.2454E-01  0.0000E+00  0.0000E+00  7.2863E-02  0.0000E+00  0.0000E+00  0.0000E+00  0.0000E+00
 31  0.0000E+00  6.1188E-04  2.7533E-04  0.0000E+00  2.9544E-04  0.0000E+00  0.0000E+00  0.0000E+00  0.0000E+00
 32  0.0000E+00  3.5075E-04  7.8000E-04  7.0849E-04  0.0000E+00  0.0000E+00  0.0000E+00  5.6491E-04  7.8620E-04
 33  0.0000E+00  6.7375E-04  0.0000E+00  0.0000E+00  2.1137E-03  2.1298E-03  6.3037E-04  0.0000E+00  0.0000E+00
