###################################################################
## OUTPUT of StarlightChains_v04.for    [Cid@UFSC - 01/Apr/2007] ##
###################################################################

## Some input info
NGC7089_a_1.cxt                          [arq_obs]
Base.BC03.N                              [arq_base]
NGC7089_a_1.msk                          [arq_masks]
StCv04.C11.config                        [arq_config]
   45                                    [N_base]
    0                                    [N_YAV_components = # of components with extra extinction!]
    0                                    [i_FitPowerLaw (1/0 = Yes/No)]
-9.99                                    [alpha_PowerLaw]
CCM                                      [red_law_option]
 1.458241                                [q_norm = A(l_norm)/A(V)]

## (Re)Sampling Parameters
 3359.00                                 [l_ini (A)]
 6428.00                                 [l_fin (A)]
    1.00                                 [dl    (A)]     (OBS: dl_cushion =    50.00 A)

## Normalization info
 4020.00                                 [l_norm (A) - for base]
 4010.00                                 [llow_norm (A) - window for f_obs]
 4060.00                                 [lupp_norm (A) - window for f_obs]
7.608305E-14                             [fobs_norm (in input units)]

## S/N
 4730.00                                 [llow_SN (A) - window for S/N]
 4780.00                                 [lupp_SN (A) - window for S/N]
 117.458                                 [S/N in S/N window]
 112.425                                 [S/N in norm. window]
 300.443                                 [S/N_err in S/N window]
 287.568                                 [S/N_err in norm. window]
  1.0000                                 [fscale_chi2]

## etc...
  2147483586                             [idum_orig]
  3067                                   [NOl_eff]
   623                                   [Nl_eff]
  2444    NSIGMA                         [Ntot_cliped & clip_method]
   716520                                [Nglobal_steps]
   7                                     [N_chains]
   7                                     [NEX0s_base = N_base in EX0s-fits]
 0   0   1      249   2.0   6.084E+02    [Clip-Bug, RC-Crash & Burn-In warning-flags, n_censored_weights, wei_nsig_threshold & wei_limit]
    10     10.531     10.531      0.000  [idt_all, wdt_TotTime, wdt_UsrTime & wdt_SysTime (sec)]

## Synthesis Results - Best model ##

 2.94858E+00                             [chi2/Nl_eff]
     0.67361                             [adev (%)]

   103.70339                             [sum-of-x (%)]
 1.27654E-13                             [Flux_tot (units of input spectrum!)]
 6.96159E-10                             [Mini_tot (???)]
 3.87798E-10                             [Mcor_tot (???)]

 -12.39                                  [v0_min  (km/s)]
  97.78                                  [vd_min  (km/s)]
 0.3582                                  [AV_min  (mag)]
 0.0000                                  [YAV_min (mag)]

# j     x_j(%)      Mini_j(%)     Mcor_j(%)     age_j(yr)     Z_j      (L/M)_j    YAV?  Mstars   component_j        a/Fe...       SSP_chi2r SSP_adev(%)   SSP_AV   SSP_x(%)
  1      0.0000     0.0000E+00    0.0000E+00    1.000000E+06  0.00400  1.114E-02    0   1.0000   age020_m42            0.0000     2.1367E+03    14.4099   3.5573    77.0655
  2     14.5488     6.3160E-02    1.1337E-01    3.160000E+06  0.00400  4.073E-02    0   0.9999   age045_m42            0.0000     4.0676E+02     6.7398   2.5086    92.2217
  3      0.0000     0.0000E+00    0.0000E+00    5.010000E+06  0.00400  2.534E-02    0   0.9488   age055_m42            0.0000     1.0692E+03    10.5720   2.9594    85.1644
  4      3.3478     4.6574E-02    7.4093E-02    1.000000E+07  0.00400  1.271E-02    0   0.8862   age070_m42            0.0000     9.1171E+02    10.2483   2.1641    88.7166
  5      0.0000     0.0000E+00    0.0000E+00    2.512000E+07  0.00400  5.070E-03    0   0.8174   age090_m42            0.0000     7.7923E+02     9.4986   2.0235    90.3792
  6      0.0000     0.0000E+00    0.0000E+00    4.000000E+07  0.00400  3.505E-03    0   0.7851   age104_m42            0.0000     4.3814E+02     7.1222   1.6814    93.6592
  7     14.7294     1.1483E+00    1.4857E+00    1.015200E+08  0.00400  2.268E-03    0   0.7207   age116_m42            0.0000     7.8054E+02     5.7912   1.5493   105.9660
  8      0.0000     0.0000E+00    0.0000E+00    2.861200E+08  0.00400  1.079E-03    0   0.6613   age125_m42            0.0000     8.8307E+02     6.8812   1.0358   108.6406
  9      0.0000     0.0000E+00    0.0000E+00    6.405400E+08  0.00400  5.077E-04    0   0.6197   age132_m42            0.0000     9.9750E+02     7.2986   0.6628   113.1307
 10      9.0459     4.5247E+00    4.8931E+00    9.047900E+08  0.00400  3.535E-04    0   0.6024   age135_m42            0.0000     5.3130E+02     5.5845   0.4372   111.7924
 11     18.6964     1.7308E+01    1.7760E+01    1.434000E+09  0.00400  1.910E-04    0   0.5716   age139_m42            0.0000     1.9675E+02     4.4092  -0.0995   109.9671
 12     41.4696     7.4686E+01    7.3244E+01    2.500000E+09  0.00400  9.818E-05    0   0.5463   age150_m42            0.0000     1.9297E+02     3.9773  -0.3521   104.3327
 13      0.0000     0.0000E+00    0.0000E+00    5.000000E+09  0.00400  4.718E-05    0   0.5228   age161_m42            0.0000     3.9447E+02     4.7280  -0.5011   100.3684
 14      0.0000     0.0000E+00    0.0000E+00    1.100000E+10  0.00400  2.205E-05    0   0.4980   age185_m42            0.0000     8.2770E+02     6.7219  -0.7775    98.1163
 15      0.0000     0.0000E+00    0.0000E+00    1.300000E+10  0.00400  1.883E-05    0   0.4927   age193_m42            0.0000     9.0194E+02     6.9746  -0.7941    97.9147
 16      0.0000     0.0000E+00    0.0000E+00    1.000000E+06  0.02000  1.989E-02    0   1.0000   age020_m62            0.0000     2.1700E+03    14.3674   3.5181    77.7631
 17      0.0000     0.0000E+00    0.0000E+00    3.160000E+06  0.02000  3.772E-02    0   0.9858   age045_m62            0.0000     1.9233E+03    13.6510   3.3687    79.9300
 18      0.0000     0.0000E+00    0.0000E+00    5.010000E+06  0.02000  3.227E-02    0   0.9342   age055_m62            0.0000     6.8447E+02     8.6205   2.7937    88.3963
 19      0.0000     0.0000E+00    0.0000E+00    1.000000E+07  0.02000  1.011E-02    0   0.8751   age070_m62            0.0000     2.2012E+03    15.4816   2.2203    84.1338
 20      0.0000     0.0000E+00    0.0000E+00    2.512000E+07  0.02000  4.206E-03    0   0.8099   age090_m62            0.0000     1.6163E+03    13.0125   2.1354    85.4033
 21      0.0000     0.0000E+00    0.0000E+00    4.000000E+07  0.02000  3.373E-03    0   0.7799   age104_m62            0.0000     3.7247E+02     6.6678   1.8773    95.4891
 22      0.0000     0.0000E+00    0.0000E+00    1.015200E+08  0.02000  1.878E-03    0   0.7221   age116_m62            0.0000     6.0590E+02     5.1116   1.5950   105.7923
 23      0.0000     0.0000E+00    0.0000E+00    2.861200E+08  0.02000  8.869E-04    0   0.6700   age125_m62            0.0000     1.7640E+03     9.6993   0.9911   114.9432
 24      0.0000     0.0000E+00    0.0000E+00    6.405400E+08  0.02000  3.657E-04    0   0.6322   age132_m62            0.0000     1.0636E+03     8.8479   0.2744   118.8484
 25      0.0000     0.0000E+00    0.0000E+00    9.047900E+08  0.02000  2.312E-04    0   0.6152   age135_m62            0.0000     5.3304E+02     7.0048  -0.0797   116.8887
 26      0.0000     0.0000E+00    0.0000E+00    1.434000E+09  0.02000  1.168E-04    0   0.5865   age139_m62            0.0000     2.6534E+02     4.9396  -0.4532   109.3802
 27      0.0000     0.0000E+00    0.0000E+00    2.500000E+09  0.02000  5.505E-05    0   0.5610   age150_m62            0.0000     6.1602E+02     6.5790  -0.8309   106.0156
 28      0.0000     0.0000E+00    0.0000E+00    5.000000E+09  0.02000  2.596E-05    0   0.5353   age161_m62            0.0000     1.5071E+03     9.1767  -1.0000   102.7544
 29      0.0000     0.0000E+00    0.0000E+00    1.100000E+10  0.02000  1.169E-05    0   0.5103   age185_m62            0.0000     3.4086E+03    14.9342  -1.0000    96.2635
 30      0.0000     0.0000E+00    0.0000E+00    1.300000E+10  0.02000  9.691E-06    0   0.5047   age193_m62            0.0000     3.7788E+03    15.8128  -1.0000    95.3760
 31      0.0000     0.0000E+00    0.0000E+00    1.000000E+06  0.05000  2.651E-02    0   0.9998   age020_m72            0.0000     2.0173E+03    13.6803   3.5204    78.6225
 32      0.0000     0.0000E+00    0.0000E+00    3.160000E+06  0.05000  4.817E-02    0   0.9577   age045_m72            0.0000     1.3267E+03    11.3232   3.2077    83.4556
 33      0.0000     0.0000E+00    0.0000E+00    5.010000E+06  0.05000  3.101E-02    0   0.9147   age055_m72            0.0000     1.2203E+03    11.1417   2.8389    86.0157
 34      0.0000     0.0000E+00    0.0000E+00    1.000000E+07  0.05000  8.954E-03    0   0.8524   age070_m72            0.0000     1.2997E+03    11.1170   3.0806    84.5852
 35      0.0000     0.0000E+00    0.0000E+00    2.512000E+07  0.05000  4.207E-03    0   0.7902   age090_m72            0.0000     5.6921E+02     7.6438   2.5986    90.8641
 36      0.0000     0.0000E+00    0.0000E+00    4.000000E+07  0.05000  3.198E-03    0   0.7618   age104_m72            0.0000     2.8677E+02     3.8442   1.9919   100.7685
 37      0.0000     0.0000E+00    0.0000E+00    1.015200E+08  0.05000  1.716E-03    0   0.7092   age116_m72            0.0000     7.9773E+02     5.8967   1.6630   106.3989
 38      0.0000     0.0000E+00    0.0000E+00    2.861200E+08  0.05000  7.047E-04    0   0.6618   age125_m72            0.0000     1.6967E+03     9.9463   0.7568   115.7608
 39      0.0000     0.0000E+00    0.0000E+00    6.405400E+08  0.05000  2.633E-04    0   0.6253   age132_m72            0.0000     7.9581E+02     8.2615  -0.1153   117.9994
 40      1.8655     2.2228E+00    2.4293E+00    9.047900E+08  0.05000  1.484E-04    0   0.6088   age135_m72            0.0000     4.4340E+02     6.7431  -0.5704   111.5115
 41      0.0000     0.0000E+00    0.0000E+00    1.434000E+09  0.05000  7.827E-05    0   0.5847   age139_m72            0.0000     8.3721E+02     8.1364  -0.9605   107.2906
 42      0.0000     0.0000E+00    0.0000E+00    2.500000E+09  0.05000  3.759E-05    0   0.5583   age150_m72            0.0000     1.7471E+03    10.1361  -1.0000   100.9405
 43      0.0000     0.0000E+00    0.0000E+00    5.000000E+09  0.05000  1.548E-05    0   0.5320   age161_m72            0.0000     3.9635E+03    16.5848  -1.0000    91.5734
 44      0.0000     0.0000E+00    0.0000E+00    1.100000E+10  0.05000  6.532E-06    0   0.5070   age185_m72            0.0000     7.1880E+03    22.8346  -1.0000    82.1783
 45      0.0000     0.0000E+00    0.0000E+00    1.300000E+10  0.05000  5.316E-06    0   0.5018   age193_m72            0.0000     8.4257E+03    24.6512  -1.0000    79.2780


## Synthesis Results - Average & Chains ##

# j      x_j: min, <> & last-chain-values for 1 ...  7 chains
  1      0.0000      0.0020      0.0000      0.0000      0.0000      0.0000      0.0000      0.0000      0.0000
  2     14.5488     13.8025     14.1113     13.8871     13.9433     13.8578     13.9892     13.7872     13.8825
  3      0.0000      0.0154      0.0000      0.0000      0.0000      0.0000      0.0000      0.0000      0.0000
  4      3.3478      4.2406      3.9847      4.2613      4.2120      4.1270      4.1639      4.3541      4.2575
  5      0.0000      0.0246      0.0000      0.0000      0.0000      0.1218      0.0000      0.0000      0.0000
  6      0.0000      0.0226      0.0000      0.0000      0.0000      0.0052      0.0031      0.0000      0.0000
  7     14.7294     13.4265     13.4844     13.4412     13.9951     13.5190     13.6499     13.5715     13.7605
  8      0.0000      0.0478      0.0000      0.1696      0.0000      0.0000      0.0000      0.0638      0.0153
  9      0.0000      0.0592      0.2851      0.0000      0.0000      0.3410      0.0000      0.1766      0.0928
 10      9.0459     10.4671     10.3324     10.6779     10.0890     10.0234     10.5992     10.2959     10.4154
 11     18.6964     19.1424     18.8701     19.0896     19.0266     19.1337     18.6526     19.1425     18.7675
 12     41.4696     39.1894     39.8432     39.6054     39.4817     39.4941     39.6748     39.2092     39.3869
 13      0.0000      0.3037      0.1926      0.2513      0.4382      0.8671      0.1481      0.5045      0.3856
 14      0.0000      0.0270      0.0000      0.0913      0.0081      0.0000      0.0000      0.0426      0.0311
 15      0.0000      0.0226      0.1725      0.0000      0.0000      0.0000      0.1372      0.0000      0.0000
 16      0.0000      0.0020      0.0000      0.0000      0.0000      0.0000      0.0000      0.0000      0.0000
 17      0.0000      0.0022      0.0000      0.0000      0.0000      0.0000      0.0011      0.0000      0.0000
 18      0.0000      0.0189      0.0000      0.0000      0.0000      0.0000      0.0000      0.0000      0.0000
 19      0.0000      0.0065      0.0547      0.0000      0.0000      0.0042      0.0188      0.0000      0.0000
 20      0.0000      0.0059      0.0000      0.0000      0.0000      0.0000      0.0000      0.0000      0.0000
 21      0.0000      0.0194      0.0000      0.0000      0.0000      0.0000      0.0000      0.0000      0.0000
 22      0.0000      0.0409      0.0000      0.0000      0.0000      0.0000      0.0000      0.0000      0.0596
 23      0.0000      0.0158      0.0839      0.0000      0.0000      0.0000      0.0000      0.0000      0.0000
 24      0.0000      0.0263      0.0000      0.0000      0.0324      0.0159      0.0477      0.0000      0.0000
 25      0.0000      0.0515      0.0000      0.0000      0.0735      0.0000      0.0677      0.0000      0.0000
 26      0.0000      0.0485      0.0000      0.0222      0.0911      0.0000      0.0063      0.0000      0.0000
 27      0.0000      0.0386      0.0000      0.0000      0.0000      0.0000      0.0000      0.0000      0.0000
 28      0.0000      0.0118      0.0000      0.0000      0.0472      0.0000      0.0000      0.0000      0.0000
 29      0.0000      0.0076      0.0000      0.0000      0.0000      0.0000      0.0000      0.0000      0.0166
 30      0.0000      0.0057      0.0000      0.0000      0.0000      0.0000      0.0000      0.0000      0.0423
 31      0.0000      0.0013      0.0000      0.0000      0.0000      0.0000      0.0000      0.0000      0.0000
 32      0.0000      0.0109      0.0000      0.0000      0.0000      0.0039      0.0000      0.0000      0.0000
 33      0.0000      0.0119      0.0000      0.0000      0.0000      0.0105      0.0000      0.0000      0.0000
 34      0.0000      0.0025      0.0000      0.0000      0.0000      0.0000      0.0000      0.0163      0.0000
 35      0.0000      0.0092      0.0000      0.0000      0.0000      0.0000      0.0000      0.0000      0.0000
 36      0.0000      0.0158      0.0000      0.0000      0.0000      0.0000      0.0000      0.0000      0.0000
 37      0.0000      0.0213      0.0000      0.0000      0.0000      0.0000      0.0000      0.0000      0.0000
 38      0.0000      0.0189      0.0000      0.0000      0.0000      0.0000      0.0000      0.0000      0.0000
 39      0.0000      0.0715      0.0000      0.0000      0.0000      0.0777      0.0000      0.0000      0.0000
 40      1.8655      2.4283      2.2515      2.0879      2.2385      2.0949      2.5457      2.5632      2.6119
 41      0.0000      0.0286      0.0357      0.1544      0.0000      0.0000      0.0412      0.0000      0.0000
 42      0.0000      0.0309      0.0375      0.0000      0.0000      0.0061      0.0000      0.0000      0.0245
 43      0.0000      0.0081      0.0000      0.0000      0.0000      0.0098      0.0000      0.0070      0.0000
 44      0.0000      0.0030      0.0000      0.0000      0.0468      0.0000      0.0000      0.0000      0.0000
 45      0.0000      0.0022      0.0000      0.0000      0.0000      0.0000      0.0000      0.0000      0.0000

# j      m_j: min, <> & last-chain-values for 1 ...  7 chains
  1  0.0000E+00  5.6040E-05  0.0000E+00  0.0000E+00  0.0000E+00  0.0000E+00  0.0000E+00  0.0000E+00  0.0000E+00
  2  1.1337E-01  1.0721E-01  1.0900E-01  1.0809E-01  1.0749E-01  1.0688E-01  1.0872E-01  1.0727E-01  1.0744E-01
  3  0.0000E+00  1.8253E-04  0.0000E+00  0.0000E+00  0.0000E+00  0.0000E+00  0.0000E+00  0.0000E+00  0.0000E+00
  4  7.4093E-02  9.3554E-02  8.7419E-02  9.4206E-02  9.2226E-02  9.0404E-02  9.1905E-02  9.6218E-02  9.3584E-02
  5  0.0000E+00  1.2556E-03  0.0000E+00  0.0000E+00  0.0000E+00  6.1711E-03  0.0000E+00  0.0000E+00  0.0000E+00
  6  0.0000E+00  1.6016E-03  0.0000E+00  0.0000E+00  0.0000E+00  3.6756E-04  2.2014E-04  0.0000E+00  0.0000E+00
  7  1.4857E+00  1.3500E+00  1.3483E+00  1.3543E+00  1.3966E+00  1.3496E+00  1.3731E+00  1.3668E+00  1.3785E+00
  8  0.0000E+00  9.2653E-03  0.0000E+00  3.2951E-02  0.0000E+00  0.0000E+00  0.0000E+00  1.2386E-02  2.9553E-03
  9  0.0000E+00  2.2862E-02  1.0948E-01  0.0000E+00  0.0000E+00  1.3077E-01  0.0000E+00  6.8330E-02  3.5708E-02
 10  4.8931E+00  5.6438E+00  5.5402E+00  5.7694E+00  5.3991E+00  5.3663E+00  5.7177E+00  5.5607E+00  5.5954E+00
 11  1.7760E+01  1.8126E+01  1.7769E+01  1.8114E+01  1.7881E+01  1.7990E+01  1.7671E+01  1.8156E+01  1.7706E+01
 12  7.3244E+01  6.8996E+01  6.9758E+01  6.9874E+01  6.8989E+01  6.9041E+01  6.9885E+01  6.9146E+01  6.9090E+01
 13  0.0000E+00  1.0649E+00  6.7164E-01  8.8300E-01  1.5249E+00  3.0186E+00  5.1954E-01  1.7716E+00  1.3469E+00
 14  0.0000E+00  1.9321E-01  0.0000E+00  6.5382E-01  5.7234E-02  0.0000E+00  0.0000E+00  3.0488E-01  2.2157E-01
 15  0.0000E+00  1.8671E-01  1.4206E+00  0.0000E+00  0.0000E+00  0.0000E+00  1.1364E+00  0.0000E+00  0.0000E+00
 16  0.0000E+00  3.1814E-05  0.0000E+00  0.0000E+00  0.0000E+00  0.0000E+00  0.0000E+00  0.0000E+00  0.0000E+00
 17  0.0000E+00  1.8398E-05  0.0000E+00  0.0000E+00  0.0000E+00  0.0000E+00  9.2682E-06  0.0000E+00  0.0000E+00
 18  0.0000E+00  1.7337E-04  0.0000E+00  0.0000E+00  0.0000E+00  0.0000E+00  0.0000E+00  0.0000E+00  0.0000E+00
 19  0.0000E+00  1.7826E-04  1.4891E-03  0.0000E+00  0.0000E+00  1.1438E-04  5.1449E-04  0.0000E+00  0.0000E+00
 20  0.0000E+00  3.5887E-04  0.0000E+00  0.0000E+00  0.0000E+00  0.0000E+00  0.0000E+00  0.0000E+00  0.0000E+00
 21  0.0000E+00  1.4191E-03  0.0000E+00  0.0000E+00  0.0000E+00  0.0000E+00  0.0000E+00  0.0000E+00  0.0000E+00
 22  0.0000E+00  4.9719E-03  0.0000E+00  0.0000E+00  0.0000E+00  0.0000E+00  0.0000E+00  0.0000E+00  7.2209E-03
 23  0.0000E+00  3.7823E-03  1.9948E-02  0.0000E+00  0.0000E+00  0.0000E+00  0.0000E+00  0.0000E+00  0.0000E+00
 24  0.0000E+00  1.4411E-02  0.0000E+00  0.0000E+00  1.7583E-02  8.6289E-03  2.6091E-02  0.0000E+00  0.0000E+00
 25  0.0000E+00  4.3330E-02  0.0000E+00  0.0000E+00  6.1404E-02  0.0000E+00  5.6988E-02  0.0000E+00  0.0000E+00
 26  0.0000E+00  7.7012E-02  0.0000E+00  3.5406E-02  1.4366E-01  0.0000E+00  9.9873E-03  0.0000E+00  0.0000E+00
 27  0.0000E+00  1.2454E-01  0.0000E+00  0.0000E+00  0.0000E+00  0.0000E+00  0.0000E+00  0.0000E+00  0.0000E+00
 28  0.0000E+00  7.7198E-02  0.0000E+00  0.0000E+00  3.0588E-01  0.0000E+00  0.0000E+00  0.0000E+00  0.0000E+00
 29  0.0000E+00  1.0474E-01  0.0000E+00  0.0000E+00  0.0000E+00  0.0000E+00  0.0000E+00  0.0000E+00  2.2798E-01
 30  0.0000E+00  9.3571E-02  0.0000E+00  0.0000E+00  0.0000E+00  0.0000E+00  0.0000E+00  0.0000E+00  6.9393E-01
 31  0.0000E+00  1.5159E-05  0.0000E+00  0.0000E+00  0.0000E+00  0.0000E+00  0.0000E+00  0.0000E+00  0.0000E+00
 32  0.0000E+00  6.8726E-05  0.0000E+00  0.0000E+00  0.0000E+00  2.4508E-05  0.0000E+00  0.0000E+00  0.0000E+00
 33  0.0000E+00  1.1067E-04  0.0000E+00  0.0000E+00  0.0000E+00  9.7322E-05  0.0000E+00  0.0000E+00  0.0000E+00
