###################################################################
## OUTPUT of StarlightChains_v04.for    [Cid@UFSC - 01/Apr/2007] ##
###################################################################

## Some input info
NGC7078_a_1.cxt                          [arq_obs]
Base.BC03.N                              [arq_base]
NGC7078_a_1.msk                          [arq_masks]
StCv04.C11.config                        [arq_config]
   45                                    [N_base]
    0                                    [N_YAV_components = # of components with extra extinction!]
    0                                    [i_FitPowerLaw (1/0 = Yes/No)]
-9.99                                    [alpha_PowerLaw]
CCM                                      [red_law_option]
 1.458241                                [q_norm = A(l_norm)/A(V)]

## (Re)Sampling Parameters
 3359.00                                 [l_ini (A)]
 6428.00                                 [l_fin (A)]
    1.00                                 [dl    (A)]     (OBS: dl_cushion =    50.00 A)

## Normalization info
 4020.00                                 [l_norm (A) - for base]
 4010.00                                 [llow_norm (A) - window for f_obs]
 4060.00                                 [lupp_norm (A) - window for f_obs]
6.411706E-14                             [fobs_norm (in input units)]

## S/N
 4730.00                                 [llow_SN (A) - window for S/N]
 4780.00                                 [lupp_SN (A) - window for S/N]
 192.615                                 [S/N in S/N window]
 195.031                                 [S/N in norm. window]
 239.554                                 [S/N_err in S/N window]
 242.560                                 [S/N_err in norm. window]
  1.0000                                 [fscale_chi2]

## etc...
  2147483588                             [idum_orig]
  3068                                   [NOl_eff]
  1088                                   [Nl_eff]
  1980    NSIGMA                         [Ntot_cliped & clip_method]
  1085700                                [Nglobal_steps]
   7                                     [N_chains]
   6                                     [NEX0s_base = N_base in EX0s-fits]
 0   0   1      255   2.0   5.108E+02    [Clip-Bug, RC-Crash & Burn-In warning-flags, n_censored_weights, wei_nsig_threshold & wei_limit]
    16     16.167     16.155      0.012  [idt_all, wdt_TotTime, wdt_UsrTime & wdt_SysTime (sec)]

## Synthesis Results - Best model ##

 2.24809E+00                             [chi2/Nl_eff]
     0.61001                             [adev (%)]

   104.07526                             [sum-of-x (%)]
 3.39666E-13                             [Flux_tot (units of input spectrum!)]
 4.99210E-10                             [Mini_tot (???)]
 2.95213E-10                             [Mcor_tot (???)]

 -54.24                                  [v0_min  (km/s)]
 142.65                                  [vd_min  (km/s)]
 1.2116                                  [AV_min  (mag)]
 0.0000                                  [YAV_min (mag)]

# j     x_j(%)      Mini_j(%)     Mcor_j(%)     age_j(yr)     Z_j      (L/M)_j    YAV?  Mstars   component_j        a/Fe...       SSP_chi2r SSP_adev(%)   SSP_AV   SSP_x(%)
  1      0.0000     0.0000E+00    0.0000E+00    1.000000E+06  0.00400  1.114E-02    0   1.0000   age020_m42            0.0000     1.0873E+03     9.6971   3.2372    80.9209
  2     33.6213     5.3966E-01    9.1249E-01    3.160000E+06  0.00400  4.073E-02    0   0.9999   age045_m42            0.0000     1.6703E+02     3.7021   2.2660    95.6754
  3      0.0000     0.0000E+00    0.0000E+00    5.010000E+06  0.00400  2.534E-02    0   0.9488   age055_m42            0.0000     5.1557E+02     6.6952   2.6734    89.0568
  4      2.8332     1.4573E-01    2.1839E-01    1.000000E+07  0.00400  1.271E-02    0   0.8862   age070_m42            0.0000     4.1907E+02     6.6331   1.8810    92.6945
  5      0.0000     0.0000E+00    0.0000E+00    2.512000E+07  0.00400  5.070E-03    0   0.8174   age090_m42            0.0000     3.6104E+02     6.0422   1.7522    94.2046
  6      0.0000     0.0000E+00    0.0000E+00    4.000000E+07  0.00400  3.505E-03    0   0.7851   age104_m42            0.0000     1.9440E+02     4.1468   1.4375    97.1741
  7     39.8608     1.1490E+01    1.4003E+01    1.015200E+08  0.00400  2.268E-03    0   0.7207   age116_m42            0.0000     2.0439E+02     3.7925   1.4538   106.7925
  8      0.0000     0.0000E+00    0.0000E+00    2.861200E+08  0.00400  1.079E-03    0   0.6613   age125_m42            0.0000     2.7660E+02     4.7708   0.9651   108.7273
  9      0.0000     0.0000E+00    0.0000E+00    6.405400E+08  0.00400  5.077E-04    0   0.6197   age132_m42            0.0000     3.4138E+02     5.0909   0.5967   113.1424
 10     15.5743     2.8803E+01    2.9341E+01    9.047900E+08  0.00400  3.535E-04    0   0.6024   age135_m42            0.0000     2.0772E+02     4.3613   0.3573   112.1665
 11      6.8358     2.3398E+01    2.2616E+01    1.434000E+09  0.00400  1.910E-04    0   0.5716   age139_m42            0.0000     2.0557E+02     4.8837  -0.1676   110.2442
 12      5.3498     3.5623E+01    3.2909E+01    2.500000E+09  0.00400  9.818E-05    0   0.5463   age150_m42            0.0000     2.9797E+02     4.8000  -0.4424   105.1958
 13      0.0000     0.0000E+00    0.0000E+00    5.000000E+09  0.00400  4.718E-05    0   0.5228   age161_m42            0.0000     4.2744E+02     5.0992  -0.6068   101.4940
 14      0.0000     0.0000E+00    0.0000E+00    1.100000E+10  0.00400  2.205E-05    0   0.4980   age185_m42            0.0000     7.1529E+02     6.5292  -0.8622    98.8342
 15      0.0000     0.0000E+00    0.0000E+00    1.300000E+10  0.00400  1.883E-05    0   0.4927   age193_m42            0.0000     7.5989E+02     6.6852  -0.8797    98.6258
 16      0.0000     0.0000E+00    0.0000E+00    1.000000E+06  0.02000  1.989E-02    0   1.0000   age020_m62            0.0000     1.1001E+03     9.7163   3.1964    81.7748
 17      0.0000     0.0000E+00    0.0000E+00    3.160000E+06  0.02000  3.772E-02    0   0.9858   age045_m62            0.0000     9.6377E+02     9.1939   3.0539    84.0116
 18      0.0000     0.0000E+00    0.0000E+00    5.010000E+06  0.02000  3.227E-02    0   0.9342   age055_m62            0.0000     2.9944E+02     5.0656   2.5351    92.0566
 19      0.0000     0.0000E+00    0.0000E+00    1.000000E+07  0.02000  1.011E-02    0   0.8751   age070_m62            0.0000     1.0822E+03    10.8656   1.9024    88.5015
 20      0.0000     0.0000E+00    0.0000E+00    2.512000E+07  0.02000  4.206E-03    0   0.8099   age090_m62            0.0000     7.7969E+02     8.8312   1.8403    89.5482
 21      0.0000     0.0000E+00    0.0000E+00    4.000000E+07  0.02000  3.373E-03    0   0.7799   age104_m62            0.0000     1.1885E+02     3.4571   1.6571    98.6464
 22      0.0000     0.0000E+00    0.0000E+00    1.015200E+08  0.02000  1.878E-03    0   0.7221   age116_m62            0.0000     1.2034E+02     2.6682   1.4776   107.0514
 23      0.0000     0.0000E+00    0.0000E+00    2.861200E+08  0.02000  8.869E-04    0   0.6700   age125_m62            0.0000     5.8865E+02     6.5294   0.9623   114.2507
 24      0.0000     0.0000E+00    0.0000E+00    6.405400E+08  0.02000  3.657E-04    0   0.6322   age132_m62            0.0000     4.9689E+02     7.2342   0.2780   117.6015
 25      0.0000     0.0000E+00    0.0000E+00    9.047900E+08  0.02000  2.312E-04    0   0.6152   age135_m62            0.0000     3.6317E+02     6.6984  -0.0970   116.3755
 26      0.0000     0.0000E+00    0.0000E+00    1.434000E+09  0.02000  1.168E-04    0   0.5865   age139_m62            0.0000     3.4759E+02     5.6983  -0.5092   109.8142
 27      0.0000     0.0000E+00    0.0000E+00    2.500000E+09  0.02000  5.505E-05    0   0.5610   age150_m62            0.0000     5.9424E+02     6.7623  -0.8792   106.3914
 28      0.0000     0.0000E+00    0.0000E+00    5.000000E+09  0.02000  2.596E-05    0   0.5353   age161_m62            0.0000     1.1342E+03     7.8400  -1.0000   100.3995
 29      0.0000     0.0000E+00    0.0000E+00    1.100000E+10  0.02000  1.169E-05    0   0.5103   age185_m62            0.0000     2.2259E+03    11.9718  -1.0000    91.1576
 30      0.0000     0.0000E+00    0.0000E+00    1.300000E+10  0.02000  9.691E-06    0   0.5047   age193_m62            0.0000     2.4234E+03    12.5793  -1.0000    89.9633
 31      0.0000     0.0000E+00    0.0000E+00    1.000000E+06  0.05000  2.651E-02    0   0.9998   age020_m72            0.0000     1.0246E+03     9.1720   3.2030    82.6909
 32      0.0000     0.0000E+00    0.0000E+00    3.160000E+06  0.05000  4.817E-02    0   0.9577   age045_m72            0.0000     6.5261E+02     7.2521   2.9165    87.4683
 33      0.0000     0.0000E+00    0.0000E+00    5.010000E+06  0.05000  3.101E-02    0   0.9147   age055_m72            0.0000     5.8384E+02     7.1637   2.5557    90.0877
 34      0.0000     0.0000E+00    0.0000E+00    1.000000E+07  0.05000  8.954E-03    0   0.8524   age070_m72            0.0000     6.4330E+02     7.1389   2.8041    88.5631
 35      0.0000     0.0000E+00    0.0000E+00    2.512000E+07  0.05000  4.207E-03    0   0.7902   age090_m72            0.0000     2.5635E+02     4.3859   2.3688    94.2083
 36      0.0000     0.0000E+00    0.0000E+00    4.000000E+07  0.05000  3.198E-03    0   0.7618   age104_m72            0.0000     3.6442E+01     1.8509   1.8558   102.4985
 37      0.0000     0.0000E+00    0.0000E+00    1.015200E+08  0.05000  1.716E-03    0   0.7092   age116_m72            0.0000     1.9006E+02     3.5707   1.5685   107.2508
 38      0.0000     0.0000E+00    0.0000E+00    2.861200E+08  0.05000  7.047E-04    0   0.6618   age125_m72            0.0000     6.2310E+02     7.1857   0.7559   114.6036
 39      0.0000     0.0000E+00    0.0000E+00    6.405400E+08  0.05000  2.633E-04    0   0.6253   age132_m72            0.0000     4.7702E+02     7.5010  -0.1010   116.6717
 40      0.0000     0.0000E+00    0.0000E+00    9.047900E+08  0.05000  1.484E-04    0   0.6088   age135_m72            0.0000     4.7109E+02     7.0419  -0.5798   110.8478
 41      0.0000     0.0000E+00    0.0000E+00    1.434000E+09  0.05000  7.827E-05    0   0.5847   age139_m72            0.0000     7.5809E+02     8.0133  -0.9636   106.7139
 42      0.0000     0.0000E+00    0.0000E+00    2.500000E+09  0.05000  3.759E-05    0   0.5583   age150_m72            0.0000     1.3013E+03     8.6792  -1.0000    97.9102
 43      0.0000     0.0000E+00    0.0000E+00    5.000000E+09  0.05000  1.548E-05    0   0.5320   age161_m72            0.0000     2.6028E+03    13.5080  -1.0000    85.6895
 44      0.0000     0.0000E+00    0.0000E+00    1.100000E+10  0.05000  6.532E-06    0   0.5070   age185_m72            0.0000     4.2997E+03    17.6112  -1.0000    74.8855
 45      0.0000     0.0000E+00    0.0000E+00    1.300000E+10  0.05000  5.316E-06    0   0.5018   age193_m72            0.0000     4.9115E+03    18.7560  -1.0000    71.7542


## Synthesis Results - Average & Chains ##

# j      x_j: min, <> & last-chain-values for 1 ...  7 chains
  1      0.0000      0.0120      0.0000      0.0000      0.0000      0.0000      0.0000      0.0000      0.0000
  2     33.6213     31.0430     31.5774     33.8022     31.2309     30.8074     31.0016     31.1776     31.0282
  3      0.0000      0.0280      0.0000      0.0000      0.0000      0.0521      0.0313      0.1341      0.0000
  4      2.8332      3.7546      3.7859      2.3475      3.7187      3.6159      3.7228      3.6580      3.6728
  5      0.0000      0.0555      0.0000      0.0185      0.0000      0.0000      0.1485      0.0405      0.1448
  6      0.0000      0.0398      0.0000      0.0000      0.0034      0.0000      0.0131      0.0000      0.0000
  7     39.8608     39.8307     40.0312     39.8276     39.8259     40.2597     39.8161     39.9781     39.7702
  8      0.0000      0.0708      0.0000      0.0089      0.0000      0.0657      0.0000      0.0000      0.0228
  9      0.0000      0.1015      0.1368      0.0012      0.3446      0.0701      0.0000      0.1457      0.0305
 10     15.5743     15.1880     14.9070     15.5292     15.1447     15.0817     15.3031     15.0928     15.0530
 11      6.8358      6.9831      7.0113      6.9575      7.0616      6.9924      6.8596      6.9641      7.0264
 12      5.3498      5.5785      5.6708      5.4807      5.5442      5.5092      5.6074      5.5703      5.5351
 13      0.0000      0.4665      0.4427      0.0000      0.4587      0.4425      0.4292      0.4593      0.5364
 14      0.0000      0.0024      0.0000      0.0000      0.0000      0.0000      0.0000      0.0000      0.0000
 15      0.0000      0.0026      0.0000      0.0000      0.0000      0.0000      0.0000      0.0000      0.0000
 16      0.0000      0.0071      0.0000      0.0000      0.0000      0.0000      0.0000      0.0000      0.0429
 17      0.0000      0.0095      0.0070      0.0000      0.0000      0.0000      0.0000      0.0000      0.0000
 18      0.0000      0.1018      0.1440      0.0680      0.3859      0.2734      0.0312      0.2237      0.1734
 19      0.0000      0.0395      0.0000      0.0000      0.0148      0.0000      0.0000      0.0000      0.1840
 20      0.0000      0.0285      0.0000      0.0000      0.0000      0.0000      0.0000      0.0000      0.0144
 21      0.0000      0.0840      0.0400      0.0322      0.0000      0.0660      0.0000      0.0406      0.0727
 22      0.0000      0.0987      0.0016      0.0000      0.0065      0.0000      0.0000      0.0000      0.2430
 23      0.0000      0.0237      0.0000      0.0000      0.0542      0.0000      0.0000      0.0233      0.0000
 24      0.0000      0.0140      0.0000      0.0003      0.0000      0.0000      0.0000      0.0005      0.0000
 25      0.0000      0.0148      0.0000      0.0000      0.0000      0.0000      0.0092      0.0000      0.0000
 26      0.0000      0.0069      0.0000      0.0000      0.0000      0.0000      0.0562      0.0050      0.0000
 27      0.0000      0.0106      0.0000      0.0000      0.0109      0.0000      0.0000      0.0000      0.0000
 28      0.0000      0.0040      0.0000      0.0131      0.0000      0.0000      0.0000      0.0000      0.0000
 29      0.0000      0.0017      0.0000      0.0000      0.0000      0.0030      0.0000      0.0000      0.0000
 30      0.0000      0.0019      0.0000      0.0000      0.0000      0.0000      0.0000      0.0000      0.0000
 31      0.0000      0.0061      0.0000      0.0407      0.0000      0.0000      0.0000      0.0000      0.0000
 32      0.0000      0.0240      0.0000      0.0000      0.0112      0.3196      0.0000      0.0901      0.0000
 33      0.0000      0.0578      0.0000      0.0000      0.0794      0.0435      0.2915      0.0000      0.0000
 34      0.0000      0.0085      0.0000      0.0000      0.0000      0.0000      0.0000      0.0000      0.0000
 35      0.0000      0.0203      0.0000      0.0000      0.0000      0.0498      0.0000      0.0041      0.0000
 36      0.0000      0.0947      0.0000      0.0000      0.1138      0.2306      0.0000      0.0000      0.0585
 37      0.0000      0.2363      0.1521      0.0000      0.1502      0.1600      0.7556      0.4504      0.5294
 38      0.0000      0.0360      0.2380      0.0000      0.0000      0.0000      0.0000      0.0000      0.0000
 39      0.0000      0.0157      0.0000      0.0000      0.0000      0.0000      0.0000      0.0000      0.0000
 40      0.0000      0.0093      0.0000      0.0000      0.0000      0.0142      0.0000      0.0000      0.0000
 41      0.0000      0.0063      0.0000      0.0000      0.0000      0.0000      0.0000      0.0000      0.0000
 42      0.0000      0.0078      0.0000      0.0000      0.0000      0.0328      0.0517      0.0000      0.0000
 43      0.0000      0.0295      0.0000      0.0000      0.0000      0.0431      0.0220      0.0716      0.0000
 44      0.0000      0.0020      0.0000      0.0000      0.0000      0.0009      0.0000      0.0000      0.0000
 45      0.0000      0.0014      0.0134      0.0000      0.0000      0.0000      0.0000      0.0000      0.0000

# j      m_j: min, <> & last-chain-values for 1 ...  7 chains
  1  0.0000E+00  1.0878E-03  0.0000E+00  0.0000E+00  0.0000E+00  0.0000E+00  0.0000E+00  0.0000E+00  0.0000E+00
  2  9.1249E-01  7.6796E-01  7.8829E-01  9.0471E-01  7.8850E-01  7.6784E-01  7.7332E-01  7.7103E-01  7.8109E-01
  3  0.0000E+00  1.0568E-03  0.0000E+00  0.0000E+00  0.0000E+00  1.9820E-03  1.1915E-03  5.0587E-03  0.0000E+00
  4  2.1839E-01  2.6380E-01  2.6843E-01  1.7845E-01  2.6665E-01  2.5596E-01  2.6375E-01  2.5693E-01  2.6259E-01
  5  0.0000E+00  9.0219E-03  0.0000E+00  3.2560E-03  0.0000E+00  0.0000E+00  2.4320E-02  6.5793E-03  2.3935E-02
  6  0.0000E+00  8.9814E-03  0.0000E+00  0.0000E+00  7.8531E-04  0.0000E+00  2.9743E-03  0.0000E+00  0.0000E+00
  7  1.4003E+01  1.2755E+01  1.2935E+01  1.3798E+01  1.3015E+01  1.2988E+01  1.2856E+01  1.2797E+01  1.2959E+01
  8  0.0000E+00  4.3711E-02  0.0000E+00  5.9720E-03  0.0000E+00  4.0886E-02  0.0000E+00  0.0000E+00  1.4329E-02
  9  0.0000E+00  1.2482E-01  1.6979E-01  1.6062E-03  4.3256E-01  8.6902E-02  0.0000E+00  1.7910E-01  3.8209E-02
 10  2.9341E+01  2.6081E+01  2.5832E+01  2.8851E+01  2.6542E+01  2.6093E+01  2.6498E+01  2.5909E+01  2.6304E+01
 11  2.2616E+01  2.1059E+01  2.1336E+01  2.2701E+01  2.1734E+01  2.1245E+01  2.0859E+01  2.0995E+01  2.1562E+01
 12  3.2909E+01  3.1280E+01  3.2086E+01  3.3248E+01  3.1726E+01  3.1122E+01  3.1703E+01  3.1223E+01  3.1582E+01
 13  0.0000E+00  5.2091E+00  4.9879E+00  0.0000E+00  5.2279E+00  4.9776E+00  4.8320E+00  5.1267E+00  6.0952E+00
 14  0.0000E+00  5.5658E-02  0.0000E+00  0.0000E+00  0.0000E+00  0.0000E+00  0.0000E+00  0.0000E+00  0.0000E+00
 15  0.0000E+00  6.9425E-02  0.0000E+00  0.0000E+00  0.0000E+00  0.0000E+00  0.0000E+00  0.0000E+00  0.0000E+00
 16  0.0000E+00  3.6159E-04  0.0000E+00  0.0000E+00  0.0000E+00  0.0000E+00  0.0000E+00  0.0000E+00  2.2135E-03
 17  0.0000E+00  2.4955E-04  1.8520E-04  0.0000E+00  0.0000E+00  0.0000E+00  0.0000E+00  0.0000E+00  0.0000E+00
 18  0.0000E+00  2.9709E-03  4.2385E-03  2.1477E-03  1.1491E-02  8.0351E-03  9.1827E-04  6.5235E-03  5.1480E-03
 19  0.0000E+00  3.4495E-03  0.0000E+00  0.0000E+00  1.3179E-03  0.0000E+00  0.0000E+00  0.0000E+00  1.6330E-02
 20  0.0000E+00  5.5207E-03  0.0000E+00  0.0000E+00  0.0000E+00  0.0000E+00  0.0000E+00  0.0000E+00  2.8433E-03
 21  0.0000E+00  1.9576E-02  9.4159E-03  8.1152E-03  0.0000E+00  1.5493E-02  0.0000E+00  9.4653E-03  1.7237E-02
 22  0.0000E+00  3.8239E-02  6.2164E-04  0.0000E+00  2.5655E-03  0.0000E+00  0.0000E+00  0.0000E+00  9.5813E-02
 23  0.0000E+00  1.8019E-02  0.0000E+00  0.0000E+00  4.2131E-02  0.0000E+00  0.0000E+00  1.7724E-02  0.0000E+00
 24  0.0000E+00  2.4342E-02  0.0000E+00  5.3411E-04  0.0000E+00  0.0000E+00  0.0000E+00  8.6015E-04  0.0000E+00
 25  0.0000E+00  3.9592E-02  0.0000E+00  0.0000E+00  0.0000E+00  0.0000E+00  2.4835E-02  0.0000E+00  0.0000E+00
 26  0.0000E+00  3.5010E-02  0.0000E+00  0.0000E+00  0.0000E+00  0.0000E+00  2.8690E-01  2.5123E-02  0.0000E+00
 27  0.0000E+00  1.0851E-01  0.0000E+00  0.0000E+00  1.1423E-01  0.0000E+00  0.0000E+00  0.0000E+00  0.0000E+00
 28  0.0000E+00  8.3816E-02  0.0000E+00  2.9561E-01  0.0000E+00  0.0000E+00  0.0000E+00  0.0000E+00  0.0000E+00
 29  0.0000E+00  7.3652E-02  0.0000E+00  0.0000E+00  0.0000E+00  1.3162E-01  0.0000E+00  0.0000E+00  0.0000E+00
 30  0.0000E+00  1.0088E-01  0.0000E+00  0.0000E+00  0.0000E+00  0.0000E+00  0.0000E+00  0.0000E+00  0.0000E+00
 31  0.0000E+00  2.3166E-04  0.0000E+00  1.6750E-03  0.0000E+00  0.0000E+00  0.0000E+00  0.0000E+00  0.0000E+00
 32  0.0000E+00  4.8139E-04  0.0000E+00  0.0000E+00  2.2832E-04  6.4516E-03  0.0000E+00  1.8054E-03  0.0000E+00
 33  0.0000E+00  1.7185E-03  0.0000E+00  0.0000E+00  2.4084E-03  1.3017E-03  8.7356E-03  0.0000E+00  0.0000E+00
