###################################################################
## OUTPUT of StarlightChains_v04.for    [Cid@UFSC - 01/Apr/2007] ##
###################################################################

## Some input info
NGC104_a_1.cxt                           [arq_obs]
Base.BC03.S                              [arq_base]
NGC104_a_1.msk                           [arq_masks]
StCv04.C99.config                        [arq_config]
  150                                    [N_base]
    0                                    [N_YAV_components = # of components with extra extinction!]
    0                                    [i_FitPowerLaw (1/0 = Yes/No)]
-9.99                                    [alpha_PowerLaw]
CCM                                      [red_law_option]
 1.458241                                [q_norm = A(l_norm)/A(V)]

## (Re)Sampling Parameters
 3359.00                                 [l_ini (A)]
 6428.00                                 [l_fin (A)]
    1.00                                 [dl    (A)]     (OBS: dl_cushion =    50.00 A)

## Normalization info
 4020.00                                 [l_norm (A) - for base]
 4010.00                                 [llow_norm (A) - window for f_obs]
 4060.00                                 [lupp_norm (A) - window for f_obs]
2.050577E-13                             [fobs_norm (in input units)]

## S/N
 4730.00                                 [llow_SN (A) - window for S/N]
 4780.00                                 [lupp_SN (A) - window for S/N]
  43.784                                 [S/N in S/N window]
  33.933                                 [S/N in norm. window]
1000.000                                 [S/N_err in S/N window]
 775.022                                 [S/N_err in norm. window]
  1.0000                                 [fscale_chi2]

## etc...
 -2147483648                             [idum_orig]
  3067                                   [NOl_eff]
   225                                   [Nl_eff]
  2842    NSIGMA                         [Ntot_cliped & clip_method]
 15642270                                [Nglobal_steps]
   7                                     [N_chains]
  15                                     [NEX0s_base = N_base in EX0s-fits]
 0   0   1      254   2.0   1.654E+03    [Clip-Bug, RC-Crash & Burn-In warning-flags, n_censored_weights, wei_nsig_threshold & wei_limit]
   634    634.484    634.439      0.046  [idt_all, wdt_TotTime, wdt_UsrTime & wdt_SysTime (sec)]

## Synthesis Results - Best model ##

 2.64944E+00                             [chi2/Nl_eff]
     0.37922                             [adev (%)]

    99.84527                             [sum-of-x (%)]
 1.78405E-13                             [Flux_tot (units of input spectrum!)]
 8.67489E-09                             [Mini_tot (???)]
 4.36285E-09                             [Mcor_tot (???)]

 -27.97                                  [v0_min  (km/s)]
  42.70                                  [vd_min  (km/s)]
-0.1025                                  [AV_min  (mag)]
 0.0000                                  [YAV_min (mag)]

# j     x_j(%)      Mini_j(%)     Mcor_j(%)     age_j(yr)     Z_j      (L/M)_j    YAV?  Mstars   component_j        a/Fe...       SSP_chi2r SSP_adev(%)   SSP_AV   SSP_x(%)
  1      0.0000     0.0000E+00    0.0000E+00    1.000000E+06  0.00010  8.160E-03    0   1.0000   age020_m22            0.0000     1.8606E+04    24.4143   4.0000    78.8075
  2      1.8898     8.1795E-04    1.6264E-03    3.160000E+06  0.00010  4.759E-02    0   1.0000   age045_m22            0.0000     6.3936E+03    14.2384   2.0984    97.4377
  3      0.0000     0.0000E+00    0.0000E+00    5.010000E+06  0.00010  1.932E-02    0   0.9582   age055_m22            0.0000     1.8348E+04    22.5177   2.4095    82.5820
  4      0.0000     0.0000E+00    0.0000E+00    6.610000E+06  0.00010  9.973E-03    0   0.9297   age061_m22            0.0000     1.9716E+04    24.3580   4.0000    80.6042
  5      0.0000     0.0000E+00    0.0000E+00    8.710000E+06  0.00010  7.690E-03    0   0.9030   age067_m22            0.0000     1.8919E+04    23.9895   4.0000    80.9161
  6      0.0000     0.0000E+00    0.0000E+00    1.000000E+07  0.00010  6.375E-03    0   0.8902   age070_m22            0.0000     1.8401E+04    23.7973   4.0000    81.4841
  7      0.0000     0.0000E+00    0.0000E+00    1.445000E+07  0.00010  4.874E-03    0   0.8589   age078_m22            0.0000     1.4838E+04    21.7157   3.9032    82.5849
  8      0.0000     0.0000E+00    0.0000E+00    2.512000E+07  0.00010  4.103E-03    0   0.8174   age090_m22            0.0000     9.9444E+03    18.6594   3.4893    89.7097
  9      0.0000     0.0000E+00    0.0000E+00    4.000000E+07  0.00010  3.654E-03    0   0.7830   age104_m22            0.0000     8.0484E+03    16.0331   3.1811    95.3068
 10      0.0000     0.0000E+00    0.0000E+00    5.500000E+07  0.00010  3.093E-03    0   0.7597   age110_m22            0.0000     7.7824E+03    15.1038   3.0788    97.1371
 11      0.0000     0.0000E+00    0.0000E+00    1.015200E+08  0.00010  2.431E-03    0   0.7138   age116_m22            0.0000     8.3464E+03    14.1164   2.7251   100.5916
 12      0.0000     0.0000E+00    0.0000E+00    1.609000E+08  0.00010  1.319E-03    0   0.6775   age120_m22            0.0000     8.1323E+03    13.0918   2.2491   102.8862
 13      0.0000     0.0000E+00    0.0000E+00    2.861200E+08  0.00010  1.075E-03    0   0.6412   age125_m22            0.0000     1.2360E+04    13.3676   2.3186   107.3598
 14      0.0000     0.0000E+00    0.0000E+00    5.088000E+08  0.00010  7.183E-04    0   0.6083   age130_m22            0.0000     1.3895E+04    13.7080   2.0879   109.5280
 15      0.0000     0.0000E+00    0.0000E+00    9.047900E+08  0.00010  4.524E-04    0   0.5785   age135_m22            0.0000     1.3868E+04    13.5784   1.8818   111.0240
 16      0.0000     0.0000E+00    0.0000E+00    1.278050E+09  0.00010  3.018E-04    0   0.5588   age138_m22            0.0000     8.3692E+03    10.8448   1.3424   108.8884
 17      0.0000     0.0000E+00    0.0000E+00    1.434000E+09  0.00010  2.691E-04    0   0.5532   age139_m22            0.0000     7.4089E+03    10.3809   1.1839   108.2687
 18      0.0000     0.0000E+00    0.0000E+00    2.500000E+09  0.00010  1.582E-04    0   0.5296   age150_m22            0.0000     7.1790E+03    10.5083   1.0566   109.2894
 19      0.0000     0.0000E+00    0.0000E+00    4.250000E+09  0.00010  1.007E-04    0   0.5110   age158_m22            0.0000     5.4836E+03     9.8218   0.9076   107.0825
 20      0.0000     0.0000E+00    0.0000E+00    6.250000E+09  0.00010  6.869E-05    0   0.4985   age166_m22            0.0000     4.3621E+03     9.6331   0.8540   103.7213
 21      0.0000     0.0000E+00    0.0000E+00    7.500000E+09  0.00010  5.873E-05    0   0.4931   age171_m22            0.0000     4.4486E+03     9.9342   0.8409   103.1206
 22      0.0000     0.0000E+00    0.0000E+00    1.000000E+10  0.00010  4.481E-05    0   0.4854   age181_m22            0.0000     4.3578E+03     9.8375   0.8048   102.6909
 23      0.0000     0.0000E+00    0.0000E+00    1.300000E+10  0.00010  3.489E-05    0   0.4791   age193_m22            0.0000     4.1362E+03     9.6321   0.7503   102.0529
 24      0.0000     0.0000E+00    0.0000E+00    1.500000E+10  0.00010  3.035E-05    0   0.4766   age201_m22            0.0000     4.0264E+03     9.5614   0.7116   101.8259
 25      0.0000     0.0000E+00    0.0000E+00    1.800000E+10  0.00010  2.510E-05    0   0.4735   age213_m22            0.0000     3.8179E+03     9.4715   0.6436   101.1238
 26      0.0000     0.0000E+00    0.0000E+00    1.000000E+06  0.00040  8.458E-03    0   1.0000   age020_m32            0.0000     1.9019E+04    24.5103   4.0000    79.7754
 27      0.0000     0.0000E+00    0.0000E+00    3.160000E+06  0.00040  3.973E-02    0   1.0000   age045_m32            0.0000     1.0316E+04    18.9218   3.3843    89.7481
 28      0.0000     0.0000E+00    0.0000E+00    5.010000E+06  0.00040  1.935E-02    0   0.9532   age055_m32            0.0000     1.6609E+04    22.6160   3.6135    83.0891
 29      0.0000     0.0000E+00    0.0000E+00    6.610000E+06  0.00040  1.204E-02    0   0.9243   age061_m32            0.0000     1.7246E+04    22.8841   3.9342    80.9810
 30      0.0000     0.0000E+00    0.0000E+00    8.710000E+06  0.00040  9.433E-03    0   0.9001   age067_m32            0.0000     1.6066E+04    22.3635   3.9054    81.9985
 31      0.0000     0.0000E+00    0.0000E+00    1.000000E+07  0.00040  8.053E-03    0   0.8877   age070_m32            0.0000     1.5623E+04    22.1502   3.8699    82.4754
 32      0.0000     0.0000E+00    0.0000E+00    1.445000E+07  0.00040  7.027E-03    0   0.8578   age078_m32            0.0000     1.2209E+04    20.3369   3.3340    88.3297
 33      0.0000     0.0000E+00    0.0000E+00    2.512000E+07  0.00040  4.707E-03    0   0.8166   age090_m32            0.0000     9.7278E+03    18.3169   3.0327    92.7875
 34      0.0000     0.0000E+00    0.0000E+00    4.000000E+07  0.00040  3.714E-03    0   0.7827   age104_m32            0.0000     8.1796E+03    16.1293   2.8256    96.7838
 35      0.0000     0.0000E+00    0.0000E+00    5.500000E+07  0.00040  2.982E-03    0   0.7593   age110_m32            0.0000     7.9697E+03    15.3436   2.7643    98.1724
 36      0.0000     0.0000E+00    0.0000E+00    1.015200E+08  0.00040  2.188E-03    0   0.7143   age116_m32            0.0000     9.0708E+03    13.3152   2.5018   103.2194
 37      0.0000     0.0000E+00    0.0000E+00    1.609000E+08  0.00040  1.690E-03    0   0.6856   age120_m32            0.0000     1.1042E+04    13.4414   2.2838   106.6338
 38      0.0000     0.0000E+00    0.0000E+00    2.861200E+08  0.00040  1.152E-03    0   0.6509   age125_m32            0.0000     1.2523E+04    13.1855   2.0687   108.8012
 39      0.0000     0.0000E+00    0.0000E+00    5.088000E+08  0.00040  7.331E-04    0   0.6182   age130_m32            0.0000     1.2923E+04    13.1628   1.9075   109.6836
 40      0.0000     0.0000E+00    0.0000E+00    9.047900E+08  0.00040  3.960E-04    0   0.5890   age135_m32            0.0000     8.4352E+03    10.7221   1.4406   108.0635
 41      0.0000     0.0000E+00    0.0000E+00    1.278050E+09  0.00040  2.854E-04    0   0.5687   age138_m32            0.0000     7.7968E+03    10.4197   1.1264   110.3195
 42      0.0000     0.0000E+00    0.0000E+00    1.434000E+09  0.00040  2.531E-04    0   0.5632   age139_m32            0.0000     7.6146E+03    10.4122   1.0642   110.2965
 43      0.0000     0.0000E+00    0.0000E+00    2.500000E+09  0.00040  1.488E-04    0   0.5386   age150_m32            0.0000     6.0097E+03     9.6616   0.8172   107.9576
 44      0.0000     0.0000E+00    0.0000E+00    4.250000E+09  0.00040  9.082E-05    0   0.5199   age158_m32            0.0000     3.9035E+03     8.7401   0.7216   103.9043
 45      0.0122     3.9413E-03    3.9779E-03    6.250000E+09  0.00040  6.362E-05    0   0.5076   age166_m32            0.0000     3.4427E+03     9.1422   0.6755   100.0803
 46      3.3211     1.2934E+00    1.2928E+00    7.500000E+09  0.00040  5.289E-05    0   0.5027   age171_m32            0.0000     3.2591E+03     9.1038   0.6425    98.6408
 47     16.3455     8.4763E+00    8.3393E+00    1.000000E+10  0.00040  3.972E-05    0   0.4948   age181_m32            0.0000     2.9674E+03     8.9049   0.5857    97.1090
 48      0.0000     0.0000E+00    0.0000E+00    1.300000E+10  0.00040  3.283E-05    0   0.4870   age193_m32            0.0000     2.9640E+03     8.4259   0.5372   100.2449
 49      0.0000     0.0000E+00    0.0000E+00    1.500000E+10  0.00040  2.925E-05    0   0.4854   age201_m32            0.0000     3.1284E+03     8.2596   0.5164   102.0790
 50      0.0000     0.0000E+00    0.0000E+00    1.800000E+10  0.00040  2.469E-05    0   0.4819   age213_m32            0.0000     3.1835E+03     8.1544   0.4747   102.7123
 51      0.0000     0.0000E+00    0.0000E+00    1.000000E+06  0.00400  1.114E-02    0   1.0000   age020_m42            0.0000     1.7647E+04    23.6029   4.0000    78.6580
 52      0.0000     0.0000E+00    0.0000E+00    3.160000E+06  0.00400  4.073E-02    0   0.9999   age045_m42            0.0000     7.9049E+03    16.5364   3.0912    92.6748
 53      0.0000     0.0000E+00    0.0000E+00    5.010000E+06  0.00400  2.534E-02    0   0.9488   age055_m42            0.0000     1.1988E+04    20.2551   3.4952    85.6268
 54      0.0000     0.0000E+00    0.0000E+00    6.610000E+06  0.00400  2.583E-02    0   0.9220   age061_m42            0.0000     7.3894E+03    16.1219   2.8928    94.0025
 55      0.0000     0.0000E+00    0.0000E+00    8.710000E+06  0.00400  1.706E-02    0   0.8983   age067_m42            0.0000     9.5220E+03    18.5053   2.7073    91.7823
 56      0.0000     0.0000E+00    0.0000E+00    1.000000E+07  0.00400  1.271E-02    0   0.8862   age070_m42            0.0000     1.1972E+04    20.4541   2.6881    90.0258
 57      0.0000     0.0000E+00    0.0000E+00    1.445000E+07  0.00400  7.666E-03    0   0.8571   age078_m42            0.0000     1.3609E+04    21.4609   3.0989    86.3251
 58      0.0000     0.0000E+00    0.0000E+00    2.512000E+07  0.00400  5.070E-03    0   0.8174   age090_m42            0.0000     1.1019E+04    19.6838   2.5565    91.6862
 59      0.0000     0.0000E+00    0.0000E+00    4.000000E+07  0.00400  3.505E-03    0   0.7851   age104_m42            0.0000     8.2519E+03    17.2103   2.2446    94.8831
 60      0.0000     0.0000E+00    0.0000E+00    5.500000E+07  0.00400  3.059E-03    0   0.7629   age110_m42            0.0000     6.4234E+03    13.7184   2.3008   100.5305
 61      0.0000     0.0000E+00    0.0000E+00    1.015200E+08  0.00400  2.268E-03    0   0.7207   age116_m42            0.0000     9.3453E+03    12.2721   2.2107   106.8774
 62      0.0000     0.0000E+00    0.0000E+00    1.609000E+08  0.00400  1.720E-03    0   0.6930   age120_m42            0.0000     9.5896E+03    11.9254   2.0696   108.7981
 63      0.0000     0.0000E+00    0.0000E+00    2.861200E+08  0.00400  1.079E-03    0   0.6613   age125_m42            0.0000     9.4002E+03    11.1241   1.7161   109.3417
 64      0.0000     0.0000E+00    0.0000E+00    5.088000E+08  0.00400  6.261E-04    0   0.6313   age130_m42            0.0000     1.0301E+04    11.4706   1.5027   113.0820
 65      0.0000     0.0000E+00    0.0000E+00    9.047900E+08  0.00400  3.535E-04    0   0.6024   age135_m42            0.0000     6.5162E+03     9.0002   1.0998   112.9855
 66      0.0000     0.0000E+00    0.0000E+00    1.278050E+09  0.00400  2.677E-04    0   0.5837   age138_m42            0.0000     2.0322E+03     4.9972   0.4553   108.5149
 67      0.0000     0.0000E+00    0.0000E+00    1.434000E+09  0.00400  1.910E-04    0   0.5716   age139_m42            0.0000     2.9077E+03     5.7073   0.6125   109.9062
 68      0.0000     0.0000E+00    0.0000E+00    2.500000E+09  0.00400  9.818E-05    0   0.5463   age150_m42            0.0000     7.5220E+02     3.0435   0.3658   103.6483
 69      0.0000     0.0000E+00    0.0000E+00    4.250000E+09  0.00400  5.491E-05    0   0.5269   age158_m42            0.0000     4.2187E+02     2.7314   0.2476   100.3336
 70      0.0000     0.0000E+00    0.0000E+00    6.250000E+09  0.00400  3.857E-05    0   0.5151   age166_m42            0.0000     2.4837E+02     2.0291   0.1308    98.6224
 71      0.0000     0.0000E+00    0.0000E+00    7.500000E+09  0.00400  3.243E-05    0   0.5110   age171_m42            0.0000     1.9895E+02     1.6940   0.0576    97.9092
 72      0.0000     0.0000E+00    0.0000E+00    1.000000E+10  0.00400  2.424E-05    0   0.5028   age181_m42            0.0000     1.9576E+02     1.5941  -0.0152    97.0733
 73      0.0000     0.0000E+00    0.0000E+00    1.300000E+10  0.00400  1.883E-05    0   0.4927   age193_m42            0.0000     2.7119E+02     2.0529  -0.0502    96.5859
 74      0.0000     0.0000E+00    0.0000E+00    1.500000E+10  0.00400  1.685E-05    0   0.4919   age201_m42            0.0000     2.8322E+02     1.9814  -0.0482    96.6633
 75      0.4631     6.5700E-01    6.3671E-01    1.800000E+10  0.00400  1.452E-05    0   0.4874   age213_m42            0.0000     3.1523E+02     1.9089  -0.0370    97.0189
 76      0.0000     0.0000E+00    0.0000E+00    1.000000E+06  0.00800  1.286E-02    0   1.0000   age020_m52            0.0000     1.6369E+04    22.7646   4.0000    80.0221
 77      0.0000     0.0000E+00    0.0000E+00    3.160000E+06  0.00800  3.147E-02    0   0.9966   age045_m52            0.0000     1.6151E+04    22.4003   3.9521    80.5184
 78      0.0000     0.0000E+00    0.0000E+00    5.010000E+06  0.00800  2.664E-02    0   0.9443   age055_m52            0.0000     1.3170E+04    20.9608   3.6186    84.3155
 79      0.0000     0.0000E+00    0.0000E+00    6.610000E+06  0.00800  2.151E-02    0   0.9177   age061_m52            0.0000     9.4870E+03    18.0473   2.3030    91.2029
 80      0.0000     0.0000E+00    0.0000E+00    8.710000E+06  0.00800  1.628E-02    0   0.8948   age067_m52            0.0000     1.0364E+04    19.1668   2.6644    91.8505
 81      0.0000     0.0000E+00    0.0000E+00    1.000000E+07  0.00800  1.215E-02    0   0.8827   age070_m52            0.0000     1.1875E+04    20.4380   3.0042    89.7825
 82      0.0000     0.0000E+00    0.0000E+00    1.445000E+07  0.00800  8.739E-03    0   0.8552   age078_m52            0.0000     1.0548E+04    19.5004   3.0422    91.4070
 83      0.0000     0.0000E+00    0.0000E+00    2.512000E+07  0.00800  5.676E-03    0   0.8162   age090_m52            0.0000     8.9716E+03    17.4904   2.6246    97.1912
 84      0.0000     0.0000E+00    0.0000E+00    4.000000E+07  0.00800  3.939E-03    0   0.7841   age104_m52            0.0000     7.8431E+03    15.4026   2.4716    99.9762
 85      0.0000     0.0000E+00    0.0000E+00    5.500000E+07  0.00800  3.155E-03    0   0.7627   age110_m52            0.0000     7.4950E+03    13.8778   2.4479   101.9380
 86      0.0000     0.0000E+00    0.0000E+00    1.015200E+08  0.00800  2.206E-03    0   0.7226   age116_m52            0.0000     7.9630E+03    11.8362   2.2660   106.4028
 87      0.0000     0.0000E+00    0.0000E+00    1.609000E+08  0.00800  1.596E-03    0   0.6963   age120_m52            0.0000     8.4851E+03    11.3716   2.0481   108.5286
 88      0.0000     0.0000E+00    0.0000E+00    2.861200E+08  0.00800  1.002E-03    0   0.6665   age125_m52            0.0000     1.0316E+04    11.3728   1.7604   111.8845
 89      0.0000     0.0000E+00    0.0000E+00    5.088000E+08  0.00800  5.759E-04    0   0.6377   age130_m52            0.0000     9.9357E+03    10.6065   1.4045   116.5797
 90      0.0000     0.0000E+00    0.0000E+00    9.047900E+08  0.00800  2.972E-04    0   0.6086   age135_m52            0.0000     5.1903E+03     7.2578   0.8920   114.1405
 91      0.0000     0.0000E+00    0.0000E+00    1.278050E+09  0.00800  2.242E-04    0   0.5907   age138_m52            0.0000     1.3850E+03     3.7582   0.2930   111.2030
 92      0.0000     0.0000E+00    0.0000E+00    1.434000E+09  0.00800  1.645E-04    0   0.5787   age139_m52            0.0000     1.3266E+03     3.5971   0.4403   110.4825
 93      0.0419     1.1182E-02    1.2271E-02    2.500000E+09  0.00800  7.723E-05    0   0.5519   age150_m52            0.0000     2.6175E+02     1.6252   0.1206   105.5275
 94      0.1889     9.3725E-02    9.9142E-02    4.250000E+09  0.00800  4.151E-05    0   0.5320   age158_m52            0.0000     1.0853E+02     1.0001   0.0535   102.6814
 95     12.9591     8.8679E+00    9.1636E+00    6.250000E+09  0.00800  3.010E-05    0   0.5197   age166_m52            0.0000     5.6602E+01     1.3550  -0.1288   100.8837
 96     12.3261     1.0291E+01    1.0516E+01    7.500000E+09  0.00800  2.467E-05    0   0.5139   age171_m52            0.0000     8.0719E+01     1.7128  -0.1670   100.3952
 97     20.1657     2.2307E+01    2.2417E+01    1.000000E+10  0.00800  1.862E-05    0   0.5054   age181_m52            0.0000     2.5611E+02     2.9345  -0.2880    99.7858
