###################################################################
## OUTPUT of StarlightChains_v04.for    [Cid@UFSC - 01/Apr/2007] ##
###################################################################

## Some input info
NGC1851_a_1.cxt                          [arq_obs]
Base.BC03.S                              [arq_base]
NGC1851_a_1.msk                          [arq_masks]
StCv04.C99.config                        [arq_config]
  150                                    [N_base]
    0                                    [N_YAV_components = # of components with extra extinction!]
    0                                    [i_FitPowerLaw (1/0 = Yes/No)]
-9.99                                    [alpha_PowerLaw]
CCM                                      [red_law_option]
 1.458241                                [q_norm = A(l_norm)/A(V)]

## (Re)Sampling Parameters
 3359.00                                 [l_ini (A)]
 6428.00                                 [l_fin (A)]
    1.00                                 [dl    (A)]     (OBS: dl_cushion =    50.00 A)

## Normalization info
 4020.00                                 [l_norm (A) - for base]
 4010.00                                 [llow_norm (A) - window for f_obs]
 4060.00                                 [lupp_norm (A) - window for f_obs]
8.317932E-14                             [fobs_norm (in input units)]

## S/N
 4730.00                                 [llow_SN (A) - window for S/N]
 4780.00                                 [lupp_SN (A) - window for S/N]
  72.129                                 [S/N in S/N window]
  63.854                                 [S/N in norm. window]
 355.079                                 [S/N_err in S/N window]
 314.342                                 [S/N_err in norm. window]
  1.0000                                 [fscale_chi2]

## etc...
  2147483647                             [idum_orig]
  3058                                   [NOl_eff]
   680                                   [Nl_eff]
  2378    NSIGMA                         [Ntot_cliped & clip_method]
  2866360                                [Nglobal_steps]
   7                                     [N_chains]
  16                                     [NEX0s_base = N_base in EX0s-fits]
 0   0   1      243   2.0   6.680E+02    [Clip-Bug, RC-Crash & Burn-In warning-flags, n_censored_weights, wei_nsig_threshold & wei_limit]
   115    115.326    115.313      0.012  [idt_all, wdt_TotTime, wdt_UsrTime & wdt_SysTime (sec)]

## Synthesis Results - Best model ##

 2.74753E+00                             [chi2/Nl_eff]
     0.62112                             [adev (%)]

   101.72859                             [sum-of-x (%)]
 9.42128E-14                             [Flux_tot (units of input spectrum!)]
 1.26848E-09                             [Mini_tot (???)]
 6.64737E-10                             [Mcor_tot (???)]

  -5.67                                  [v0_min  (km/s)]
  58.98                                  [vd_min  (km/s)]
 0.0800                                  [AV_min  (mag)]
 0.0000                                  [YAV_min (mag)]

# j     x_j(%)      Mini_j(%)     Mcor_j(%)     age_j(yr)     Z_j      (L/M)_j    YAV?  Mstars   component_j        a/Fe...       SSP_chi2r SSP_adev(%)   SSP_AV   SSP_x(%)
  1      0.0000     0.0000E+00    0.0000E+00    1.000000E+06  0.00010  8.160E-03    0   1.0000   age020_m22            0.0000     2.9348E+03    15.7913   3.7634    77.7674
  2      6.1525     9.4389E-03    1.8012E-02    3.160000E+06  0.00010  4.759E-02    0   1.0000   age045_m22            0.0000     5.1788E+02     7.0667   1.7192    97.9153
  3      0.0000     0.0000E+00    0.0000E+00    5.010000E+06  0.00010  1.932E-02    0   0.9582   age055_m22            0.0000     2.6176E+03    15.3818   2.0450    84.4778
  4      0.0000     0.0000E+00    0.0000E+00    6.610000E+06  0.00010  9.973E-03    0   0.9297   age061_m22            0.0000     2.8960E+03    15.9990   3.7214    80.7206
  5      0.0000     0.0000E+00    0.0000E+00    8.710000E+06  0.00010  7.690E-03    0   0.9030   age067_m22            0.0000     2.7538E+03    15.6320   3.7140    81.1240
  6      0.0000     0.0000E+00    0.0000E+00    1.000000E+07  0.00010  6.375E-03    0   0.8902   age070_m22            0.0000     2.6355E+03    15.3024   3.7296    81.2755
  7      0.0000     0.0000E+00    0.0000E+00    1.445000E+07  0.00010  4.874E-03    0   0.8589   age078_m22            0.0000     2.0227E+03    13.6137   3.5432    84.0633
  8      0.0000     0.0000E+00    0.0000E+00    2.512000E+07  0.00010  4.103E-03    0   0.8174   age090_m22            0.0000     1.0780E+03    10.2683   3.1273    90.2926
  9      0.0000     0.0000E+00    0.0000E+00    4.000000E+07  0.00010  3.654E-03    0   0.7830   age104_m22            0.0000     7.3939E+02     7.8305   2.8197    95.0215
 10      0.0000     0.0000E+00    0.0000E+00    5.500000E+07  0.00010  3.093E-03    0   0.7597   age110_m22            0.0000     6.8181E+02     7.1280   2.7178    96.4970
 11      0.0000     0.0000E+00    0.0000E+00    1.015200E+08  0.00010  2.431E-03    0   0.7138   age116_m22            0.0000     7.6689E+02     7.0689   2.3665    99.3336
 12      0.0000     0.0000E+00    0.0000E+00    1.609000E+08  0.00010  1.319E-03    0   0.6775   age120_m22            0.0000     7.2993E+02     6.6806   1.9010   101.0572
 13      0.0000     0.0000E+00    0.0000E+00    2.861200E+08  0.00010  1.075E-03    0   0.6412   age125_m22            0.0000     1.5209E+03     8.4439   1.9792   104.0513
 14      0.0000     0.0000E+00    0.0000E+00    5.088000E+08  0.00010  7.183E-04    0   0.6083   age130_m22            0.0000     1.8289E+03     9.0845   1.7531   105.4932
 15      0.0000     0.0000E+00    0.0000E+00    9.047900E+08  0.00010  4.524E-04    0   0.5785   age135_m22            0.0000     1.8532E+03     9.0911   1.5498   106.6887
 16      0.0000     0.0000E+00    0.0000E+00    1.278050E+09  0.00010  3.018E-04    0   0.5588   age138_m22            0.0000     8.8694E+02     6.4982   0.9925   105.6287
 17      0.0000     0.0000E+00    0.0000E+00    1.434000E+09  0.00010  2.691E-04    0   0.5532   age139_m22            0.0000     7.2011E+02     5.9054   0.8308   105.2105
 18      0.0000     0.0000E+00    0.0000E+00    2.500000E+09  0.00010  1.582E-04    0   0.5296   age150_m22            0.0000     6.5811E+02     5.8664   0.7153   106.0194
 19      0.0000     0.0000E+00    0.0000E+00    4.250000E+09  0.00010  1.007E-04    0   0.5110   age158_m22            0.0000     3.7051E+02     4.5763   0.5530   104.7242
 20      0.1434     1.5244E-01    1.4501E-01    6.250000E+09  0.00010  6.869E-05    0   0.4985   age166_m22            0.0000     1.9857E+02     3.5952   0.4881   102.3217
 21      0.0000     0.0000E+00    0.0000E+00    7.500000E+09  0.00010  5.873E-05    0   0.4931   age171_m22            0.0000     2.0840E+02     3.7544   0.4764   101.8130
 22      0.0000     0.0000E+00    0.0000E+00    1.000000E+10  0.00010  4.481E-05    0   0.4854   age181_m22            0.0000     1.9830E+02     3.6534   0.4381   101.4402
 23      0.0000     0.0000E+00    0.0000E+00    1.300000E+10  0.00010  3.489E-05    0   0.4791   age193_m22            0.0000     1.7243E+02     3.4225   0.3796   100.9167
 24      0.0000     0.0000E+00    0.0000E+00    1.500000E+10  0.00010  3.035E-05    0   0.4766   age201_m22            0.0000     1.6163E+02     3.3368   0.3391   100.7475
 25      0.0000     0.0000E+00    0.0000E+00    1.800000E+10  0.00010  2.510E-05    0   0.4735   age213_m22            0.0000     1.4244E+02     3.2203   0.2678   100.1908
 26      0.0000     0.0000E+00    0.0000E+00    1.000000E+06  0.00040  8.458E-03    0   1.0000   age020_m32            0.0000     2.8816E+03    15.7457   3.7789    78.4619
 27      0.0000     0.0000E+00    0.0000E+00    3.160000E+06  0.00040  3.973E-02    0   1.0000   age045_m32            0.0000     1.1611E+03    10.6524   3.0207    90.5325
 28      0.0000     0.0000E+00    0.0000E+00    5.010000E+06  0.00040  1.935E-02    0   0.9532   age055_m32            0.0000     2.2993E+03    14.6526   3.2572    84.6183
 29      0.0000     0.0000E+00    0.0000E+00    6.610000E+06  0.00040  1.204E-02    0   0.9243   age061_m32            0.0000     2.4691E+03    14.9309   3.5765    82.6735
 30      0.0000     0.0000E+00    0.0000E+00    8.710000E+06  0.00040  9.433E-03    0   0.9001   age067_m32            0.0000     2.2416E+03    14.2976   3.5492    83.5261
 31      0.0000     0.0000E+00    0.0000E+00    1.000000E+07  0.00040  8.053E-03    0   0.8877   age070_m32            0.0000     2.1544E+03    14.0501   3.5122    83.9708
 32      0.0000     0.0000E+00    0.0000E+00    1.445000E+07  0.00040  7.027E-03    0   0.8578   age078_m32            0.0000     1.4618E+03    11.9893   2.9763    89.1386
 33      0.0000     0.0000E+00    0.0000E+00    2.512000E+07  0.00040  4.707E-03    0   0.8166   age090_m32            0.0000     1.0040E+03     9.9149   2.6748    92.9327
 34      0.0000     0.0000E+00    0.0000E+00    4.000000E+07  0.00040  3.714E-03    0   0.7827   age104_m32            0.0000     7.4348E+02     7.9888   2.4679    96.2682
 35      0.0000     0.0000E+00    0.0000E+00    5.500000E+07  0.00040  2.982E-03    0   0.7593   age110_m32            0.0000     7.0470E+02     7.3974   2.4058    97.3889
 36      0.0000     0.0000E+00    0.0000E+00    1.015200E+08  0.00040  2.188E-03    0   0.7143   age116_m32            0.0000     9.1840E+02     7.1291   2.1441   101.3422
 37      0.0000     0.0000E+00    0.0000E+00    1.609000E+08  0.00040  1.690E-03    0   0.6856   age120_m32            0.0000     1.2743E+03     7.9503   1.9454   103.7596
 38      0.0000     0.0000E+00    0.0000E+00    2.861200E+08  0.00040  1.152E-03    0   0.6509   age125_m32            0.0000     1.5878E+03     8.5455   1.7334   105.1548
 39      0.0000     0.0000E+00    0.0000E+00    5.088000E+08  0.00040  7.331E-04    0   0.6182   age130_m32            0.0000     1.7025E+03     8.7290   1.5676   105.7928
 40      0.0000     0.0000E+00    0.0000E+00    9.047900E+08  0.00040  3.960E-04    0   0.5890   age135_m32            0.0000     8.9062E+02     6.4267   1.0852   104.8550
 41      0.0000     0.0000E+00    0.0000E+00    1.278050E+09  0.00040  2.854E-04    0   0.5687   age138_m32            0.0000     7.3380E+02     6.0500   0.7839   106.8986
 42      0.0000     0.0000E+00    0.0000E+00    1.434000E+09  0.00040  2.531E-04    0   0.5632   age139_m32            0.0000     7.2131E+02     6.0300   0.7212   106.9294
 43      1.4599     7.1632E-01    7.3622E-01    2.500000E+09  0.00040  1.488E-04    0   0.5386   age150_m32            0.0000     4.7851E+02     4.9855   0.4548   105.5964
 44     19.7151     1.5849E+01    1.5724E+01    4.250000E+09  0.00040  9.082E-05    0   0.5199   age158_m32            0.0000     1.4510E+02     3.0066   0.3412   102.7237
 45      1.1028     1.2655E+00    1.2258E+00    6.250000E+09  0.00040  6.362E-05    0   0.5076   age166_m32            0.0000     1.2354E+02     3.1843   0.2941    99.5103
 46      9.3449     1.2900E+01    1.2375E+01    7.500000E+09  0.00040  5.289E-05    0   0.5027   age171_m32            0.0000     1.2572E+02     3.2309   0.2562    98.2759
 47     14.2379     2.6171E+01    2.4711E+01    1.000000E+10  0.00040  3.972E-05    0   0.4948   age181_m32            0.0000     1.1922E+02     3.0988   0.1913    96.9481
 48      0.0950     2.1123E-01    1.9630E-01    1.300000E+10  0.00040  3.283E-05    0   0.4870   age193_m32            0.0000     7.1341E+01     2.3588   0.1504    99.5193
 49      0.0000     0.0000E+00    0.0000E+00    1.500000E+10  0.00040  2.925E-05    0   0.4854   age201_m32            0.0000     7.7781E+01     2.2694   0.1345   101.0024
 50      0.0000     0.0000E+00    0.0000E+00    1.800000E+10  0.00040  2.469E-05    0   0.4819   age213_m32            0.0000     8.2309E+01     2.2803   0.0951   101.4622
 51      0.0000     0.0000E+00    0.0000E+00    1.000000E+06  0.00400  1.114E-02    0   1.0000   age020_m42            0.0000     2.7598E+03    15.3715   3.7055    78.8791
 52      0.0000     0.0000E+00    0.0000E+00    3.160000E+06  0.00400  4.073E-02    0   0.9999   age045_m42            0.0000     7.7118E+02     8.6462   2.7178    93.4085
 53      0.0000     0.0000E+00    0.0000E+00    5.010000E+06  0.00400  2.534E-02    0   0.9488   age055_m42            0.0000     1.5699E+03    12.1599   3.1285    86.8890
 54      0.0000     0.0000E+00    0.0000E+00    6.610000E+06  0.00400  2.583E-02    0   0.9220   age061_m42            0.0000     6.8818E+02     8.0634   2.5218    94.2292
 55      0.0000     0.0000E+00    0.0000E+00    8.710000E+06  0.00400  1.706E-02    0   0.8983   age067_m42            0.0000     1.0645E+03    10.3747   2.3437    92.2259
 56      0.0000     0.0000E+00    0.0000E+00    1.000000E+07  0.00400  1.271E-02    0   0.8862   age070_m42            0.0000     1.4656E+03    12.2127   2.3327    90.5779
 57      0.0000     0.0000E+00    0.0000E+00    1.445000E+07  0.00400  7.666E-03    0   0.8571   age078_m42            0.0000     1.8162E+03    13.1789   2.7434    87.2145
 58      0.0000     0.0000E+00    0.0000E+00    2.512000E+07  0.00400  5.070E-03    0   0.8174   age090_m42            0.0000     1.2785E+03    11.4020   2.2017    92.0341
 59      0.0000     0.0000E+00    0.0000E+00    4.000000E+07  0.00400  3.505E-03    0   0.7851   age104_m42            0.0000     8.2657E+02     9.0916   1.8787    94.8762
 60      0.0000     0.0000E+00    0.0000E+00    5.500000E+07  0.00400  3.059E-03    0   0.7629   age110_m42            0.0000     5.1860E+02     6.0689   1.9335    99.3954
 61      0.0000     0.0000E+00    0.0000E+00    1.015200E+08  0.00400  2.268E-03    0   0.7207   age116_m42            0.0000     1.0569E+03     6.9970   1.8508   104.3362
 62      0.0000     0.0000E+00    0.0000E+00    1.609000E+08  0.00400  1.720E-03    0   0.6930   age120_m42            0.0000     1.1244E+03     7.0448   1.7147   105.9685
 63      0.0000     0.0000E+00    0.0000E+00    2.861200E+08  0.00400  1.079E-03    0   0.6613   age125_m42            0.0000     1.1390E+03     7.1129   1.3703   105.9683
 64      0.0000     0.0000E+00    0.0000E+00    5.088000E+08  0.00400  6.261E-04    0   0.6313   age130_m42            0.0000     1.3716E+03     7.6927   1.1757   108.6798
 65      0.0000     0.0000E+00    0.0000E+00    9.047900E+08  0.00400  3.535E-04    0   0.6024   age135_m42            0.0000     7.7123E+02     5.7543   0.7517   109.4089
 66      0.0000     0.0000E+00    0.0000E+00    1.278050E+09  0.00400  2.677E-04    0   0.5837   age138_m42            0.0000     2.1863E+02     3.8200   0.0347   107.0765
 67      0.0083     3.1706E-03    3.4583E-03    1.434000E+09  0.00400  1.910E-04    0   0.5716   age139_m42            0.0000     2.8174E+02     3.8500   0.2121   107.9277
 68     34.0464     2.5318E+01    2.6393E+01    2.500000E+09  0.00400  9.818E-05    0   0.5463   age150_m42            0.0000     6.6382E+01     2.5273  -0.0736   103.4921
 69      0.0000     0.0000E+00    0.0000E+00    4.250000E+09  0.00400  5.491E-05    0   0.5269   age158_m42            0.0000     1.0575E+02     2.8124  -0.2007   100.7804
 70      1.0718     2.0288E+00    1.9942E+00    6.250000E+09  0.00400  3.857E-05    0   0.5151   age166_m42            0.0000     2.0353E+02     3.7047  -0.3302    99.4107
 71      1.0719     2.4133E+00    2.3532E+00    7.500000E+09  0.00400  3.243E-05    0   0.5110   age171_m42            0.0000     2.7498E+02     4.2355  -0.4102    98.8217
 72      0.0000     0.0000E+00    0.0000E+00    1.000000E+10  0.00400  2.424E-05    0   0.5028   age181_m42            0.0000     3.8354E+02     4.9264  -0.4922    98.1886
 73      0.0000     0.0000E+00    0.0000E+00    1.300000E+10  0.00400  1.883E-05    0   0.4927   age193_m42            0.0000     4.7355E+02     5.4375  -0.5350    97.9190
 74      0.0000     0.0000E+00    0.0000E+00    1.500000E+10  0.00400  1.685E-05    0   0.4919   age201_m42            0.0000     4.4790E+02     5.2677  -0.5283    97.9178
 75      0.4408     2.2164E+00    2.0614E+00    1.800000E+10  0.00400  1.452E-05    0   0.4874   age213_m42            0.0000     4.0119E+02     4.9797  -0.5111    98.1669
 76      0.0000     0.0000E+00    0.0000E+00    1.000000E+06  0.00800  1.286E-02    0   1.0000   age020_m52            0.0000     2.4619E+03    14.6333   3.6872    80.5903
 77      0.0000     0.0000E+00    0.0000E+00    3.160000E+06  0.00800  3.147E-02    0   0.9966   age045_m52            0.0000     2.3723E+03    14.4916   3.5921    82.1909
 78      0.0000     0.0000E+00    0.0000E+00    5.010000E+06  0.00800  2.664E-02    0   0.9443   age055_m52            0.0000     1.8055E+03    12.7975   3.2536    85.6123
 79      0.0000     0.0000E+00    0.0000E+00    6.610000E+06  0.00800  2.151E-02    0   0.9177   age061_m52            0.0000     1.1526E+03    10.4575   1.9276    92.0433
 80      0.0000     0.0000E+00    0.0000E+00    8.710000E+06  0.00800  1.628E-02    0   0.8948   age067_m52            0.0000     1.2003E+03    10.9292   2.3081    92.2190
 81      0.0000     0.0000E+00    0.0000E+00    1.000000E+07  0.00800  1.215E-02    0   0.8827   age070_m52            0.0000     1.4472E+03    11.9157   2.6570    90.2467
 82      0.0000     0.0000E+00    0.0000E+00    1.445000E+07  0.00800  8.739E-03    0   0.8552   age078_m52            0.0000     1.2294E+03    10.9222   2.6954    91.6164
 83      0.0000     0.0000E+00    0.0000E+00    2.512000E+07  0.00800  5.676E-03    0   0.8162   age090_m52            0.0000     9.1788E+02     9.1151   2.2884    96.4244
 84      0.0000     0.0000E+00    0.0000E+00    4.000000E+07  0.00800  3.939E-03    0   0.7841   age104_m52            0.0000     7.5348E+02     7.5709   2.1286    98.7976
 85      0.0000     0.0000E+00    0.0000E+00    5.500000E+07  0.00800  3.155E-03    0   0.7627   age110_m52            0.0000     7.1579E+02     6.8021   2.0961   100.4280
 86      0.0000     0.0000E+00    0.0000E+00    1.015200E+08  0.00800  2.206E-03    0   0.7226   age116_m52            0.0000     8.2747E+02     6.3949   1.9038   104.2250
 87      0.0000     0.0000E+00    0.0000E+00    1.609000E+08  0.00800  1.596E-03    0   0.6963   age120_m52            0.0000     9.5828E+02     6.6194   1.6964   105.6252
 88      0.0000     0.0000E+00    0.0000E+00    2.861200E+08  0.00800  1.002E-03    0   0.6665   age125_m52            0.0000     1.3947E+03     7.6383   1.4118   107.8835
 89      0.0000     0.0000E+00    0.0000E+00    5.088000E+08  0.00800  5.759E-04    0   0.6377   age130_m52            0.0000     1.4534E+03     8.0545   1.0569   111.7272
 90      0.0000     0.0000E+00    0.0000E+00    9.047900E+08  0.00800  2.972E-04    0   0.6086   age135_m52            0.0000     6.8841E+02     6.3400   0.4946   111.0955
 91      0.0000     0.0000E+00    0.0000E+00    1.278050E+09  0.00800  2.242E-04    0   0.5907   age138_m52            0.0000     2.7749E+02     4.6969  -0.1478   110.0651
 92      0.0000     0.0000E+00    0.0000E+00    1.434000E+09  0.00800  1.645E-04    0   0.5787   age139_m52            0.0000     2.0992E+02     4.0096   0.0012   109.6094
 93      0.0000     0.0000E+00    0.0000E+00    2.500000E+09  0.00800  7.723E-05    0   0.5519   age150_m52            0.0000     2.2690E+02     4.3901  -0.3452   105.9108
 94      0.0000     0.0000E+00    0.0000E+00    4.250000E+09  0.00800  4.151E-05    0   0.5320   age158_m52            0.0000     2.6874E+02     4.4906  -0.4140   103.3719
 95      0.0000     0.0000E+00    0.0000E+00    6.250000E+09  0.00800  3.010E-05    0   0.5197   age166_m52            0.0000     4.5761E+02     5.6525  -0.6096   101.8690
 96      0.0000     0.0000E+00    0.0000E+00    7.500000E+09  0.00800  2.467E-05    0   0.5139   age171_m52            0.0000     5.1458E+02     5.9796  -0.6529   101.4661
 97      0.0000     0.0000E+00    0.0000E+00    1.000000E+10  0.00800  1.862E-05    0   0.5054   age181_m52            0.0000     6.9703E+02     6.9910  -0.7869   101.0186
