###################################################################
## OUTPUT of StarlightChains_v04.for    [Cid@UFSC - 01/Apr/2007] ##
###################################################################

## Some input info
NGC1904_b_1.cxt                          [arq_obs]
Base.BC03.S                              [arq_base]
NGC1904_b_1.msk                          [arq_masks]
StCv04.C99.config                        [arq_config]
  150                                    [N_base]
    0                                    [N_YAV_components = # of components with extra extinction!]
    0                                    [i_FitPowerLaw (1/0 = Yes/No)]
-9.99                                    [alpha_PowerLaw]
CCM                                      [red_law_option]
 1.458241                                [q_norm = A(l_norm)/A(V)]

## (Re)Sampling Parameters
 3359.00                                 [l_ini (A)]
 6428.00                                 [l_fin (A)]
    1.00                                 [dl    (A)]     (OBS: dl_cushion =    50.00 A)

## Normalization info
 4020.00                                 [l_norm (A) - for base]
 4010.00                                 [llow_norm (A) - window for f_obs]
 4060.00                                 [lupp_norm (A) - window for f_obs]
3.423556E-14                             [fobs_norm (in input units)]

## S/N
 4730.00                                 [llow_SN (A) - window for S/N]
 4780.00                                 [lupp_SN (A) - window for S/N]
 126.287                                 [S/N in S/N window]
 125.997                                 [S/N in norm. window]
 129.607                                 [S/N_err in S/N window]
 129.310                                 [S/N_err in norm. window]
  1.0000                                 [fscale_chi2]

## etc...
  2147483645                             [idum_orig]
  3064                                   [NOl_eff]
  2186                                   [Nl_eff]
   878    NSIGMA                         [Ntot_cliped & clip_method]
  3050110                                [Nglobal_steps]
   7                                     [N_chains]
  17                                     [NEX0s_base = N_base in EX0s-fits]
 0   0   1      245   2.0   2.751E+02    [Clip-Bug, RC-Crash & Burn-In warning-flags, n_censored_weights, wei_nsig_threshold & wei_limit]
   122    122.653    122.633      0.020  [idt_all, wdt_TotTime, wdt_UsrTime & wdt_SysTime (sec)]

## Synthesis Results - Best model ##

 2.09743E+00                             [chi2/Nl_eff]
     1.14362                             [adev (%)]

   101.46802                             [sum-of-x (%)]
 4.04167E-14                             [Flux_tot (units of input spectrum!)]
 3.73088E-10                             [Mini_tot (???)]
 1.96122E-10                             [Mcor_tot (???)]

 -22.86                                  [v0_min  (km/s)]
  70.63                                  [vd_min  (km/s)]
 0.1127                                  [AV_min  (mag)]
 0.0000                                  [YAV_min (mag)]

# j     x_j(%)      Mini_j(%)     Mcor_j(%)     age_j(yr)     Z_j      (L/M)_j    YAV?  Mstars   component_j        a/Fe...       SSP_chi2r SSP_adev(%)   SSP_AV   SSP_x(%)
  1      0.0000     0.0000E+00    0.0000E+00    1.000000E+06  0.00010  8.160E-03    0   1.0000   age020_m22            0.0000     3.3269E+02    11.2520   3.4213    74.5066
  2     17.1476     3.8469E-02    7.3180E-02    3.160000E+06  0.00010  4.759E-02    0   1.0000   age045_m22            0.0000     3.8553E+01     4.2376   1.3680    95.6342
  3      0.0000     0.0000E+00    0.0000E+00    5.010000E+06  0.00010  1.932E-02    0   0.9582   age055_m22            0.0000     2.9440E+02    11.3742   1.7206    80.6269
  4      0.0000     0.0000E+00    0.0000E+00    6.610000E+06  0.00010  9.973E-03    0   0.9297   age061_m22            0.0000     3.2221E+02    11.4953   3.3806    77.2171
  5      0.0000     0.0000E+00    0.0000E+00    8.710000E+06  0.00010  7.690E-03    0   0.9030   age067_m22            0.0000     3.0520E+02    11.1852   3.3710    77.7024
  6      0.0000     0.0000E+00    0.0000E+00    1.000000E+07  0.00010  6.375E-03    0   0.8902   age070_m22            0.0000     2.9151E+02    10.9193   3.3829    77.9235
  7      0.0000     0.0000E+00    0.0000E+00    1.445000E+07  0.00010  4.874E-03    0   0.8589   age078_m22            0.0000     2.1500E+02     9.4036   3.1935    81.0840
  8      0.0000     0.0000E+00    0.0000E+00    2.512000E+07  0.00010  4.103E-03    0   0.8174   age090_m22            0.0000     8.6287E+01     6.1869   2.7680    88.2788
  9      0.0000     0.0000E+00    0.0000E+00    4.000000E+07  0.00010  3.654E-03    0   0.7830   age104_m22            0.0000     3.8771E+01     3.9162   2.4501    93.9355
 10      0.0000     0.0000E+00    0.0000E+00    5.500000E+07  0.00010  3.093E-03    0   0.7597   age110_m22            0.0000     3.3454E+01     3.3051   2.3400    95.9004
 11      0.0000     0.0000E+00    0.0000E+00    1.015200E+08  0.00010  2.431E-03    0   0.7138   age116_m22            0.0000     4.5526E+01     3.1426   1.9846    99.3234
 12      0.0000     0.0000E+00    0.0000E+00    1.609000E+08  0.00010  1.319E-03    0   0.6775   age120_m22            0.0000     4.4309E+01     3.0303   1.5078   101.6809
 13      0.0000     0.0000E+00    0.0000E+00    2.861200E+08  0.00010  1.075E-03    0   0.6412   age125_m22            0.0000     1.6980E+02     5.7435   1.5416   106.8096
 14      0.0000     0.0000E+00    0.0000E+00    5.088000E+08  0.00010  7.183E-04    0   0.6083   age130_m22            0.0000     2.2567E+02     6.9932   1.3014   109.0506
 15      0.0000     0.0000E+00    0.0000E+00    9.047900E+08  0.00010  4.524E-04    0   0.5785   age135_m22            0.0000     2.3274E+02     7.2450   1.1018   110.3497
 16      0.0000     0.0000E+00    0.0000E+00    1.278050E+09  0.00010  3.018E-04    0   0.5588   age138_m22            0.0000     8.9596E+01     4.4604   0.5865   107.5760
 17      0.0000     0.0000E+00    0.0000E+00    1.434000E+09  0.00010  2.691E-04    0   0.5532   age139_m22            0.0000     6.7878E+01     3.9323   0.4347   106.7780
 18      0.0000     0.0000E+00    0.0000E+00    2.500000E+09  0.00010  1.582E-04    0   0.5296   age150_m22            0.0000     5.3443E+01     3.3992   0.3285   107.1626
 19      0.0000     0.0000E+00    0.0000E+00    4.250000E+09  0.00010  1.007E-04    0   0.5110   age158_m22            0.0000     1.9303E+01     2.2351   0.1856   104.8893
 20      0.0000     0.0000E+00    0.0000E+00    6.250000E+09  0.00010  6.869E-05    0   0.4985   age166_m22            0.0000     4.3408E+00     1.3848   0.1373   101.5318
 21      0.0000     0.0000E+00    0.0000E+00    7.500000E+09  0.00010  5.873E-05    0   0.4931   age171_m22            0.0000     4.4662E+00     1.4513   0.1282   100.8268
 22      0.0000     0.0000E+00    0.0000E+00    1.000000E+10  0.00010  4.481E-05    0   0.4854   age181_m22            0.0000     4.2024E+00     1.4280   0.0901   100.4579
 23      0.0000     0.0000E+00    0.0000E+00    1.300000E+10  0.00010  3.489E-05    0   0.4791   age193_m22            0.0000     3.8023E+00     1.3890   0.0338    99.8816
 24      0.0000     0.0000E+00    0.0000E+00    1.500000E+10  0.00010  3.035E-05    0   0.4766   age201_m22            0.0000     3.7928E+00     1.3954  -0.0048    99.6530
 25      0.0471     2.0052E-01    1.8062E-01    1.800000E+10  0.00010  2.510E-05    0   0.4735   age213_m22            0.0000     4.4432E+00     1.4756  -0.0716    98.9361
 26      0.0000     0.0000E+00    0.0000E+00    1.000000E+06  0.00040  8.458E-03    0   1.0000   age020_m32            0.0000     3.2687E+02    11.2523   3.4345    75.1631
 27      0.0000     0.0000E+00    0.0000E+00    3.160000E+06  0.00040  3.973E-02    0   1.0000   age045_m32            0.0000     1.0011E+02     6.6806   2.6666    88.1241
 28      0.0000     0.0000E+00    0.0000E+00    5.010000E+06  0.00040  1.935E-02    0   0.9532   age055_m32            0.0000     2.4056E+02    10.2411   2.9202    81.2946
 29      0.0000     0.0000E+00    0.0000E+00    6.610000E+06  0.00040  1.204E-02    0   0.9243   age061_m32            0.0000     2.6797E+02    10.5401   3.2358    79.3535
 30      0.0000     0.0000E+00    0.0000E+00    8.710000E+06  0.00040  9.433E-03    0   0.9001   age067_m32            0.0000     2.3959E+02     9.9745   3.2041    80.3715
 31      0.0000     0.0000E+00    0.0000E+00    1.000000E+07  0.00040  8.053E-03    0   0.8877   age070_m32            0.0000     2.2853E+02     9.7476   3.1675    80.8698
 32      0.0000     0.0000E+00    0.0000E+00    1.445000E+07  0.00040  7.027E-03    0   0.8578   age078_m32            0.0000     1.3157E+02     7.7039   2.6328    86.5354
 33      0.0000     0.0000E+00    0.0000E+00    2.512000E+07  0.00040  4.707E-03    0   0.8166   age090_m32            0.0000     7.1178E+01     5.8037   2.3236    91.0406
 34      0.0000     0.0000E+00    0.0000E+00    4.000000E+07  0.00040  3.714E-03    0   0.7827   age104_m32            0.0000     3.7490E+01     4.0179   2.1057    95.1022
 35      0.0000     0.0000E+00    0.0000E+00    5.500000E+07  0.00040  2.982E-03    0   0.7593   age110_m32            0.0000     3.3061E+01     3.4713   2.0377    96.6303
 36      0.0000     0.0000E+00    0.0000E+00    1.015200E+08  0.00040  2.188E-03    0   0.7143   age116_m32            0.0000     7.1587E+01     3.5069   1.7480   102.2156
 37      0.0000     0.0000E+00    0.0000E+00    1.609000E+08  0.00040  1.690E-03    0   0.6856   age120_m32            0.0000     1.2751E+02     4.5863   1.5261   105.6020
 38      0.0000     0.0000E+00    0.0000E+00    2.861200E+08  0.00040  1.152E-03    0   0.6509   age125_m32            0.0000     1.8488E+02     6.1056   1.2898   108.1405
 39      0.0000     0.0000E+00    0.0000E+00    5.088000E+08  0.00040  7.331E-04    0   0.6182   age130_m32            0.0000     2.0949E+02     6.8072   1.1213   109.1755
 40      0.0000     0.0000E+00    0.0000E+00    9.047900E+08  0.00040  3.960E-04    0   0.5890   age135_m32            0.0000     9.6170E+01     4.9520   0.6755   107.0293
 41      0.0000     0.0000E+00    0.0000E+00    1.278050E+09  0.00040  2.854E-04    0   0.5687   age138_m32            0.0000     6.7246E+01     3.8437   0.3917   108.3499
 42      0.0000     0.0000E+00    0.0000E+00    1.434000E+09  0.00040  2.531E-04    0   0.5632   age139_m32            0.0000     6.4572E+01     3.7332   0.3302   108.2920
 43     15.4860     1.1111E+01    1.1384E+01    2.500000E+09  0.00040  1.488E-04    0   0.5386   age150_m32            0.0000     3.6129E+01     2.8661   0.0744   106.2929
 44     54.5670     6.4146E+01    6.3441E+01    4.250000E+09  0.00040  9.082E-05    0   0.5199   age158_m32            0.0000     3.7171E+00     1.2593  -0.0086   102.0096
 45      0.0000     0.0000E+00    0.0000E+00    6.250000E+09  0.00040  6.362E-05    0   0.5076   age166_m32            0.0000     1.1856E+01     2.0276  -0.0345    97.7384
 46      1.6146     3.2591E+00    3.1167E+00    7.500000E+09  0.00040  5.289E-05    0   0.5027   age171_m32            0.0000     1.6837E+01     2.2520  -0.0690    96.3935
 47      3.2462     8.7255E+00    8.2130E+00    1.000000E+10  0.00040  3.972E-05    0   0.4948   age181_m32            0.0000     2.0887E+01     2.3429  -0.1305    95.0502
 48      0.0029     9.2990E-03    8.6149E-03    1.300000E+10  0.00040  3.283E-05    0   0.4870   age193_m32            0.0000     7.3050E+00     1.6543  -0.1822    98.1517
 49      0.0000     0.0000E+00    0.0000E+00    1.500000E+10  0.00040  2.925E-05    0   0.4854   age201_m32            0.0000     3.9287E+00     1.4088  -0.2049    99.9675
 50      0.0000     0.0000E+00    0.0000E+00    1.800000E+10  0.00040  2.469E-05    0   0.4819   age213_m32            0.0000     3.8326E+00     1.4062  -0.2475   100.5820
 51      0.0000     0.0000E+00    0.0000E+00    1.000000E+06  0.00400  1.114E-02    0   1.0000   age020_m42            0.0000     3.1454E+02    10.9649   3.3637    75.6586
 52      0.0000     0.0000E+00    0.0000E+00    3.160000E+06  0.00400  4.073E-02    0   0.9999   age045_m42            0.0000     6.2366E+01     5.3136   2.3519    91.2648
 53      0.0000     0.0000E+00    0.0000E+00    5.010000E+06  0.00400  2.534E-02    0   0.9488   age055_m42            0.0000     1.5983E+02     8.1833   2.7841    84.0625
 54      0.0000     0.0000E+00    0.0000E+00    6.610000E+06  0.00400  2.583E-02    0   0.9220   age061_m42            0.0000     4.5309E+01     4.5202   2.1655    92.3934
 55      0.0000     0.0000E+00    0.0000E+00    8.710000E+06  0.00400  1.706E-02    0   0.8983   age067_m42            0.0000     9.0236E+01     6.6113   2.0066    89.7606
 56      0.0000     0.0000E+00    0.0000E+00    1.000000E+07  0.00400  1.271E-02    0   0.8862   age070_m42            0.0000     1.3785E+02     8.2298   2.0029    87.7908
 57      0.0000     0.0000E+00    0.0000E+00    1.445000E+07  0.00400  7.666E-03    0   0.8571   age078_m42            0.0000     1.8656E+02     9.0235   2.4140    84.3309
 58      0.0000     0.0000E+00    0.0000E+00    2.512000E+07  0.00400  5.070E-03    0   0.8174   age090_m42            0.0000     1.1868E+02     7.6658   1.8663    89.5861
 59      0.0000     0.0000E+00    0.0000E+00    4.000000E+07  0.00400  3.505E-03    0   0.7851   age104_m42            0.0000     7.0722E+01     5.9598   1.5360    93.0668
 60      0.0000     0.0000E+00    0.0000E+00    5.500000E+07  0.00400  3.059E-03    0   0.7629   age110_m42            0.0000     2.4218E+01     2.8962   1.5645    99.1112
 61      0.0000     0.0000E+00    0.0000E+00    1.015200E+08  0.00400  2.268E-03    0   0.7207   age116_m42            0.0000     1.0489E+02     4.3122   1.4420   106.1203
 62      0.0000     0.0000E+00    0.0000E+00    1.609000E+08  0.00400  1.720E-03    0   0.6930   age120_m42            0.0000     1.2205E+02     4.9572   1.2918   108.1525
 63      0.1061     1.0493E-02    1.3201E-02    2.861200E+08  0.00400  1.079E-03    0   0.6613   age125_m42            0.0000     1.2761E+02     5.1450   0.9386   108.5465
 64      0.0000     0.0000E+00    0.0000E+00    5.088000E+08  0.00400  6.261E-04    0   0.6313   age130_m42            0.0000     1.5920E+02     5.7452   0.7427   111.6449
 65      1.1649     3.5181E-01    4.0315E-01    9.047900E+08  0.00400  3.535E-04    0   0.6024   age135_m42            0.0000     8.0717E+01     4.3735   0.3529   111.2147
 66      0.0000     0.0000E+00    0.0000E+00    1.278050E+09  0.00400  2.677E-04    0   0.5837   age138_m42            0.0000     4.4370E+01     4.1755  -0.3177   107.5461
 67      0.0000     0.0000E+00    0.0000E+00    1.434000E+09  0.00400  1.910E-04    0   0.5716   age139_m42            0.0000     4.2642E+01     4.0570  -0.1565   108.8380
 68      2.0027     2.1778E+00    2.2633E+00    2.500000E+09  0.00400  9.818E-05    0   0.5463   age150_m42            0.0000     4.1902E+01     3.8357  -0.4059   102.8625
 69      0.0000     0.0000E+00    0.0000E+00    4.250000E+09  0.00400  5.491E-05    0   0.5269   age158_m42            0.0000     6.0922E+01     4.0889  -0.5193    99.4751
 70      0.0000     0.0000E+00    0.0000E+00    6.250000E+09  0.00400  3.857E-05    0   0.5151   age166_m42            0.0000     8.5263E+01     4.6943  -0.6408    97.9293
 71      0.0000     0.0000E+00    0.0000E+00    7.500000E+09  0.00400  3.243E-05    0   0.5110   age171_m42            0.0000     1.0169E+02     5.0676  -0.7168    97.2798
 72      0.0000     0.0000E+00    0.0000E+00    1.000000E+10  0.00400  2.424E-05    0   0.5028   age181_m42            0.0000     1.2616E+02     5.5427  -0.7929    96.5092
 73      0.0000     0.0000E+00    0.0000E+00    1.300000E+10  0.00400  1.883E-05    0   0.4927   age193_m42            0.0000     1.4668E+02     5.8802  -0.8290    96.0311
 74      0.0000     0.0000E+00    0.0000E+00    1.500000E+10  0.00400  1.685E-05    0   0.4919   age201_m42            0.0000     1.4123E+02     5.7962  -0.8259    96.0801
 75      0.0000     0.0000E+00    0.0000E+00    1.800000E+10  0.00400  1.452E-05    0   0.4874   age213_m42            0.0000     1.3117E+02     5.6324  -0.8123    96.3732
 76      0.0000     0.0000E+00    0.0000E+00    1.000000E+06  0.00800  1.286E-02    0   1.0000   age020_m52            0.0000     2.7710E+02    10.3980   3.3363    77.5008
 77      0.0000     0.0000E+00    0.0000E+00    3.160000E+06  0.00800  3.147E-02    0   0.9966   age045_m52            0.0000     2.6279E+02    10.2396   3.2477    79.0599
 78      0.0000     0.0000E+00    0.0000E+00    5.010000E+06  0.00800  2.664E-02    0   0.9443   age055_m52            0.0000     1.8909E+02     8.6865   2.9120    82.8354
 79      0.0000     0.0000E+00    0.0000E+00    6.610000E+06  0.00800  2.151E-02    0   0.9177   age061_m52            0.0000     1.2331E+02     7.3702   1.5950    89.4754
 80      0.0000     0.0000E+00    0.0000E+00    8.710000E+06  0.00800  1.628E-02    0   0.8948   age067_m52            0.0000     1.0852E+02     7.1933   1.9668    89.9472
 81      0.0000     0.0000E+00    0.0000E+00    1.000000E+07  0.00800  1.215E-02    0   0.8827   age070_m52            0.0000     1.3464E+02     7.8812   2.3135    87.8906
 82      0.0000     0.0000E+00    0.0000E+00    1.445000E+07  0.00800  8.739E-03    0   0.8552   age078_m52            0.0000     1.0421E+02     6.9372   2.3474    89.5161
 83      0.0000     0.0000E+00    0.0000E+00    2.512000E+07  0.00800  5.676E-03    0   0.8162   age090_m52            0.0000     6.0177E+01     5.4519   1.9290    94.9970
 84      0.0000     0.0000E+00    0.0000E+00    4.000000E+07  0.00800  3.939E-03    0   0.7841   age104_m52            0.0000     4.1264E+01     4.0367   1.7553    98.1448
 85      0.0000     0.0000E+00    0.0000E+00    5.500000E+07  0.00800  3.155E-03    0   0.7627   age110_m52            0.0000     4.0136E+01     3.1733   1.7147   100.4778
 86      0.0000     0.0000E+00    0.0000E+00    1.015200E+08  0.00800  2.206E-03    0   0.7226   age116_m52            0.0000     7.0207E+01     3.4959   1.5100   105.4451
 87      0.0000     0.0000E+00    0.0000E+00    1.609000E+08  0.00800  1.596E-03    0   0.6963   age120_m52            0.0000     9.3372E+01     4.2437   1.2876   107.5241
 88      0.0000     0.0000E+00    0.0000E+00    2.861200E+08  0.00800  1.002E-03    0   0.6665   age125_m52            0.0000     1.7324E+02     6.4763   0.9761   111.2553
 89      0.0000     0.0000E+00    0.0000E+00    5.088000E+08  0.00800  5.759E-04    0   0.6377   age130_m52            0.0000     1.9747E+02     7.4655   0.6193   115.7092
 90      0.0000     0.0000E+00    0.0000E+00    9.047900E+08  0.00800  2.972E-04    0   0.6086   age135_m52            0.0000     1.0916E+02     6.2845   0.0966   113.6622
 91      0.0000     0.0000E+00    0.0000E+00    1.278050E+09  0.00800  2.242E-04    0   0.5907   age138_m52            0.0000     7.4405E+01     5.3831  -0.4944   110.7224
 92      0.0000     0.0000E+00    0.0000E+00    1.434000E+09  0.00800  1.645E-04    0   0.5787   age139_m52            0.0000     5.8610E+01     4.8355  -0.3447   109.9931
 93      0.0000     0.0000E+00    0.0000E+00    2.500000E+09  0.00800  7.723E-05    0   0.5519   age150_m52            0.0000     8.6060E+01     5.2620  -0.6654   105.2072
 94      0.0000     0.0000E+00    0.0000E+00    4.250000E+09  0.00800  4.151E-05    0   0.5320   age158_m52            0.0000     9.9870E+01     5.3361  -0.7271   102.2614
 95      0.0000     0.0000E+00    0.0000E+00    6.250000E+09  0.00800  3.010E-05    0   0.5197   age166_m52            0.0000     1.4324E+02     6.1550  -0.9137   100.5676
 96      0.0000     0.0000E+00    0.0000E+00    7.500000E+09  0.00800  2.467E-05    0   0.5139   age171_m52            0.0000     1.5529E+02     6.3757  -0.9540   100.1315
 97      0.0052     3.0042E-02    2.8884E-02    1.000000E+10  0.00800  1.862E-05    0   0.5054   age181_m52            0.0000     1.9739E+02     6.6333  -1.0000    97.7494
