###################################################################
## OUTPUT of StarlightChains_v04.for    [Cid@UFSC - 01/Apr/2007] ##
###################################################################

## Some input info
NGC1904_a_1.cxt                          [arq_obs]
Base.BC03.S                              [arq_base]
NGC1904_a_1.msk                          [arq_masks]
StCv04.C99.config                        [arq_config]
  150                                    [N_base]
    0                                    [N_YAV_components = # of components with extra extinction!]
    0                                    [i_FitPowerLaw (1/0 = Yes/No)]
-9.99                                    [alpha_PowerLaw]
CCM                                      [red_law_option]
 1.458241                                [q_norm = A(l_norm)/A(V)]

## (Re)Sampling Parameters
 3359.00                                 [l_ini (A)]
 6428.00                                 [l_fin (A)]
    1.00                                 [dl    (A)]     (OBS: dl_cushion =    50.00 A)

## Normalization info
 4020.00                                 [l_norm (A) - for base]
 4010.00                                 [llow_norm (A) - window for f_obs]
 4060.00                                 [lupp_norm (A) - window for f_obs]
1.460937E-14                             [fobs_norm (in input units)]

## S/N
 4730.00                                 [llow_SN (A) - window for S/N]
 4780.00                                 [lupp_SN (A) - window for S/N]
 130.069                                 [S/N in S/N window]
 127.140                                 [S/N in norm. window]
 564.433                                 [S/N_err in S/N window]
 551.723                                 [S/N_err in norm. window]
  1.0000                                 [fscale_chi2]

## etc...
  2147483646                             [idum_orig]
  3064                                   [NOl_eff]
   364                                   [Nl_eff]
  2700    NSIGMA                         [Ntot_cliped & clip_method]
 10519740                                [Nglobal_steps]
   7                                     [N_chains]
  15                                     [NEX0s_base = N_base in EX0s-fits]
 0   0   1      254   2.0   1.168E+03    [Clip-Bug, RC-Crash & Burn-In warning-flags, n_censored_weights, wei_nsig_threshold & wei_limit]
   426    425.831    425.803      0.028  [idt_all, wdt_TotTime, wdt_UsrTime & wdt_SysTime (sec)]

## Synthesis Results - Best model ##

 2.65694E+00                             [chi2/Nl_eff]
     0.38326                             [adev (%)]

   102.56728                             [sum-of-x (%)]
 1.57297E-14                             [Flux_tot (units of input spectrum!)]
 1.56227E-10                             [Mini_tot (???)]
 8.16430E-11                             [Mcor_tot (???)]

 -19.82                                  [v0_min  (km/s)]
  68.96                                  [vd_min  (km/s)]
 0.0361                                  [AV_min  (mag)]
 0.0000                                  [YAV_min (mag)]

# j     x_j(%)      Mini_j(%)     Mcor_j(%)     age_j(yr)     Z_j      (L/M)_j    YAV?  Mstars   component_j        a/Fe...       SSP_chi2r SSP_adev(%)   SSP_AV   SSP_x(%)
  1      0.0000     0.0000E+00    0.0000E+00    1.000000E+06  0.00010  8.160E-03    0   1.0000   age020_m22            0.0000     7.3135E+03    15.3025   3.5158    78.6233
  2     18.1289     3.7395E-02    7.1556E-02    3.160000E+06  0.00010  4.759E-02    0   1.0000   age045_m22            0.0000     8.8440E+02     5.4751   1.4137    97.8519
  3      0.0000     0.0000E+00    0.0000E+00    5.010000E+06  0.00010  1.932E-02    0   0.9582   age055_m22            0.0000     6.3817E+03    14.3326   1.8065    84.6635
  4      0.0000     0.0000E+00    0.0000E+00    6.610000E+06  0.00010  9.973E-03    0   0.9297   age061_m22            0.0000     7.1358E+03    15.1582   3.4738    81.3744
  5      0.0000     0.0000E+00    0.0000E+00    8.710000E+06  0.00010  7.690E-03    0   0.9030   age067_m22            0.0000     6.7131E+03    14.7313   3.4642    81.7719
  6      0.0000     0.0000E+00    0.0000E+00    1.000000E+07  0.00010  6.375E-03    0   0.8902   age070_m22            0.0000     6.3426E+03    14.3217   3.4774    81.8918
  7      0.0000     0.0000E+00    0.0000E+00    1.445000E+07  0.00010  4.874E-03    0   0.8589   age078_m22            0.0000     4.5934E+03    12.3988   3.2801    84.6777
  8      0.0000     0.0000E+00    0.0000E+00    2.512000E+07  0.00010  4.103E-03    0   0.8174   age090_m22            0.0000     1.9052E+03     8.5870   2.8375    90.8735
  9      0.0000     0.0000E+00    0.0000E+00    4.000000E+07  0.00010  3.654E-03    0   0.7830   age104_m22            0.0000     1.1460E+03     6.0508   2.5086    95.4924
 10      0.0000     0.0000E+00    0.0000E+00    5.500000E+07  0.00010  3.093E-03    0   0.7597   age110_m22            0.0000     1.1086E+03     5.2833   2.3889    97.0499
 11      0.0000     0.0000E+00    0.0000E+00    1.015200E+08  0.00010  2.431E-03    0   0.7138   age116_m22            0.0000     1.5747E+03     5.3609   2.0258    99.8757
 12      0.0116     8.6213E-04    1.1177E-03    1.609000E+08  0.00010  1.319E-03    0   0.6775   age120_m22            0.0000     1.6446E+03     4.9110   1.5352   102.0159
 13      0.0000     0.0000E+00    0.0000E+00    2.861200E+08  0.00010  1.075E-03    0   0.6412   age125_m22            0.0000     4.8499E+03     8.1403   1.5529   105.6056
 14      0.0000     0.0000E+00    0.0000E+00    5.088000E+08  0.00010  7.183E-04    0   0.6083   age130_m22            0.0000     6.1166E+03     9.4805   1.2980   107.4584
 15      0.0000     0.0000E+00    0.0000E+00    9.047900E+08  0.00010  4.524E-04    0   0.5785   age135_m22            0.0000     6.2137E+03     9.5791   1.0897   108.7735
 16      0.0000     0.0000E+00    0.0000E+00    1.278050E+09  0.00010  3.018E-04    0   0.5588   age138_m22            0.0000     2.6528E+03     6.3006   0.5679   107.0800
 17      0.0000     0.0000E+00    0.0000E+00    1.434000E+09  0.00010  2.691E-04    0   0.5532   age139_m22            0.0000     2.0595E+03     5.5899   0.4101   106.5970
 18      0.0000     0.0000E+00    0.0000E+00    2.500000E+09  0.00010  1.582E-04    0   0.5296   age150_m22            0.0000     1.7254E+03     5.0045   0.3172   107.1466
 19      0.6264     6.1065E-01    5.9711E-01    4.250000E+09  0.00010  1.007E-04    0   0.5110   age158_m22            0.0000     7.3104E+02     3.2932   0.1735   105.6181
 20      0.0000     0.0000E+00    0.0000E+00    6.250000E+09  0.00010  6.869E-05    0   0.4985   age166_m22            0.0000     1.8093E+02     1.7672   0.1246   103.0101
 21      0.0000     0.0000E+00    0.0000E+00    7.500000E+09  0.00010  5.873E-05    0   0.4931   age171_m22            0.0000     1.6728E+02     1.8468   0.1221   102.3853
 22      0.0000     0.0000E+00    0.0000E+00    1.000000E+10  0.00010  4.481E-05    0   0.4854   age181_m22            0.0000     1.4723E+02     1.7284   0.0829   102.0121
 23      0.0000     0.0000E+00    0.0000E+00    1.300000E+10  0.00010  3.489E-05    0   0.4791   age193_m22            0.0000     1.0346E+02     1.4704   0.0231   101.4944
 24      0.0005     1.5207E-03    1.3868E-03    1.500000E+10  0.00010  3.035E-05    0   0.4766   age201_m22            0.0000     8.5416E+01     1.3636  -0.0171   101.3141
 25      0.0000     0.0000E+00    0.0000E+00    1.800000E+10  0.00010  2.510E-05    0   0.4735   age213_m22            0.0000     5.9902E+01     1.2183  -0.0865   100.7247
 26      0.0000     0.0000E+00    0.0000E+00    1.000000E+06  0.00040  8.458E-03    0   1.0000   age020_m32            0.0000     7.1562E+03    15.1305   3.5314    79.2456
 27      0.0000     0.0000E+00    0.0000E+00    3.160000E+06  0.00040  3.973E-02    0   1.0000   age045_m32            0.0000     2.2036E+03     9.0356   2.7370    90.9620
 28      0.0000     0.0000E+00    0.0000E+00    5.010000E+06  0.00040  1.935E-02    0   0.9532   age055_m32            0.0000     5.2935E+03    13.4439   3.0074    85.0745
 29      0.0000     0.0000E+00    0.0000E+00    6.610000E+06  0.00040  1.204E-02    0   0.9243   age061_m32            0.0000     5.8803E+03    13.9184   3.3244    83.2968
 30      0.0000     0.0000E+00    0.0000E+00    8.710000E+06  0.00040  9.433E-03    0   0.9001   age067_m32            0.0000     5.2022E+03    13.1619   3.2897    84.1768
 31      0.0000     0.0000E+00    0.0000E+00    1.000000E+07  0.00040  8.053E-03    0   0.8877   age070_m32            0.0000     4.9498E+03    12.8692   3.2520    84.6115
 32      0.0000     0.0000E+00    0.0000E+00    1.445000E+07  0.00040  7.027E-03    0   0.8578   age078_m32            0.0000     2.8714E+03    10.3373   2.7073    89.5215
 33      0.0000     0.0000E+00    0.0000E+00    2.512000E+07  0.00040  4.707E-03    0   0.8166   age090_m32            0.0000     1.6567E+03     8.1308   2.3857    93.3258
 34      0.0000     0.0000E+00    0.0000E+00    4.000000E+07  0.00040  3.714E-03    0   0.7827   age104_m32            0.0000     1.1183E+03     6.1052   2.1605    96.6320
 35      0.0000     0.0000E+00    0.0000E+00    5.500000E+07  0.00040  2.982E-03    0   0.7593   age110_m32            0.0000     1.1212E+03     5.5140   2.0879    97.8160
 36      0.0000     0.0000E+00    0.0000E+00    1.015200E+08  0.00040  2.188E-03    0   0.7143   age116_m32            0.0000     2.3197E+03     5.7763   1.7759   102.2223
 37      0.0000     0.0000E+00    0.0000E+00    1.609000E+08  0.00040  1.690E-03    0   0.6856   age120_m32            0.0000     3.7672E+03     7.0964   1.5484   104.8258
 38      0.0000     0.0000E+00    0.0000E+00    2.861200E+08  0.00040  1.152E-03    0   0.6509   age125_m32            0.0000     5.1682E+03     8.5257   1.2958   106.8314
 39      0.0000     0.0000E+00    0.0000E+00    5.088000E+08  0.00040  7.331E-04    0   0.6182   age130_m32            0.0000     5.6751E+03     9.1962   1.1136   107.7130
 40      0.0000     0.0000E+00    0.0000E+00    9.047900E+08  0.00040  3.960E-04    0   0.5890   age135_m32            0.0000     2.7580E+03     6.6267   0.6408   106.6625
 41      0.0000     0.0000E+00    0.0000E+00    1.278050E+09  0.00040  2.854E-04    0   0.5687   age138_m32            0.0000     2.0395E+03     5.4682   0.3761   108.2143
 42      0.0000     0.0000E+00    0.0000E+00    1.434000E+09  0.00040  2.531E-04    0   0.5632   age139_m32            0.0000     1.9747E+03     5.3902   0.3156   108.1776
 43      9.5132     6.2759E+00    6.4682E+00    2.500000E+09  0.00040  1.488E-04    0   0.5386   age150_m32            0.0000     1.1512E+03     4.1949   0.0521   106.7322
 44     39.4097     4.2597E+01    4.2377E+01    4.250000E+09  0.00040  9.082E-05    0   0.5199   age158_m32            0.0000     1.1951E+02     1.4145  -0.0343   103.4859
 45      0.0000     0.0000E+00    0.0000E+00    6.250000E+09  0.00040  6.362E-05    0   0.5076   age166_m32            0.0000     1.2960E+02     1.7103  -0.0520    99.9630
 46      3.6493     6.7732E+00    6.5154E+00    7.500000E+09  0.00040  5.289E-05    0   0.5027   age171_m32            0.0000     2.0737E+02     2.0146  -0.0908    98.7540
 47      6.6542     1.6445E+01    1.5571E+01    1.000000E+10  0.00040  3.972E-05    0   0.4948   age181_m32            0.0000     2.7563E+02     2.1177  -0.1611    97.4954
 48      0.8307     2.4838E+00    2.3147E+00    1.300000E+10  0.00040  3.283E-05    0   0.4870   age193_m32            0.0000     4.5707E+01     0.9019  -0.2168   100.1802
 49      0.0000     0.0000E+00    0.0000E+00    1.500000E+10  0.00040  2.925E-05    0   0.4854   age201_m32            0.0000     2.3127E+01     0.7807  -0.2408   101.7366
 50      0.4475     1.7793E+00    1.6408E+00    1.800000E+10  0.00040  2.469E-05    0   0.4819   age213_m32            0.0000     3.7674E+01     1.0085  -0.2855   102.2301
 51      0.0000     0.0000E+00    0.0000E+00    1.000000E+06  0.00400  1.114E-02    0   1.0000   age020_m42            0.0000     6.8703E+03    14.7919   3.4546    79.7426
 52      0.0000     0.0000E+00    0.0000E+00    3.160000E+06  0.00400  4.073E-02    0   0.9999   age045_m42            0.0000     1.3743E+03     7.0969   2.4140    93.6746
 53      0.0000     0.0000E+00    0.0000E+00    5.010000E+06  0.00400  2.534E-02    0   0.9488   age055_m42            0.0000     3.4518E+03    10.9298   2.8544    87.5002
 54      0.0000     0.0000E+00    0.0000E+00    6.610000E+06  0.00400  2.583E-02    0   0.9220   age061_m42            0.0000     1.1001E+03     6.4380   2.2158    94.4629
 55      0.0000     0.0000E+00    0.0000E+00    8.710000E+06  0.00400  1.706E-02    0   0.8983   age067_m42            0.0000     1.9633E+03     8.7478   2.0614    92.3392
 56      0.0000     0.0000E+00    0.0000E+00    1.000000E+07  0.00400  1.271E-02    0   0.8862   age070_m42            0.0000     2.9112E+03    10.5401   2.0636    90.6698
 57      0.0000     0.0000E+00    0.0000E+00    1.445000E+07  0.00400  7.666E-03    0   0.8571   age078_m42            0.0000     3.9386E+03    11.7570   2.4730    87.7398
 58      0.0000     0.0000E+00    0.0000E+00    2.512000E+07  0.00400  5.070E-03    0   0.8174   age090_m42            0.0000     2.4421E+03     9.6036   1.9166    92.3497
 59      0.0000     0.0000E+00    0.0000E+00    4.000000E+07  0.00400  3.505E-03    0   0.7851   age104_m42            0.0000     1.4021E+03     7.1499   1.5653    95.4134
 60      0.0000     0.0000E+00    0.0000E+00    5.500000E+07  0.00400  3.059E-03    0   0.7629   age110_m42            0.0000     8.3860E+02     4.0589   1.5800   100.0987
 61      0.0000     0.0000E+00    0.0000E+00    1.015200E+08  0.00400  2.268E-03    0   0.7207   age116_m42            0.0000     3.1460E+03     6.3565   1.4429   105.5067
 62      0.6345     3.6210E-02    4.8018E-02    1.609000E+08  0.00400  1.720E-03    0   0.6930   age120_m42            0.0000     3.5008E+03     6.8675   1.2844   107.4020
 63      0.0000     0.0000E+00    0.0000E+00    2.861200E+08  0.00400  1.079E-03    0   0.6613   age125_m42            0.0000     3.6216E+03     7.4113   0.9271   107.5539
 64      0.0000     0.0000E+00    0.0000E+00    5.088000E+08  0.00400  6.261E-04    0   0.6313   age130_m42            0.0000     4.2869E+03     7.9529   0.7340   110.4008
 65      0.0000     0.0000E+00    0.0000E+00    9.047900E+08  0.00400  3.535E-04    0   0.6024   age135_m42            0.0000     2.1426E+03     6.1569   0.3200   110.9210
 66      0.0000     0.0000E+00    0.0000E+00    1.278050E+09  0.00400  2.677E-04    0   0.5837   age138_m42            0.0000     9.2647E+02     6.0063  -0.4284   108.5808
 67      0.0000     0.0000E+00    0.0000E+00    1.434000E+09  0.00400  1.910E-04    0   0.5716   age139_m42            0.0000     9.4921E+02     5.5980  -0.2528   109.6230
 68     18.2255     1.8223E+01    1.9049E+01    2.500000E+09  0.00400  9.818E-05    0   0.5463   age150_m42            0.0000     8.7135E+02     5.2697  -0.5312   104.8959
 69      0.0000     0.0000E+00    0.0000E+00    4.250000E+09  0.00400  5.491E-05    0   0.5269   age158_m42            0.0000     1.3816E+03     5.6697  -0.6436   101.8300
 70      0.0000     0.0000E+00    0.0000E+00    6.250000E+09  0.00400  3.857E-05    0   0.5151   age166_m42            0.0000     2.0824E+03     6.6250  -0.7848   100.4864
 71      0.0000     0.0000E+00    0.0000E+00    7.500000E+09  0.00400  3.243E-05    0   0.5110   age171_m42            0.0000     2.5610E+03     7.2451  -0.8747    99.9457
 72      0.0000     0.0000E+00    0.0000E+00    1.000000E+10  0.00400  2.424E-05    0   0.5028   age181_m42            0.0000     3.2835E+03     8.0792  -0.9648    99.3000
 73      0.0000     0.0000E+00    0.0000E+00    1.300000E+10  0.00400  1.883E-05    0   0.4927   age193_m42            0.0000     3.8850E+03     8.7166  -1.0000    98.8020
 74      0.0000     0.0000E+00    0.0000E+00    1.500000E+10  0.00400  1.685E-05    0   0.4919   age201_m42            0.0000     3.7155E+03     8.5027  -0.9995    98.8930
 75      0.0000     0.0000E+00    0.0000E+00    1.800000E+10  0.00400  1.452E-05    0   0.4874   age213_m42            0.0000     3.3977E+03     8.1386  -0.9794    99.1183
 76      0.0000     0.0000E+00    0.0000E+00    1.000000E+06  0.00800  1.286E-02    0   1.0000   age020_m52            0.0000     6.0256E+03    13.8032   3.4295    81.4715
 77      0.0000     0.0000E+00    0.0000E+00    3.160000E+06  0.00800  3.147E-02    0   0.9966   age045_m52            0.0000     5.7756E+03    13.6132   3.3326    83.0889
 78      0.0000     0.0000E+00    0.0000E+00    5.010000E+06  0.00800  2.664E-02    0   0.9443   age055_m52            0.0000     4.1166E+03    11.5869   2.9800    86.5377
 79      0.0000     0.0000E+00    0.0000E+00    6.610000E+06  0.00800  2.151E-02    0   0.9177   age061_m52            0.0000     2.4651E+03     8.7781   1.6329    92.6472
 80      0.0000     0.0000E+00    0.0000E+00    8.710000E+06  0.00800  1.628E-02    0   0.8948   age067_m52            0.0000     2.3434E+03     9.2090   2.0139    92.7435
 81      0.0000     0.0000E+00    0.0000E+00    1.000000E+07  0.00800  1.215E-02    0   0.8827   age070_m52            0.0000     2.9988E+03    10.3867   2.3643    90.9000
 82      0.0000     0.0000E+00    0.0000E+00    1.445000E+07  0.00800  8.739E-03    0   0.8552   age078_m52            0.0000     2.4113E+03     9.4137   2.3962    92.2848
 83      0.0000     0.0000E+00    0.0000E+00    2.512000E+07  0.00800  5.676E-03    0   0.8162   age090_m52            0.0000     1.6215E+03     7.4159   1.9727    96.7663
 84      0.0000     0.0000E+00    0.0000E+00    4.000000E+07  0.00800  3.939E-03    0   0.7841   age104_m52            0.0000     1.3422E+03     5.7655   1.7937    99.2600
 85      0.0000     0.0000E+00    0.0000E+00    5.500000E+07  0.00800  3.155E-03    0   0.7627   age110_m52            0.0000     1.4305E+03     5.0106   1.7463   101.0758
 86      0.0000     0.0000E+00    0.0000E+00    1.015200E+08  0.00800  2.206E-03    0   0.7226   age116_m52            0.0000     2.2455E+03     5.2431   1.5168   105.2271
 87      0.0000     0.0000E+00    0.0000E+00    1.609000E+08  0.00800  1.596E-03    0   0.6963   age120_m52            0.0000     2.8152E+03     5.9646   1.2839   106.8931
 88      0.0000     0.0000E+00    0.0000E+00    2.861200E+08  0.00800  1.002E-03    0   0.6665   age125_m52            0.0000     4.6553E+03     8.6239   0.9381   109.9232
 89      0.0000     0.0000E+00    0.0000E+00    5.088000E+08  0.00800  5.759E-04    0   0.6377   age130_m52            0.0000     4.9675E+03     9.8398   0.5378   114.5234
 90      0.0000     0.0000E+00    0.0000E+00    9.047900E+08  0.00800  2.972E-04    0   0.6086   age135_m52            0.0000     2.4205E+03     8.2003  -0.0501   114.2758
 91      0.0000     0.0000E+00    0.0000E+00    1.278050E+09  0.00800  2.242E-04    0   0.5907   age138_m52            0.0000     1.5070E+03     7.3344  -0.6668   112.4052
 92      0.0000     0.0000E+00    0.0000E+00    1.434000E+09  0.00800  1.645E-04    0   0.5787   age139_m52            0.0000     1.1695E+03     6.4533  -0.4973   111.6466
 93      0.0000     0.0000E+00    0.0000E+00    2.500000E+09  0.00800  7.723E-05    0   0.5519   age150_m52            0.0000     1.9177E+03     7.3965  -0.8386   107.7129
 94      0.0000     0.0000E+00    0.0000E+00    4.250000E+09  0.00800  4.151E-05    0   0.5320   age158_m52            0.0000     2.3870E+03     7.5566  -0.9091   105.2181
 95      0.0548     1.7868E-01    1.7769E-01    6.250000E+09  0.00800  3.010E-05    0   0.5197   age166_m52            0.0000     3.7307E+03     8.9944  -1.0000   102.0571
 96      0.0000     0.0000E+00    0.0000E+00    7.500000E+09  0.00800  2.467E-05    0   0.5139   age171_m52            0.0000     4.1913E+03     9.4405  -1.0000   100.9646
 97      0.0000     0.0000E+00    0.0000E+00    1.000000E+10  0.00800  1.862E-05    0   0.5054   age181_m52            0.0000     5.8516E+03    10.9695  -1.0000    98.3266
