###################################################################
## OUTPUT of StarlightChains_v04.for    [Cid@UFSC - 01/Apr/2007] ##
###################################################################

## Some input info
NGC2298_a_1.cxt                          [arq_obs]
Base.BC03.S                              [arq_base]
NGC2298_a_1.msk                          [arq_masks]
StCv04.C99.config                        [arq_config]
  150                                    [N_base]
    0                                    [N_YAV_components = # of components with extra extinction!]
    0                                    [i_FitPowerLaw (1/0 = Yes/No)]
-9.99                                    [alpha_PowerLaw]
CCM                                      [red_law_option]
 1.458241                                [q_norm = A(l_norm)/A(V)]

## (Re)Sampling Parameters
 3359.00                                 [l_ini (A)]
 6428.00                                 [l_fin (A)]
    1.00                                 [dl    (A)]     (OBS: dl_cushion =    50.00 A)

## Normalization info
 4020.00                                 [l_norm (A) - for base]
 4010.00                                 [llow_norm (A) - window for f_obs]
 4060.00                                 [lupp_norm (A) - window for f_obs]
3.712074E-15                             [fobs_norm (in input units)]

## S/N
 4730.00                                 [llow_SN (A) - window for S/N]
 4780.00                                 [lupp_SN (A) - window for S/N]
  81.814                                 [S/N in S/N window]
  72.947                                 [S/N in norm. window]
 157.218                                 [S/N_err in S/N window]
 140.180                                 [S/N_err in norm. window]
  1.0000                                 [fscale_chi2]

## etc...
  2147483644                             [idum_orig]
  3062                                   [NOl_eff]
  1292                                   [Nl_eff]
  1770    NSIGMA                         [Ntot_cliped & clip_method]
  2915640                                [Nglobal_steps]
   7                                     [N_chains]
  15                                     [NEX0s_base = N_base in EX0s-fits]
 0   0   1      150   2.0   3.201E+02    [Clip-Bug, RC-Crash & Burn-In warning-flags, n_censored_weights, wei_nsig_threshold & wei_limit]
   141    140.636    140.612      0.024  [idt_all, wdt_TotTime, wdt_UsrTime & wdt_SysTime (sec)]

## Synthesis Results - Best model ##

 2.50117E+00                             [chi2/Nl_eff]
     1.17706                             [adev (%)]

   102.59167                             [sum-of-x (%)]
 9.81342E-15                             [Flux_tot (units of input spectrum!)]
 8.51611E-11                             [Mini_tot (???)]
 4.44183E-11                             [Mcor_tot (???)]

 -11.48                                  [v0_min  (km/s)]
  71.65                                  [vd_min  (km/s)]
 0.7048                                  [AV_min  (mag)]
 0.0000                                  [YAV_min (mag)]

# j     x_j(%)      Mini_j(%)     Mcor_j(%)     age_j(yr)     Z_j      (L/M)_j    YAV?  Mstars   component_j        a/Fe...       SSP_chi2r SSP_adev(%)   SSP_AV   SSP_x(%)
  1      0.0000     0.0000E+00    0.0000E+00    1.000000E+06  0.00010  8.160E-03    0   1.0000   age020_m22            0.0000     3.9632E+02    12.4422   3.7871    80.4289
  2     22.5173     5.3146E-02    1.0189E-01    3.160000E+06  0.00010  4.759E-02    0   1.0000   age045_m22            0.0000     4.4135E+01     4.3233   1.8161    98.4878
  3      0.0000     0.0000E+00    0.0000E+00    5.010000E+06  0.00010  1.932E-02    0   0.9582   age055_m22            0.0000     3.5110E+02    12.1367   2.0910    86.9444
  4      0.0000     0.0000E+00    0.0000E+00    6.610000E+06  0.00010  9.973E-03    0   0.9297   age061_m22            0.0000     3.7972E+02    12.4694   3.7465    83.5533
  5      0.0000     0.0000E+00    0.0000E+00    8.710000E+06  0.00010  7.690E-03    0   0.9030   age067_m22            0.0000     3.5818E+02    12.1040   3.7406    83.9045
  6      0.0000     0.0000E+00    0.0000E+00    1.000000E+07  0.00010  6.375E-03    0   0.8902   age070_m22            0.0000     3.4050E+02    11.7649   3.7561    84.0043
  7      0.0000     0.0000E+00    0.0000E+00    1.445000E+07  0.00010  4.874E-03    0   0.8589   age078_m22            0.0000     2.4773E+02    10.1301   3.5816    86.5268
  8      0.0000     0.0000E+00    0.0000E+00    2.512000E+07  0.00010  4.103E-03    0   0.8174   age090_m22            0.0000     9.8798E+01     6.7994   3.1888    92.2118
  9      0.0000     0.0000E+00    0.0000E+00    4.000000E+07  0.00010  3.654E-03    0   0.7830   age104_m22            0.0000     4.4913E+01     4.2269   2.9060    96.2491
 10      0.0000     0.0000E+00    0.0000E+00    5.500000E+07  0.00010  3.093E-03    0   0.7597   age110_m22            0.0000     3.6351E+01     3.4618   2.8078    97.5994
 11      0.0000     0.0000E+00    0.0000E+00    1.015200E+08  0.00010  2.431E-03    0   0.7138   age116_m22            0.0000     4.5730E+01     3.2342   2.4670   100.2635
 12      0.0000     0.0000E+00    0.0000E+00    1.609000E+08  0.00010  1.319E-03    0   0.6775   age120_m22            0.0000     4.8186E+01     3.0408   1.9897   102.4929
 13      0.0000     0.0000E+00    0.0000E+00    2.861200E+08  0.00010  1.075E-03    0   0.6412   age125_m22            0.0000     1.8254E+02     6.2500   2.0673   105.4470
 14      0.0000     0.0000E+00    0.0000E+00    5.088000E+08  0.00010  7.183E-04    0   0.6083   age130_m22            0.0000     2.4461E+02     7.5968   1.8389   106.9904
 15      0.0000     0.0000E+00    0.0000E+00    9.047900E+08  0.00010  4.524E-04    0   0.5785   age135_m22            0.0000     2.5073E+02     7.8396   1.6399   108.1230
 16      0.0000     0.0000E+00    0.0000E+00    1.278050E+09  0.00010  3.018E-04    0   0.5588   age138_m22            0.0000     9.6567E+01     4.8858   1.1012   106.4822
 17      0.0000     0.0000E+00    0.0000E+00    1.434000E+09  0.00010  2.691E-04    0   0.5532   age139_m22            0.0000     7.2703E+01     4.3159   0.9437   105.9219
 18      0.0000     0.0000E+00    0.0000E+00    2.500000E+09  0.00010  1.582E-04    0   0.5296   age150_m22            0.0000     5.5013E+01     3.6634   0.8294   106.7662
 19      0.0000     0.0000E+00    0.0000E+00    4.250000E+09  0.00010  1.007E-04    0   0.5110   age158_m22            0.0000     1.9721E+01     2.3145   0.6710   105.2306
 20      0.7716     1.2618E+00    1.2060E+00    6.250000E+09  0.00010  6.869E-05    0   0.4985   age166_m22            0.0000     4.4855E+00     1.3453   0.6075   102.6240
 21      0.0000     0.0000E+00    0.0000E+00    7.500000E+09  0.00010  5.873E-05    0   0.4931   age171_m22            0.0000     4.2523E+00     1.3059   0.5945   102.1605
 22      0.5301     1.3288E+00    1.2366E+00    1.000000E+10  0.00010  4.481E-05    0   0.4854   age181_m22            0.0000     4.1419E+00     1.3028   0.5558   101.7878
 23      1.4822     4.7716E+00    4.3829E+00    1.300000E+10  0.00010  3.489E-05    0   0.4791   age193_m22            0.0000     4.2436E+00     1.3394   0.4979   101.2218
 24      0.0000     0.0000E+00    0.0000E+00    1.500000E+10  0.00010  3.035E-05    0   0.4766   age201_m22            0.0000     4.4882E+00     1.3768   0.4579   101.0337
 25      0.0445     1.9896E-01    1.8062E-01    1.800000E+10  0.00010  2.510E-05    0   0.4735   age213_m22            0.0000     5.7637E+00     1.5180   0.3878   100.4306
 26      0.0000     0.0000E+00    0.0000E+00    1.000000E+06  0.00040  8.458E-03    0   1.0000   age020_m32            0.0000     3.8571E+02    12.3366   3.8027    81.1547
 27      0.0000     0.0000E+00    0.0000E+00    3.160000E+06  0.00040  3.973E-02    0   1.0000   age045_m32            0.0000     1.1484E+02     7.3330   3.0835    92.3375
 28      0.0000     0.0000E+00    0.0000E+00    5.010000E+06  0.00040  1.935E-02    0   0.9532   age055_m32            0.0000     2.8456E+02    11.1210   3.2993    87.1568
 29      0.0000     0.0000E+00    0.0000E+00    6.610000E+06  0.00040  1.204E-02    0   0.9243   age061_m32            0.0000     3.1360E+02    11.4328   3.6090    85.3551
 30      0.0000     0.0000E+00    0.0000E+00    8.710000E+06  0.00040  9.433E-03    0   0.9001   age067_m32            0.0000     2.7875E+02    10.8103   3.5839    86.1266
 31      0.0000     0.0000E+00    0.0000E+00    1.000000E+07  0.00040  8.053E-03    0   0.8877   age070_m32            0.0000     2.6534E+02    10.5646   3.5492    86.5334
 32      0.0000     0.0000E+00    0.0000E+00    1.445000E+07  0.00040  7.027E-03    0   0.8578   age078_m32            0.0000     1.5407E+02     8.4160   3.0362    91.2549
 33      0.0000     0.0000E+00    0.0000E+00    2.512000E+07  0.00040  4.707E-03    0   0.8166   age090_m32            0.0000     8.2854E+01     6.2912   2.7488    94.7382
 34      0.0000     0.0000E+00    0.0000E+00    4.000000E+07  0.00040  3.714E-03    0   0.7827   age104_m32            0.0000     4.2778E+01     4.2226   2.5565    97.6084
 35      0.0000     0.0000E+00    0.0000E+00    5.500000E+07  0.00040  2.982E-03    0   0.7593   age110_m32            0.0000     3.6217E+01     3.5841   2.4981    98.6276
 36      0.0000     0.0000E+00    0.0000E+00    1.015200E+08  0.00040  2.188E-03    0   0.7143   age116_m32            0.0000     7.2582E+01     3.6716   2.2432   102.3730
 37      0.3822     2.5402E-02    3.3390E-02    1.609000E+08  0.00040  1.690E-03    0   0.6856   age120_m32            0.0000     1.2779E+02     4.8757   2.0436   104.8049
 38      0.0000     0.0000E+00    0.0000E+00    2.861200E+08  0.00040  1.152E-03    0   0.6509   age125_m32            0.0000     1.9734E+02     6.6321   1.8211   106.5114
 39      0.0000     0.0000E+00    0.0000E+00    5.088000E+08  0.00040  7.331E-04    0   0.6182   age130_m32            0.0000     2.2533E+02     7.3711   1.6585   107.1011
 40      0.0000     0.0000E+00    0.0000E+00    9.047900E+08  0.00040  3.960E-04    0   0.5890   age135_m32            0.0000     1.0722E+02     5.4215   1.1913   105.7049
 41      0.0000     0.0000E+00    0.0000E+00    1.278050E+09  0.00040  2.854E-04    0   0.5687   age138_m32            0.0000     7.1334E+01     4.2140   0.8962   107.6653
 42      0.0000     0.0000E+00    0.0000E+00    1.434000E+09  0.00040  2.531E-04    0   0.5632   age139_m32            0.0000     6.7416E+01     4.0911   0.8353   107.6426
 43     24.3157     1.8355E+01    1.8954E+01    2.500000E+09  0.00040  1.488E-04    0   0.5386   age150_m32            0.0000     3.6813E+01     3.1764   0.5759   105.9012
 44     47.2779     5.8471E+01    5.8283E+01    4.250000E+09  0.00040  9.082E-05    0   0.5199   age158_m32            0.0000     5.7285E+00     1.5795   0.4668   102.7849
 45      0.0000     0.0000E+00    0.0000E+00    6.250000E+09  0.00040  6.362E-05    0   0.5076   age166_m32            0.0000     1.5522E+01     2.1455   0.4154    99.6805
 46      2.8612     6.0764E+00    5.8565E+00    7.500000E+09  0.00040  5.289E-05    0   0.5027   age171_m32            0.0000     2.1818E+01     2.4311   0.3766    98.4494
 47      0.1799     5.0870E-01    4.8258E-01    1.000000E+10  0.00040  3.972E-05    0   0.4948   age181_m32            0.0000     2.8001E+01     2.6825   0.3131    97.0595
 48      0.0000     0.0000E+00    0.0000E+00    1.300000E+10  0.00040  3.283E-05    0   0.4870   age193_m32            0.0000     1.2775E+01     2.0764   0.2738    99.6266
 49      0.0000     0.0000E+00    0.0000E+00    1.500000E+10  0.00040  2.925E-05    0   0.4854   age201_m32            0.0000     8.8576E+00     1.8832   0.2588   101.1168
 50      0.0000     5.1084E-06    4.7198E-06    1.800000E+10  0.00040  2.469E-05    0   0.4819   age213_m32            0.0000     9.1285E+00     1.9424   0.2197   101.5787
 51      0.0000     0.0000E+00    0.0000E+00    1.000000E+06  0.00400  1.114E-02    0   1.0000   age020_m42            0.0000     3.6989E+02    12.0236   3.7310    81.5811
 52      0.0000     0.0000E+00    0.0000E+00    3.160000E+06  0.00400  4.073E-02    0   0.9999   age045_m42            0.0000     6.9235E+01     5.6512   2.7886    94.7038
 53      0.0000     0.0000E+00    0.0000E+00    5.010000E+06  0.00400  2.534E-02    0   0.9488   age055_m42            0.0000     1.8478E+02     8.8939   3.1800    89.0241
 54      0.0000     0.0000E+00    0.0000E+00    6.610000E+06  0.00400  2.583E-02    0   0.9220   age061_m42            0.0000     5.1974E+01     4.8539   2.6091    95.2886
 55      0.0000     0.0000E+00    0.0000E+00    8.710000E+06  0.00400  1.706E-02    0   0.8983   age067_m42            0.0000     1.0625E+02     7.0199   2.4264    93.7810
 56      0.0000     0.0000E+00    0.0000E+00    1.000000E+07  0.00400  1.271E-02    0   0.8862   age070_m42            0.0000     1.6547E+02     8.8246   2.4081    92.5749
 57      0.0000     0.0000E+00    0.0000E+00    1.445000E+07  0.00400  7.666E-03    0   0.8571   age078_m42            0.0000     2.2105E+02     9.7020   2.8019    89.6184
 58      0.0000     0.0000E+00    0.0000E+00    2.512000E+07  0.00400  5.070E-03    0   0.8174   age090_m42            0.0000     1.3805E+02     8.0922   2.2734    94.2258
 59      0.0000     0.0000E+00    0.0000E+00    4.000000E+07  0.00400  3.505E-03    0   0.7851   age104_m42            0.0000     7.6844E+01     6.0387   1.9549    96.9640
 60      0.0000     0.0000E+00    0.0000E+00    5.500000E+07  0.00400  3.059E-03    0   0.7629   age110_m42            0.0000     2.5988E+01     2.9586   2.0267   100.8600
 61      0.0000     0.0000E+00    0.0000E+00    1.015200E+08  0.00400  2.268E-03    0   0.7207   age116_m42            0.0000     1.0911E+02     4.6892   1.9541   105.3533
 62      0.0000     0.0000E+00    0.0000E+00    1.609000E+08  0.00400  1.720E-03    0   0.6930   age120_m42            0.0000     1.2916E+02     5.4253   1.8152   106.8782
 63      0.0000     0.0000E+00    0.0000E+00    2.861200E+08  0.00400  1.079E-03    0   0.6613   age125_m42            0.0000     1.4486E+02     5.8449   1.4643   107.1956
 64      0.0000     0.0000E+00    0.0000E+00    5.088000E+08  0.00400  6.261E-04    0   0.6313   age130_m42            0.0000     1.7182E+02     6.4170   1.2743   109.9423
 65      0.0000     0.0000E+00    0.0000E+00    9.047900E+08  0.00400  3.535E-04    0   0.6024   age135_m42            0.0000     9.2309E+01     5.0494   0.8669   110.1215
 66      0.0000     0.0000E+00    0.0000E+00    1.278050E+09  0.00400  2.677E-04    0   0.5837   age138_m42            0.0000     8.4243E+01     5.5948   0.1770   106.8227
 67      0.0000     0.0000E+00    0.0000E+00    1.434000E+09  0.00400  1.910E-04    0   0.5716   age139_m42            0.0000     7.1720E+01     5.2145   0.3447   107.9382
 68      0.0000     0.0000E+00    0.0000E+00    2.500000E+09  0.00400  9.818E-05    0   0.5463   age150_m42            0.0000     8.7709E+01     5.4308   0.0666   103.0178
 69      0.0000     0.0000E+00    0.0000E+00    4.250000E+09  0.00400  5.491E-05    0   0.5269   age158_m42            0.0000     1.1482E+02     5.8899  -0.0594   100.2239
 70      0.0000     0.0000E+00    0.0000E+00    6.250000E+09  0.00400  3.857E-05    0   0.5151   age166_m42            0.0000     1.5487E+02     6.6685  -0.1830    98.6108
 71      0.0000     0.0000E+00    0.0000E+00    7.500000E+09  0.00400  3.243E-05    0   0.5110   age171_m42            0.0000     1.8222E+02     7.1488  -0.2588    97.8719
 72      0.0000     0.0000E+00    0.0000E+00    1.000000E+10  0.00400  2.424E-05    0   0.5028   age181_m42            0.0000     2.2078E+02     7.7535  -0.3346    97.0236
 73      0.0000     0.0000E+00    0.0000E+00    1.300000E+10  0.00400  1.883E-05    0   0.4927   age193_m42            0.0000     2.5111E+02     8.1995  -0.3731    96.6163
 74      0.0000     0.0000E+00    0.0000E+00    1.500000E+10  0.00400  1.685E-05    0   0.4919   age201_m42            0.0000     2.4251E+02     8.0777  -0.3691    96.6926
 75      0.0000     0.0000E+00    0.0000E+00    1.800000E+10  0.00400  1.452E-05    0   0.4874   age213_m42            0.0000     2.2686E+02     7.8606  -0.3557    97.0663
 76      0.0000     0.0000E+00    0.0000E+00    1.000000E+06  0.00800  1.286E-02    0   1.0000   age020_m52            0.0000     3.1731E+02    11.2646   3.7095    83.3665
 77      0.0000     0.0000E+00    0.0000E+00    3.160000E+06  0.00800  3.147E-02    0   0.9966   age045_m52            0.0000     3.0300E+02    11.1000   3.6186    84.9951
 78      0.0000     0.0000E+00    0.0000E+00    5.010000E+06  0.00800  2.664E-02    0   0.9443   age055_m52            0.0000     2.1644E+02     9.4947   3.2942    88.1736
 79      0.0000     0.0000E+00    0.0000E+00    6.610000E+06  0.00800  2.151E-02    0   0.9177   age061_m52            0.0000     1.3603E+02     7.5202   1.9919    94.2755
 80      0.0000     0.0000E+00    0.0000E+00    8.710000E+06  0.00800  1.628E-02    0   0.8948   age067_m52            0.0000     1.2300E+02     7.6124   2.3711    94.5340
 81      0.0000     0.0000E+00    0.0000E+00    1.000000E+07  0.00800  1.215E-02    0   0.8827   age070_m52            0.0000     1.5490E+02     8.4886   2.7096    92.8066
 82      0.0000     0.0000E+00    0.0000E+00    1.445000E+07  0.00800  8.739E-03    0   0.8552   age078_m52            0.0000     1.1996E+02     7.4877   2.7553    93.9062
 83      0.0000     0.0000E+00    0.0000E+00    2.512000E+07  0.00800  5.676E-03    0   0.8162   age090_m52            0.0000     7.0052E+01     5.6654   2.3674    98.2170
 84      0.0000     0.0000E+00    0.0000E+00    4.000000E+07  0.00800  3.939E-03    0   0.7841   age104_m52            0.0000     4.6139E+01     4.1086   2.2121   100.4431
 85      0.0000     0.0000E+00    0.0000E+00    5.500000E+07  0.00800  3.155E-03    0   0.7627   age110_m52            0.0000     4.4486E+01     3.2431   2.1856   101.9402
 86      0.0000     0.0000E+00    0.0000E+00    1.015200E+08  0.00800  2.206E-03    0   0.7226   age116_m52            0.0000     7.6982E+01     3.8012   2.0052   105.3880
 87      0.0000     0.0000E+00    0.0000E+00    1.609000E+08  0.00800  1.596E-03    0   0.6963   age120_m52            0.0000     1.0492E+02     4.7131   1.7946   106.8758
 88      0.0000     0.0000E+00    0.0000E+00    2.861200E+08  0.00800  1.002E-03    0   0.6665   age125_m52            0.0000     1.9785E+02     7.2454   1.5069   109.2456
 89      0.0000     0.0000E+00    0.0000E+00    5.088000E+08  0.00800  5.759E-04    0   0.6377   age130_m52            0.0000     2.3077E+02     8.3143   1.1583   112.9494
 90      0.0000     0.0000E+00    0.0000E+00    9.047900E+08  0.00800  2.972E-04    0   0.6086   age135_m52            0.0000     1.5772E+02     7.3809   0.6162   111.4296
 91      0.0000     0.0000E+00    0.0000E+00    1.278050E+09  0.00800  2.242E-04    0   0.5907   age138_m52            0.0000     1.3623E+02     6.8325  -0.0011   109.5511
 92      0.0000     0.0000E+00    0.0000E+00    1.434000E+09  0.00800  1.645E-04    0   0.5787   age139_m52            0.0000     1.1079E+02     6.2350   0.1426   109.2215
 93      0.0000     0.0000E+00    0.0000E+00    2.500000E+09  0.00800  7.723E-05    0   0.5519   age150_m52            0.0000     1.5906E+02     7.0157  -0.1954   105.0821
 94      0.0000     0.0000E+00    0.0000E+00    4.250000E+09  0.00800  4.151E-05    0   0.5320   age158_m52            0.0000     1.7820E+02     7.1908  -0.2645   102.4602
 95      0.0000     0.0000E+00    0.0000E+00    6.250000E+09  0.00800  3.010E-05    0   0.5197   age166_m52            0.0000     2.4634E+02     8.2151  -0.4528   100.6794
 96      0.0000     0.0000E+00    0.0000E+00    7.500000E+09  0.00800  2.467E-05    0   0.5139   age171_m52            0.0000     2.6553E+02     8.4847  -0.4925   100.1616
 97      0.0000     0.0000E+00    0.0000E+00    1.000000E+10  0.00800  1.862E-05    0   0.5054   age181_m52            0.0000     3.2559E+02     9.3177  -0.6185    99.4611
