###################################################################
## OUTPUT of StarlightChains_v04.for    [Cid@UFSC - 01/Apr/2007] ##
###################################################################

## Some input info
NGC2298_b_1.cxt                          [arq_obs]
Base.BC03.S                              [arq_base]
NGC2298_b_1.msk                          [arq_masks]
StCv04.C99.config                        [arq_config]
  150                                    [N_base]
    0                                    [N_YAV_components = # of components with extra extinction!]
    0                                    [i_FitPowerLaw (1/0 = Yes/No)]
-9.99                                    [alpha_PowerLaw]
CCM                                      [red_law_option]
 1.458241                                [q_norm = A(l_norm)/A(V)]

## (Re)Sampling Parameters
 3359.00                                 [l_ini (A)]
 6428.00                                 [l_fin (A)]
    1.00                                 [dl    (A)]     (OBS: dl_cushion =    50.00 A)

## Normalization info
 4020.00                                 [l_norm (A) - for base]
 4010.00                                 [llow_norm (A) - window for f_obs]
 4060.00                                 [lupp_norm (A) - window for f_obs]
6.358602E-15                             [fobs_norm (in input units)]

## S/N
 4730.00                                 [llow_SN (A) - window for S/N]
 4780.00                                 [lupp_SN (A) - window for S/N]
 100.550                                 [S/N in S/N window]
  93.926                                 [S/N in norm. window]
 257.092                                 [S/N_err in S/N window]
 240.154                                 [S/N_err in norm. window]
  1.0000                                 [fscale_chi2]

## etc...
  2147483643                             [idum_orig]
  3063                                   [NOl_eff]
  1058                                   [Nl_eff]
  2005    NSIGMA                         [Ntot_cliped & clip_method]
  3450440                                [Nglobal_steps]
   7                                     [N_chains]
  19                                     [NEX0s_base = N_base in EX0s-fits]
 0   0   1      257   2.0   5.054E+02    [Clip-Bug, RC-Crash & Burn-In warning-flags, n_censored_weights, wei_nsig_threshold & wei_limit]
   156    156.469    156.457      0.012  [idt_all, wdt_TotTime, wdt_UsrTime & wdt_SysTime (sec)]

## Synthesis Results - Best model ##

 2.61228E+00                             [chi2/Nl_eff]
     0.65038                             [adev (%)]

   100.56947                             [sum-of-x (%)]
 1.69963E-14                             [Flux_tot (units of input spectrum!)]
 1.88135E-10                             [Mini_tot (???)]
 9.43216E-11                             [Mcor_tot (???)]

 -19.20                                  [v0_min  (km/s)]
  68.53                                  [vd_min  (km/s)]
 0.7278                                  [AV_min  (mag)]
 0.0000                                  [YAV_min (mag)]

# j     x_j(%)      Mini_j(%)     Mcor_j(%)     age_j(yr)     Z_j      (L/M)_j    YAV?  Mstars   component_j        a/Fe...       SSP_chi2r SSP_adev(%)   SSP_AV   SSP_x(%)
  1      0.0000     0.0000E+00    0.0000E+00    1.000000E+06  0.00010  8.160E-03    0   1.0000   age020_m22            0.0000     1.1889E+03    10.9579   3.7383    77.2069
  2     17.1168     3.2309E-02    6.4444E-02    3.160000E+06  0.00010  4.759E-02    0   1.0000   age045_m22            0.0000     1.1011E+02     3.3409   1.7367    96.4658
  3      0.0000     0.0000E+00    0.0000E+00    5.010000E+06  0.00010  1.932E-02    0   0.9582   age055_m22            0.0000     1.0352E+03    10.7858   2.0445    83.5996
  4      0.0000     0.0000E+00    0.0000E+00    6.610000E+06  0.00010  9.973E-03    0   0.9297   age061_m22            0.0000     1.1355E+03    11.1529   3.7014    80.1025
  5      0.0000     0.0000E+00    0.0000E+00    8.710000E+06  0.00010  7.690E-03    0   0.9030   age067_m22            0.0000     1.0722E+03    10.8311   3.6938    80.5032
  6      0.0000     0.0000E+00    0.0000E+00    1.000000E+07  0.00010  6.375E-03    0   0.8902   age070_m22            0.0000     1.0234E+03    10.5608   3.7081    80.6430
  7      0.0000     0.0000E+00    0.0000E+00    1.445000E+07  0.00010  4.874E-03    0   0.8589   age078_m22            0.0000     7.3648E+02     8.9822   3.5263    83.3861
  8      0.0000     0.0000E+00    0.0000E+00    2.512000E+07  0.00010  4.103E-03    0   0.8174   age090_m22            0.0000     2.7461E+02     5.7303   3.1208    89.5648
  9      0.0000     0.0000E+00    0.0000E+00    4.000000E+07  0.00010  3.654E-03    0   0.7830   age104_m22            0.0000     1.1405E+02     3.5485   2.8233    94.2059
 10      0.8071     2.3440E-02    3.5519E-02    5.500000E+07  0.00010  3.093E-03    0   0.7597   age110_m22            0.0000     9.9189E+01     3.1362   2.7214    95.7474
 11      5.3954     1.9937E-01    2.8385E-01    1.015200E+08  0.00010  2.431E-03    0   0.7138   age116_m22            0.0000     1.3591E+02     3.1658   2.3739    98.6634
 12      0.0000     0.0000E+00    0.0000E+00    1.609000E+08  0.00010  1.319E-03    0   0.6775   age120_m22            0.0000     1.3162E+02     2.8566   1.9002   100.7842
 13      0.0338     2.8203E-03    3.6070E-03    2.861200E+08  0.00010  1.075E-03    0   0.6412   age125_m22            0.0000     5.7823E+02     6.7479   1.9659   104.3665
 14      0.0000     0.0000E+00    0.0000E+00    5.088000E+08  0.00010  7.183E-04    0   0.6083   age130_m22            0.0000     7.7502E+02     7.9936   1.7348   106.0891
 15      0.0000     0.0000E+00    0.0000E+00    9.047900E+08  0.00010  4.524E-04    0   0.5785   age135_m22            0.0000     7.9498E+02     8.1777   1.5320   107.3065
 16      0.0000     0.0000E+00    0.0000E+00    1.278050E+09  0.00010  3.018E-04    0   0.5588   age138_m22            0.0000     3.0087E+02     5.1799   0.9976   105.5186
 17      0.0006     2.0142E-04    2.2226E-04    1.434000E+09  0.00010  2.691E-04    0   0.5532   age139_m22            0.0000     2.2784E+02     4.5824   0.8409   104.9398
 18      0.0000     0.0000E+00    0.0000E+00    2.500000E+09  0.00010  1.582E-04    0   0.5296   age150_m22            0.0000     1.6831E+02     3.7896   0.7298   105.5909
 19      0.0000     0.0000E+00    0.0000E+00    4.250000E+09  0.00010  1.007E-04    0   0.5110   age158_m22            0.0000     5.8018E+01     2.3817   0.5769   103.8267
 20      0.0283     3.7020E-02    3.6810E-02    6.250000E+09  0.00010  6.869E-05    0   0.4985   age166_m22            0.0000     1.3443E+01     1.3000   0.5178   101.0305
 21      0.6134     9.3828E-01    9.2284E-01    7.500000E+09  0.00010  5.873E-05    0   0.4931   age171_m22            0.0000     9.9021E+00     1.0774   0.5064   100.4851
 22      1.5442     3.0956E+00    2.9971E+00    1.000000E+10  0.00010  4.481E-05    0   0.4854   age181_m22            0.0000     1.0463E+01     1.0996   0.4682   100.1128
 23      0.1374     3.5375E-01    3.3805E-01    1.300000E+10  0.00010  3.489E-05    0   0.4791   age193_m22            0.0000     1.3167E+01     1.2185   0.4112    99.5483
 24      0.6402     1.8947E+00    1.8012E+00    1.500000E+10  0.00010  3.035E-05    0   0.4766   age201_m22            0.0000     1.4630E+01     1.2659   0.3723    99.3396
 25      9.0571     3.2414E+01    3.0613E+01    1.800000E+10  0.00010  2.510E-05    0   0.4735   age213_m22            0.0000     2.0243E+01     1.4111   0.3038    98.7017
 26      0.0000     0.0000E+00    0.0000E+00    1.000000E+06  0.00040  8.458E-03    0   1.0000   age020_m32            0.0000     1.1623E+03    10.9459   3.7538    77.8832
 27      0.0000     0.0000E+00    0.0000E+00    3.160000E+06  0.00040  3.973E-02    0   1.0000   age045_m32            0.0000     3.1651E+02     6.1203   3.0156    89.6743
 28      0.0000     0.0000E+00    0.0000E+00    5.010000E+06  0.00040  1.935E-02    0   0.9532   age055_m32            0.0000     8.2812E+02     9.7641   3.2468    83.9047
 29      0.0000     0.0000E+00    0.0000E+00    6.610000E+06  0.00040  1.204E-02    0   0.9243   age061_m32            0.0000     9.2880E+02    10.1390   3.5610    81.9947
 30      0.0000     0.0000E+00    0.0000E+00    8.710000E+06  0.00040  9.433E-03    0   0.9001   age067_m32            0.0000     8.2358E+02     9.5593   3.5322    82.8624
 31      0.0000     0.0000E+00    0.0000E+00    1.000000E+07  0.00040  8.053E-03    0   0.8877   age070_m32            0.0000     7.8259E+02     9.3187   3.4952    83.3222
 32      0.0000     0.0000E+00    0.0000E+00    1.445000E+07  0.00040  7.027E-03    0   0.8578   age078_m32            0.0000     4.2885E+02     7.1573   2.9704    88.4077
 33      0.0000     0.0000E+00    0.0000E+00    2.512000E+07  0.00040  4.707E-03    0   0.8166   age090_m32            0.0000     2.1516E+02     5.1953   2.6762    92.1951
 34      0.0000     0.0000E+00    0.0000E+00    4.000000E+07  0.00040  3.714E-03    0   0.7827   age104_m32            0.0000     1.0031E+02     3.3897   2.4744    95.4849
 35      0.0000     0.0000E+00    0.0000E+00    5.500000E+07  0.00040  2.982E-03    0   0.7593   age110_m32            0.0000     8.7063E+01     2.9151   2.4131    96.6538
 36      0.0000     0.0000E+00    0.0000E+00    1.015200E+08  0.00040  2.188E-03    0   0.7143   age116_m32            0.0000     2.3105E+02     4.0114   2.1486   100.9193
 37      0.1506     8.0036E-03    1.0945E-02    1.609000E+08  0.00040  1.690E-03    0   0.6856   age120_m32            0.0000     4.1752E+02     5.4095   1.9440   103.6227
 38      0.0000     0.0000E+00    0.0000E+00    2.861200E+08  0.00040  1.152E-03    0   0.6509   age125_m32            0.0000     6.2950E+02     7.1098   1.7184   105.5382
 39      0.0000     0.0000E+00    0.0000E+00    5.088000E+08  0.00040  7.331E-04    0   0.6182   age130_m32            0.0000     7.1932E+02     7.7677   1.5529   106.2566
 40      0.0000     0.0000E+00    0.0000E+00    9.047900E+08  0.00040  3.960E-04    0   0.5890   age135_m32            0.0000     3.3916E+02     5.7906   1.0871   104.7887
 41      0.0000     0.0000E+00    0.0000E+00    1.278050E+09  0.00040  2.854E-04    0   0.5687   age138_m32            0.0000     2.2161E+02     4.4873   0.7966   106.5043
 42      0.0000     0.0000E+00    0.0000E+00    1.434000E+09  0.00040  2.531E-04    0   0.5632   age139_m32            0.0000     2.1113E+02     4.3213   0.7357   106.4930
 43     27.4420     1.6566E+01    1.7797E+01    2.500000E+09  0.00040  1.488E-04    0   0.5386   age150_m32            0.0000     1.2429E+02     3.4419   0.4776   104.7836
 44     25.5693     2.5290E+01    2.6226E+01    4.250000E+09  0.00040  9.082E-05    0   0.5199   age158_m32            0.0000     2.6457E+01     1.8414   0.3780   101.3133
 45      6.2872     8.8773E+00    8.9880E+00    6.250000E+09  0.00040  6.362E-05    0   0.5076   age166_m32            0.0000     5.8762E+01     2.0067   0.3382    97.7477
 46      0.0000     0.0000E+00    0.0000E+00    7.500000E+09  0.00040  5.289E-05    0   0.5027   age171_m32            0.0000     8.2296E+01     2.3290   0.3018    96.4682
 47      0.0000     0.0000E+00    0.0000E+00    1.000000E+10  0.00040  3.972E-05    0   0.4948   age181_m32            0.0000     1.0599E+02     2.6821   0.2383    95.1263
 48      0.0000     0.0000E+00    0.0000E+00    1.300000E+10  0.00040  3.283E-05    0   0.4870   age193_m32            0.0000     5.3292E+01     2.2107   0.1957    97.8395
 49      0.0000     0.0000E+00    0.0000E+00    1.500000E+10  0.00040  2.925E-05    0   0.4854   age201_m32            0.0000     3.8583E+01     2.0772   0.1783    99.4220
 50      2.8174     1.0251E+01    9.8529E+00    1.800000E+10  0.00040  2.469E-05    0   0.4819   age213_m32            0.0000     3.9101E+01     2.1630   0.1390    99.9214
 51      0.0000     0.0000E+00    0.0000E+00    1.000000E+06  0.00400  1.114E-02    0   1.0000   age020_m42            0.0000     1.1140E+03    10.6423   3.6825    78.2967
 52      0.0000     0.0000E+00    0.0000E+00    3.160000E+06  0.00400  4.073E-02    0   0.9999   age045_m42            0.0000     1.9269E+02     4.6120   2.7169    92.3471
 53      0.4486     1.5903E-03    3.0097E-03    5.010000E+06  0.00400  2.534E-02    0   0.9488   age055_m42            0.0000     5.3303E+02     7.6366   3.1219    86.0503
 54      2.0286     7.0547E-03    1.2974E-02    6.610000E+06  0.00400  2.583E-02    0   0.9220   age061_m42            0.0000     1.3243E+02     3.8801   2.5314    93.1412
 55      0.0000     0.0000E+00    0.0000E+00    8.710000E+06  0.00400  1.706E-02    0   0.8983   age067_m42            0.0000     2.8037E+02     5.7997   2.3578    91.2144
 56      0.0000     0.0000E+00    0.0000E+00    1.000000E+07  0.00400  1.271E-02    0   0.8862   age070_m42            0.0000     4.5239E+02     7.5673   2.3460    89.7252
 57      0.0000     0.0000E+00    0.0000E+00    1.445000E+07  0.00400  7.666E-03    0   0.8571   age078_m42            0.0000     6.2944E+02     8.4269   2.7466    86.5013
 58      0.0000     0.0000E+00    0.0000E+00    2.512000E+07  0.00400  5.070E-03    0   0.8174   age090_m42            0.0000     3.7967E+02     6.8659   2.2158    91.2777
 59      0.0000     0.0000E+00    0.0000E+00    4.000000E+07  0.00400  3.505E-03    0   0.7851   age104_m42            0.0000     2.0924E+02     4.8569   1.8965    94.1853
 60      0.0000     0.0000E+00    0.0000E+00    5.500000E+07  0.00400  3.059E-03    0   0.7629   age110_m42            0.0000     6.3638E+01     2.2918   1.9513    98.8151
 61      0.0000     0.0000E+00    0.0000E+00    1.015200E+08  0.00400  2.268E-03    0   0.7207   age116_m42            0.0000     3.5543E+02     5.2604   1.8618   104.0219
 62      0.0000     0.0000E+00    0.0000E+00    1.609000E+08  0.00400  1.720E-03    0   0.6930   age120_m42            0.0000     4.2453E+02     6.0222   1.7198   105.6860
 63      0.0000     0.0000E+00    0.0000E+00    2.861200E+08  0.00400  1.079E-03    0   0.6613   age125_m42            0.0000     4.4669E+02     6.1990   1.3694   105.9792
 64      0.0000     0.0000E+00    0.0000E+00    5.088000E+08  0.00400  6.261E-04    0   0.6313   age130_m42            0.0000     5.4141E+02     6.7305   1.1780   108.7031
 65      0.0000     0.0000E+00    0.0000E+00    9.047900E+08  0.00400  3.535E-04    0   0.6024   age135_m42            0.0000     2.9050E+02     5.3169   0.7779   108.6952
 66      0.0000     0.0000E+00    0.0000E+00    1.278050E+09  0.00400  2.677E-04    0   0.5837   age138_m42            0.0000     2.6745E+02     5.9209   0.1012   105.3186
 67      0.0000     0.0000E+00    0.0000E+00    1.434000E+09  0.00400  1.910E-04    0   0.5716   age139_m42            0.0000     2.3786E+02     5.6132   0.2633   106.5473
 68      0.0000     0.0000E+00    0.0000E+00    2.500000E+09  0.00400  9.818E-05    0   0.5463   age150_m42            0.0000     3.0495E+02     5.7628  -0.0019   101.3433
 69      0.0000     0.0000E+00    0.0000E+00    4.250000E+09  0.00400  5.491E-05    0   0.5269   age158_m42            0.0000     3.8929E+02     6.1300  -0.1193    98.3115
 70      0.0000     0.0000E+00    0.0000E+00    6.250000E+09  0.00400  3.857E-05    0   0.5151   age166_m42            0.0000     5.1320E+02     6.9184  -0.2392    96.6822
 71      0.0000     0.0000E+00    0.0000E+00    7.500000E+09  0.00400  3.243E-05    0   0.5110   age171_m42            0.0000     5.9556E+02     7.4156  -0.3128    95.9474
 72      0.0000     0.0000E+00    0.0000E+00    1.000000E+10  0.00400  2.424E-05    0   0.5028   age181_m42            0.0000     7.0976E+02     8.0345  -0.3858    95.0817
 73      0.0000     0.0000E+00    0.0000E+00    1.300000E+10  0.00400  1.883E-05    0   0.4927   age193_m42            0.0000     7.9697E+02     8.4685  -0.4207    94.6000
 74      0.0000     0.0000E+00    0.0000E+00    1.500000E+10  0.00400  1.685E-05    0   0.4919   age201_m42            0.0000     7.7208E+02     8.3388  -0.4164    94.6686
 75      0.0000     0.0000E+00    0.0000E+00    1.800000E+10  0.00400  1.452E-05    0   0.4874   age213_m42            0.0000     7.2597E+02     8.1131  -0.4023    95.0172
 76      0.0000     0.0000E+00    0.0000E+00    1.000000E+06  0.00800  1.286E-02    0   1.0000   age020_m52            0.0000     9.6569E+02    10.0138   3.6612    80.0435
 77      0.0000     0.0000E+00    0.0000E+00    3.160000E+06  0.00800  3.147E-02    0   0.9966   age045_m52            0.0000     9.0614E+02     9.8233   3.5729    81.5833
 78      0.0000     0.0000E+00    0.0000E+00    5.010000E+06  0.00800  2.664E-02    0   0.9443   age055_m52            0.0000     6.3271E+02     8.1874   3.2431    84.9297
 79      0.0000     0.0000E+00    0.0000E+00    6.610000E+06  0.00800  2.151E-02    0   0.9177   age061_m52            0.0000     3.9920E+02     6.3809   1.9394    91.2016
 80      0.0000     0.0000E+00    0.0000E+00    8.710000E+06  0.00800  1.628E-02    0   0.8948   age067_m52            0.0000     3.3743E+02     6.2911   2.3163    91.5608
 81      0.0000     0.0000E+00    0.0000E+00    1.000000E+07  0.00800  1.215E-02    0   0.8827   age070_m52            0.0000     4.2624E+02     7.0643   2.6593    89.7053
 82      0.0000     0.0000E+00    0.0000E+00    1.445000E+07  0.00800  8.739E-03    0   0.8552   age078_m52            0.0000     3.1720E+02     6.0617   2.6977    91.0350
 83      0.4515     7.1458E-03    1.1633E-02    2.512000E+07  0.00800  5.676E-03    0   0.8162   age090_m52            0.0000     1.6398E+02     4.4415   2.3016    95.7735
 84      0.0000     0.0000E+00    0.0000E+00    4.000000E+07  0.00800  3.939E-03    0   0.7841   age104_m52            0.0000     1.0581E+02     3.1006   2.1404    98.2554
 85      0.0000     0.0000E+00    0.0000E+00    5.500000E+07  0.00800  3.155E-03    0   0.7627   age110_m52            0.0000     1.1320E+02     2.5647   2.1071    99.9673
 86      0.0000     0.0000E+00    0.0000E+00    1.015200E+08  0.00800  2.206E-03    0   0.7226   age116_m52            0.0000     2.3624E+02     4.2301   1.9166   103.8323
 87      0.0000     0.0000E+00    0.0000E+00    1.609000E+08  0.00800  1.596E-03    0   0.6963   age120_m52            0.0000     3.2422E+02     5.2320   1.7023   105.4668
 88      0.0000     0.0000E+00    0.0000E+00    2.861200E+08  0.00800  1.002E-03    0   0.6665   age125_m52            0.0000     6.2089E+02     7.5862   1.4123   108.1031
 89      0.0000     0.0000E+00    0.0000E+00    5.088000E+08  0.00800  5.759E-04    0   0.6377   age130_m52            0.0000     7.4020E+02     8.6037   1.0656   111.8605
 90      0.0000     0.0000E+00    0.0000E+00    9.047900E+08  0.00800  2.972E-04    0   0.6086   age135_m52            0.0000     5.1021E+02     7.7864   0.5251   110.4438
 91      0.0000     0.0000E+00    0.0000E+00    1.278050E+09  0.00800  2.242E-04    0   0.5907   age138_m52            0.0000     4.5438E+02     7.3775  -0.0757   108.1731
 92      0.0000     0.0000E+00    0.0000E+00    1.434000E+09  0.00800  1.645E-04    0   0.5787   age139_m52            0.0000     3.7773E+02     6.7464   0.0715   107.6785
 93      0.0000     0.0000E+00    0.0000E+00    2.500000E+09  0.00800  7.723E-05    0   0.5519   age150_m52            0.0000     5.4049E+02     7.4877  -0.2547   103.2479
 94      0.0000     0.0000E+00    0.0000E+00    4.250000E+09  0.00800  4.151E-05    0   0.5320   age158_m52            0.0000     6.0010E+02     7.6001  -0.3196   100.5350
 95      0.0000     0.0000E+00    0.0000E+00    6.250000E+09  0.00800  3.010E-05    0   0.5197   age166_m52            0.0000     8.0977E+02     8.6617  -0.5025    98.7004
 96      0.0000     0.0000E+00    0.0000E+00    7.500000E+09  0.00800  2.467E-05    0   0.5139   age171_m52            0.0000     8.6717E+02     8.9510  -0.5418    98.2032
 97      0.0000     0.0000E+00    0.0000E+00    1.000000E+10  0.00800  1.862E-05    0   0.5054   age181_m52            0.0000     1.0476E+03     9.8492  -0.6661    97.5519
