###################################################################
## OUTPUT of StarlightChains_v04.for    [Cid@UFSC - 01/Apr/2007] ##
###################################################################

## Some input info
NGC2808_b_1.cxt                          [arq_obs]
Base.BC03.S                              [arq_base]
NGC2808_b_1.msk                          [arq_masks]
StCv04.C99.config                        [arq_config]
  150                                    [N_base]
    0                                    [N_YAV_components = # of components with extra extinction!]
    0                                    [i_FitPowerLaw (1/0 = Yes/No)]
-9.99                                    [alpha_PowerLaw]
CCM                                      [red_law_option]
 1.458241                                [q_norm = A(l_norm)/A(V)]

## (Re)Sampling Parameters
 3359.00                                 [l_ini (A)]
 6428.00                                 [l_fin (A)]
    1.00                                 [dl    (A)]     (OBS: dl_cushion =    50.00 A)

## Normalization info
 4020.00                                 [l_norm (A) - for base]
 4010.00                                 [llow_norm (A) - window for f_obs]
 4060.00                                 [lupp_norm (A) - window for f_obs]
3.144042E-14                             [fobs_norm (in input units)]

## S/N
 4730.00                                 [llow_SN (A) - window for S/N]
 4780.00                                 [lupp_SN (A) - window for S/N]
  65.329                                 [S/N in S/N window]
  51.114                                 [S/N in norm. window]
 151.759                                 [S/N_err in S/N window]
 118.738                                 [S/N_err in norm. window]
  1.0000                                 [fscale_chi2]

## etc...
  2147483641                             [idum_orig]
  3067                                   [NOl_eff]
  1269                                   [Nl_eff]
  1798    NSIGMA                         [Ntot_cliped & clip_method]
  3477950                                [Nglobal_steps]
   7                                     [N_chains]
  22                                     [NEX0s_base = N_base in EX0s-fits]
 0   0   1      256   2.0   2.497E+02    [Clip-Bug, RC-Crash & Burn-In warning-flags, n_censored_weights, wei_nsig_threshold & wei_limit]
   134    134.449    134.441      0.008  [idt_all, wdt_TotTime, wdt_UsrTime & wdt_SysTime (sec)]

## Synthesis Results - Best model ##

 2.56380E+00                             [chi2/Nl_eff]
     1.32657                             [adev (%)]

   101.76050                             [sum-of-x (%)]
 6.88621E-14                             [Flux_tot (units of input spectrum!)]
 1.63419E-09                             [Mini_tot (???)]
 8.30421E-10                             [Mcor_tot (???)]

  -5.19                                  [v0_min  (km/s)]
  66.69                                  [vd_min  (km/s)]
 0.5707                                  [AV_min  (mag)]
 0.0000                                  [YAV_min (mag)]

# j     x_j(%)      Mini_j(%)     Mcor_j(%)     age_j(yr)     Z_j      (L/M)_j    YAV?  Mstars   component_j        a/Fe...       SSP_chi2r SSP_adev(%)   SSP_AV   SSP_x(%)
  1      0.0000     0.0000E+00    0.0000E+00    1.000000E+06  0.00010  8.160E-03    0   1.0000   age020_m22            0.0000     3.6584E+02    14.4209   4.0000    84.1707
  2     16.4459     1.4310E-02    2.8161E-02    3.160000E+06  0.00010  4.759E-02    0   1.0000   age045_m22            0.0000     6.9990E+01     5.6585   2.2158    99.5177
  3      0.9959     2.1344E-03    4.0248E-03    5.010000E+06  0.00010  1.932E-02    0   0.9582   age055_m22            0.0000     2.8748E+02    12.7959   2.5114    87.5672
  4      0.0000     0.0000E+00    0.0000E+00    6.610000E+06  0.00010  9.973E-03    0   0.9297   age061_m22            0.0000     3.5400E+02    14.3586   4.0000    86.7047
  5      0.0000     0.0000E+00    0.0000E+00    8.710000E+06  0.00010  7.690E-03    0   0.9030   age067_m22            0.0000     3.3339E+02    13.9796   4.0000    86.9922
  6      0.0000     0.0000E+00    0.0000E+00    1.000000E+07  0.00010  6.375E-03    0   0.8902   age070_m22            0.0000     3.2381E+02    13.7220   4.0000    87.3547
  7      0.0000     0.0000E+00    0.0000E+00    1.445000E+07  0.00010  4.874E-03    0   0.8589   age078_m22            0.0000     2.1873E+02    11.5397   3.9923    87.2420
  8      0.0000     0.0000E+00    0.0000E+00    2.512000E+07  0.00010  4.103E-03    0   0.8174   age090_m22            0.0000     1.2618E+02     8.5505   3.5935    92.9356
  9      0.0000     0.0000E+00    0.0000E+00    4.000000E+07  0.00010  3.654E-03    0   0.7830   age104_m22            0.0000     1.2602E+02     7.2325   3.3089    96.9020
 10      0.0000     0.0000E+00    0.0000E+00    5.500000E+07  0.00010  3.093E-03    0   0.7597   age110_m22            0.0000     1.3447E+02     7.0022   3.2077    98.3349
 11      0.0000     0.0000E+00    0.0000E+00    1.015200E+08  0.00010  2.431E-03    0   0.7138   age116_m22            0.0000     1.7632E+02     7.5094   2.8662   100.9717
 12      0.0000     0.0000E+00    0.0000E+00    1.609000E+08  0.00010  1.319E-03    0   0.6775   age120_m22            0.0000     1.7906E+02     7.2958   2.3843   103.3857
 13      0.0000     0.0000E+00    0.0000E+00    2.861200E+08  0.00010  1.075E-03    0   0.6412   age125_m22            0.0000     3.8815E+02    10.5636   2.4546   106.5336
 14      0.0000     0.0000E+00    0.0000E+00    5.088000E+08  0.00010  7.183E-04    0   0.6083   age130_m22            0.0000     4.6261E+02    11.5887   2.2195   108.3628
 15      0.0000     0.0000E+00    0.0000E+00    9.047900E+08  0.00010  4.524E-04    0   0.5785   age135_m22            0.0000     4.6698E+02    11.7081   2.0148   109.6524
 16      0.0000     0.0000E+00    0.0000E+00    1.278050E+09  0.00010  3.018E-04    0   0.5588   age138_m22            0.0000     2.4465E+02     8.4734   1.4767   108.1426
 17      0.0000     0.0000E+00    0.0000E+00    1.434000E+09  0.00010  2.691E-04    0   0.5532   age139_m22            0.0000     2.0406E+02     7.7616   1.3172   107.6753
 18      0.0000     0.0000E+00    0.0000E+00    2.500000E+09  0.00010  1.582E-04    0   0.5296   age150_m22            0.0000     1.8242E+02     7.4689   1.2068   108.3653
 19      0.0000     0.0000E+00    0.0000E+00    4.250000E+09  0.00010  1.007E-04    0   0.5110   age158_m22            0.0000     1.1039E+02     5.8537   1.0479   106.8905
 20      0.1469     8.8536E-02    8.6854E-02    6.250000E+09  0.00010  6.869E-05    0   0.4985   age166_m22            0.0000     5.7913E+01     4.2459   0.9815   104.4074
 21      0.0000     0.0000E+00    0.0000E+00    7.500000E+09  0.00010  5.873E-05    0   0.4931   age171_m22            0.0000     5.3881E+01     4.1640   0.9711   103.8796
 22      0.0000     0.0000E+00    0.0000E+00    1.000000E+10  0.00010  4.481E-05    0   0.4854   age181_m22            0.0000     5.1315E+01     4.0638   0.9318   103.5376
 23      0.0000     0.0000E+00    0.0000E+00    1.300000E+10  0.00010  3.489E-05    0   0.4791   age193_m22            0.0000     4.5175E+01     3.7979   0.8728   103.0281
 24      0.0000     0.0000E+00    0.0000E+00    1.500000E+10  0.00010  3.035E-05    0   0.4766   age201_m22            0.0000     4.1878E+01     3.6578   0.8327   102.8575
 25      1.7853     2.9453E+00    2.7445E+00    1.800000E+10  0.00010  2.510E-05    0   0.4735   age213_m22            0.0000     3.4674E+01     3.3373   0.7619   102.2958
 26      0.0000     0.0000E+00    0.0000E+00    1.000000E+06  0.00040  8.458E-03    0   1.0000   age020_m32            0.0000     3.6761E+02    14.4201   4.0000    85.1359
 27      0.0000     0.0000E+00    0.0000E+00    3.160000E+06  0.00040  3.973E-02    0   1.0000   age045_m32            0.0000     1.3525E+02     8.9239   3.4916    92.9933
 28      0.0000     0.0000E+00    0.0000E+00    5.010000E+06  0.00040  1.935E-02    0   0.9532   age055_m32            0.0000     2.5355E+02    12.4042   3.7177    87.6428
 29      0.0000     0.0000E+00    0.0000E+00    6.610000E+06  0.00040  1.204E-02    0   0.9243   age061_m32            0.0000     2.7366E+02    12.8504   4.0000    86.3401
 30      0.0000     0.0000E+00    0.0000E+00    8.710000E+06  0.00040  9.433E-03    0   0.9001   age067_m32            0.0000     2.4623E+02    12.1925   4.0000    86.6976
 31      0.0000     0.0000E+00    0.0000E+00    1.000000E+07  0.00040  8.053E-03    0   0.8877   age070_m32            0.0000     2.3596E+02    11.9706   3.9630    87.1403
 32      0.0000     0.0000E+00    0.0000E+00    1.445000E+07  0.00040  7.027E-03    0   0.8578   age078_m32            0.0000     1.6427E+02     9.9591   3.4487    91.7920
 33      0.0000     0.0000E+00    0.0000E+00    2.512000E+07  0.00040  4.707E-03    0   0.8166   age090_m32            0.0000     1.2342E+02     8.1474   3.1562    95.3693
 34      0.0000     0.0000E+00    0.0000E+00    4.000000E+07  0.00040  3.714E-03    0   0.7827   age104_m32            0.0000     1.2028E+02     7.1276   2.9608    98.2667
 35      0.0000     0.0000E+00    0.0000E+00    5.500000E+07  0.00040  2.982E-03    0   0.7593   age110_m32            0.0000     1.3068E+02     7.0226   2.9010    99.2947
 36      0.0000     0.0000E+00    0.0000E+00    1.015200E+08  0.00040  2.188E-03    0   0.7143   age116_m32            0.0000     2.2919E+02     8.2845   2.6393   103.1699
 37      0.0000     0.0000E+00    0.0000E+00    1.609000E+08  0.00040  1.690E-03    0   0.6856   age120_m32            0.0000     3.2030E+02     9.6058   2.4369   105.6736
 38      0.0000     0.0000E+00    0.0000E+00    2.861200E+08  0.00040  1.152E-03    0   0.6509   age125_m32            0.0000     4.0474E+02    10.7995   2.2062   107.7226
 39      0.0000     0.0000E+00    0.0000E+00    5.088000E+08  0.00040  7.331E-04    0   0.6182   age130_m32            0.0000     4.3409E+02    11.2317   2.0377   108.5363
 40      0.0000     0.0000E+00    0.0000E+00    9.047900E+08  0.00040  3.960E-04    0   0.5890   age135_m32            0.0000     2.4921E+02     8.6246   1.5580   107.6124
 41      0.0000     0.0000E+00    0.0000E+00    1.278050E+09  0.00040  2.854E-04    0   0.5687   age138_m32            0.0000     2.0599E+02     7.9141   1.2729   109.2866
 42      0.0000     0.0000E+00    0.0000E+00    1.434000E+09  0.00040  2.531E-04    0   0.5632   age139_m32            0.0000     2.0087E+02     7.8227   1.2122   109.2691
 43      0.0000     0.0000E+00    0.0000E+00    2.500000E+09  0.00040  1.488E-04    0   0.5386   age150_m32            0.0000     1.4175E+02     6.5816   0.9496   107.6973
 44      0.1702     7.7602E-02    7.9396E-02    4.250000E+09  0.00040  9.082E-05    0   0.5199   age158_m32            0.0000     5.2360E+01     3.9633   0.8385   104.7417
 45      2.2492     1.4640E+00    1.4624E+00    6.250000E+09  0.00040  6.362E-05    0   0.5076   age166_m32            0.0000     1.9522E+01     2.5503   0.7882   101.6368
 46     21.7312     1.7014E+01    1.6831E+01    7.500000E+09  0.00040  5.289E-05    0   0.5027   age171_m32            0.0000     1.5070E+01     2.3206   0.7472   100.4809
 47     25.8163     2.6914E+01    2.6207E+01    1.000000E+10  0.00040  3.972E-05    0   0.4948   age181_m32            0.0000     1.1798E+01     2.1297   0.6792    99.2239
 48      0.0000     0.0000E+00    0.0000E+00    1.300000E+10  0.00040  3.283E-05    0   0.4870   age193_m32            0.0000     1.9402E+01     2.4863   0.6406   101.7740
 49      0.0000     0.0000E+00    0.0000E+00    1.500000E+10  0.00040  2.925E-05    0   0.4854   age201_m32            0.0000     2.9837E+01     3.0323   0.6258   103.2524
 50      0.0000     0.0000E+00    0.0000E+00    1.800000E+10  0.00040  2.469E-05    0   0.4819   age213_m32            0.0000     3.4480E+01     3.2517   0.5865   103.7320
 51      0.0000     0.0000E+00    0.0000E+00    1.000000E+06  0.00400  1.114E-02    0   1.0000   age020_m42            0.0000     3.2469E+02    13.7176   4.0000    84.5248
 52      0.0000     0.0000E+00    0.0000E+00    3.160000E+06  0.00400  4.073E-02    0   0.9999   age045_m42            0.0000     9.3957E+01     7.1453   3.1935    95.5264
 53      0.0000     0.0000E+00    0.0000E+00    5.010000E+06  0.00400  2.534E-02    0   0.9488   age055_m42            0.0000     1.6872E+02    10.2787   3.5898    89.6826
 54      0.0000     0.0000E+00    0.0000E+00    6.610000E+06  0.00400  2.583E-02    0   0.9220   age061_m42            0.0000     9.7013E+01     6.8630   3.0111    96.0892
 55      0.0000     0.0000E+00    0.0000E+00    8.710000E+06  0.00400  1.706E-02    0   0.8983   age067_m42            0.0000     1.2051E+02     8.3745   2.8343    94.4807
 56      0.0000     0.0000E+00    0.0000E+00    1.000000E+07  0.00400  1.271E-02    0   0.8862   age070_m42            0.0000     1.6186E+02     9.9706   2.8219    93.1480
 57      0.0000     0.0000E+00    0.0000E+00    1.445000E+07  0.00400  7.666E-03    0   0.8571   age078_m42            0.0000     1.9505E+02    10.9943   3.2125    90.2829
 58      0.0000     0.0000E+00    0.0000E+00    2.512000E+07  0.00400  5.070E-03    0   0.8174   age090_m42            0.0000     1.3703E+02     9.2554   2.6844    94.9004
 59      0.0000     0.0000E+00    0.0000E+00    4.000000E+07  0.00400  3.505E-03    0   0.7851   age104_m42            0.0000     8.9260E+01     7.3611   2.3592    97.8732
 60      0.0000     0.0000E+00    0.0000E+00    5.500000E+07  0.00400  3.059E-03    0   0.7629   age110_m42            0.0000     1.0764E+02     6.0468   2.4236   101.8825
 61      0.0000     0.0000E+00    0.0000E+00    1.015200E+08  0.00400  2.268E-03    0   0.7207   age116_m42            0.0000     2.7795E+02     8.7364   2.3460   106.4136
 62      0.0000     0.0000E+00    0.0000E+00    1.609000E+08  0.00400  1.720E-03    0   0.6930   age120_m42            0.0000     3.0268E+02     9.1161   2.2011   108.1132
 63      0.0000     0.0000E+00    0.0000E+00    2.861200E+08  0.00400  1.079E-03    0   0.6613   age125_m42            0.0000     3.1021E+02     9.3554   1.8463   108.7267
 64      0.0000     0.0000E+00    0.0000E+00    5.088000E+08  0.00400  6.261E-04    0   0.6313   age130_m42            0.0000     3.5373E+02    10.0396   1.6554   111.4992
 65      0.0000     0.0000E+00    0.0000E+00    9.047900E+08  0.00400  3.535E-04    0   0.6024   age135_m42            0.0000     2.1657E+02     7.8866   1.2410   112.0407
 66      0.0000     0.0000E+00    0.0000E+00    1.278050E+09  0.00400  2.677E-04    0   0.5837   age138_m42            0.0000     8.8093E+01     5.8709   0.5228   110.0918
 67      0.0000     0.0000E+00    0.0000E+00    1.434000E+09  0.00400  1.910E-04    0   0.5716   age139_m42            0.0000     1.0749E+02     6.0761   0.6975   110.8382
 68      0.0000     0.0000E+00    0.0000E+00    2.500000E+09  0.00400  9.818E-05    0   0.5463   age150_m42            0.0000     3.7270E+01     4.0861   0.4035   106.5008
 69      0.0000     0.0000E+00    0.0000E+00    4.250000E+09  0.00400  5.491E-05    0   0.5269   age158_m42            0.0000     3.0631E+01     3.8699   0.2737   103.8617
 70      1.6520     1.7736E+00    1.7979E+00    6.250000E+09  0.00400  3.857E-05    0   0.5151   age166_m42            0.0000     4.5931E+01     4.5778   0.1393   102.5949
 71      1.3768     1.7580E+00    1.7679E+00    7.500000E+09  0.00400  3.243E-05    0   0.5110   age171_m42            0.0000     5.9662E+01     5.1024   0.0567   102.0788
 72      0.0000     0.0000E+00    0.0000E+00    1.000000E+10  0.00400  2.424E-05    0   0.5028   age181_m42            0.0000     8.0930E+01     5.8188  -0.0276   101.5132
 73      0.0013     2.8183E-03    2.7326E-03    1.300000E+10  0.00400  1.883E-05    0   0.4927   age193_m42            0.0000     9.8721E+01     6.3721  -0.0701   101.2695
 74      0.0000     0.0000E+00    0.0000E+00    1.500000E+10  0.00400  1.685E-05    0   0.4919   age201_m42            0.0000     9.3201E+01     6.2080  -0.0640   101.2783
 75      0.0000     0.0000E+00    0.0000E+00    1.800000E+10  0.00400  1.452E-05    0   0.4874   age213_m42            0.0000     8.3533E+01     5.9161  -0.0462   101.5238
 76      0.0000     0.0000E+00    0.0000E+00    1.000000E+06  0.00800  1.286E-02    0   1.0000   age020_m52            0.0000     2.8200E+02    12.9654   4.0000    86.0145
 77      0.0000     0.0000E+00    0.0000E+00    3.160000E+06  0.00800  3.147E-02    0   0.9966   age045_m52            0.0000     2.6071E+02    12.5719   4.0000    86.1357
 78      0.0000     0.0000E+00    0.0000E+00    5.010000E+06  0.00800  2.664E-02    0   0.9443   age055_m52            0.0000     1.9445E+02    10.9727   3.7026    88.8519
 79      0.0000     0.0000E+00    0.0000E+00    6.610000E+06  0.00800  2.151E-02    0   0.9177   age061_m52            0.0000     1.1057E+02     8.4565   2.3976    95.2604
 80      0.0000     0.0000E+00    0.0000E+00    8.710000E+06  0.00800  1.628E-02    0   0.8948   age067_m52            0.0000     1.3154E+02     8.9929   2.7813    95.1937
 81      0.0000     0.0000E+00    0.0000E+00    1.000000E+07  0.00800  1.215E-02    0   0.8827   age070_m52            0.0000     1.6098E+02     9.9917   3.1208    93.3627
 82      0.0000     0.0000E+00    0.0000E+00    1.445000E+07  0.00800  8.739E-03    0   0.8552   age078_m52            0.0000     1.4459E+02     9.2050   3.1639    94.4581
 83      0.0000     0.0000E+00    0.0000E+00    2.512000E+07  0.00800  5.676E-03    0   0.8162   age090_m52            0.0000     1.3872E+02     8.0218   2.7767    98.7009
 84      0.0000     0.0000E+00    0.0000E+00    4.000000E+07  0.00800  3.939E-03    0   0.7841   age104_m52            0.0000     1.3925E+02     7.2894   2.6173   101.0559
 85      0.0000     0.0000E+00    0.0000E+00    5.500000E+07  0.00800  3.155E-03    0   0.7627   age110_m52            0.0000     1.5843E+02     7.0871   2.5862   102.6795
 86      0.0000     0.0000E+00    0.0000E+00    1.015200E+08  0.00800  2.206E-03    0   0.7226   age116_m52            0.0000     2.2481E+02     7.8574   2.3990   106.3395
 87      0.0000     0.0000E+00    0.0000E+00    1.609000E+08  0.00800  1.596E-03    0   0.6963   age120_m52            0.0000     2.6279E+02     8.5273   2.1825   108.0525
 88      0.0000     0.0000E+00    0.0000E+00    2.861200E+08  0.00800  1.002E-03    0   0.6665   age125_m52            0.0000     3.7254E+02    10.3974   1.8832   110.9627
 89      0.0000     0.0000E+00    0.0000E+00    5.088000E+08  0.00800  5.759E-04    0   0.6377   age130_m52            0.0000     3.8974E+02    10.9810   1.5219   115.2340
 90      0.0000     0.0000E+00    0.0000E+00    9.047900E+08  0.00800  2.972E-04    0   0.6086   age135_m52            0.0000     2.1869E+02     8.6424   0.9564   114.7546
 91      0.0000     0.0000E+00    0.0000E+00    1.278050E+09  0.00800  2.242E-04    0   0.5907   age138_m52            0.0000     1.0061E+02     6.3042   0.3267   113.5691
 92      0.0000     0.0000E+00    0.0000E+00    1.434000E+09  0.00800  1.645E-04    0   0.5787   age139_m52            0.0000     8.3417E+01     5.6550   0.4780   112.9190
 93      0.0000     0.0000E+00    0.0000E+00    2.500000E+09  0.00800  7.723E-05    0   0.5519   age150_m52            0.0000     6.5419E+01     5.3749   0.1235   109.3359
 94      5.4454     5.4321E+00    5.6871E+00    4.250000E+09  0.00800  4.151E-05    0   0.5320   age158_m52            0.0000     6.4104E+01     5.3643   0.0497   106.8035
 95      2.9354     4.0384E+00    4.1301E+00    6.250000E+09  0.00800  3.010E-05    0   0.5197   age166_m52            0.0000     9.9569E+01     6.4452  -0.1545   105.5450
 96      4.5180     7.5835E+00    7.6693E+00    7.500000E+09  0.00800  2.467E-05    0   0.5139   age171_m52            0.0000     1.1122E+02     6.7526  -0.1988   105.1721
 97      4.7292     1.0517E+01    1.0460E+01    1.000000E+10  0.00800  1.862E-05    0   0.5054   age181_m52            0.0000     1.5013E+02     7.7037  -0.3381   104.9031
