###################################################################
## OUTPUT of StarlightChains_v04.for    [Cid@UFSC - 01/Apr/2007] ##
###################################################################

## Some input info
NGC2808_a_1.cxt                          [arq_obs]
Base.BC03.S                              [arq_base]
NGC2808_a_1.msk                          [arq_masks]
StCv04.C99.config                        [arq_config]
  150                                    [N_base]
    0                                    [N_YAV_components = # of components with extra extinction!]
    0                                    [i_FitPowerLaw (1/0 = Yes/No)]
-9.99                                    [alpha_PowerLaw]
CCM                                      [red_law_option]
 1.458241                                [q_norm = A(l_norm)/A(V)]

## (Re)Sampling Parameters
 3359.00                                 [l_ini (A)]
 6428.00                                 [l_fin (A)]
    1.00                                 [dl    (A)]     (OBS: dl_cushion =    50.00 A)

## Normalization info
 4020.00                                 [l_norm (A) - for base]
 4010.00                                 [llow_norm (A) - window for f_obs]
 4060.00                                 [lupp_norm (A) - window for f_obs]
8.660000E-14                             [fobs_norm (in input units)]

## S/N
 4730.00                                 [llow_SN (A) - window for S/N]
 4780.00                                 [lupp_SN (A) - window for S/N]
  64.505                                 [S/N in S/N window]
  51.490                                 [S/N in norm. window]
 409.712                                 [S/N_err in S/N window]
 327.043                                 [S/N_err in norm. window]
  1.0000                                 [fscale_chi2]

## etc...
  2147483642                             [idum_orig]
  3066                                   [NOl_eff]
   655                                   [Nl_eff]
  2411    NSIGMA                         [Ntot_cliped & clip_method]
  3396960                                [Nglobal_steps]
   7                                     [N_chains]
  17                                     [NEX0s_base = N_base in EX0s-fits]
 0   0   1      258   2.0   6.881E+02    [Clip-Bug, RC-Crash & Burn-In warning-flags, n_censored_weights, wei_nsig_threshold & wei_limit]
   158    158.130    158.121      0.008  [idt_all, wdt_TotTime, wdt_UsrTime & wdt_SysTime (sec)]

## Synthesis Results - Best model ##

 2.95474E+00                             [chi2/Nl_eff]
     0.59392                             [adev (%)]

   100.95694                             [sum-of-x (%)]
 1.99428E-13                             [Flux_tot (units of input spectrum!)]
 4.69600E-09                             [Mini_tot (???)]
 2.36343E-09                             [Mcor_tot (???)]

 -11.22                                  [v0_min  (km/s)]
  51.94                                  [vd_min  (km/s)]
 0.6140                                  [AV_min  (mag)]
 0.0000                                  [YAV_min (mag)]

# j     x_j(%)      Mini_j(%)     Mcor_j(%)     age_j(yr)     Z_j      (L/M)_j    YAV?  Mstars   component_j        a/Fe...       SSP_chi2r SSP_adev(%)   SSP_AV   SSP_x(%)
  1      0.0000     0.0000E+00    0.0000E+00    1.000000E+06  0.00010  8.160E-03    0   1.0000   age020_m22            0.0000     2.2376E+03    13.8962   4.0000    81.3700
  2     17.7184     1.5661E-02    3.1118E-02    3.160000E+06  0.00010  4.759E-02    0   1.0000   age045_m22            0.0000     4.3404E+02     5.6459   2.1568    98.3569
  3      0.0000     0.0000E+00    0.0000E+00    5.010000E+06  0.00010  1.932E-02    0   0.9582   age055_m22            0.0000     2.0826E+03    13.0517   2.4332    85.3225
  4      0.0000     0.0000E+00    0.0000E+00    6.610000E+06  0.00010  9.973E-03    0   0.9297   age061_m22            0.0000     2.3058E+03    14.0681   4.0000    83.6082
  5      0.0000     0.0000E+00    0.0000E+00    8.710000E+06  0.00010  7.690E-03    0   0.9030   age067_m22            0.0000     2.1653E+03    13.7230   4.0000    83.9134
  6      0.0000     0.0000E+00    0.0000E+00    1.000000E+07  0.00010  6.375E-03    0   0.8902   age070_m22            0.0000     2.0878E+03    13.4778   4.0000    84.3905
  7      0.0000     0.0000E+00    0.0000E+00    1.445000E+07  0.00010  4.874E-03    0   0.8589   age078_m22            0.0000     1.4649E+03    11.6814   3.9320    84.9987
  8      0.0000     0.0000E+00    0.0000E+00    2.512000E+07  0.00010  4.103E-03    0   0.8174   age090_m22            0.0000     8.1237E+02     8.8585   3.5359    91.2922
  9      0.0000     0.0000E+00    0.0000E+00    4.000000E+07  0.00010  3.654E-03    0   0.7830   age104_m22            0.0000     7.9644E+02     7.5959   3.2491    95.9163
 10      0.0000     0.0000E+00    0.0000E+00    5.500000E+07  0.00010  3.093E-03    0   0.7597   age110_m22            0.0000     8.6675E+02     7.3984   3.1515    97.4718
 11      0.0000     0.0000E+00    0.0000E+00    1.015200E+08  0.00010  2.431E-03    0   0.7138   age116_m22            0.0000     1.1512E+03     7.8820   2.8041   100.4945
 12      0.0000     0.0000E+00    0.0000E+00    1.609000E+08  0.00010  1.319E-03    0   0.6775   age120_m22            0.0000     1.1430E+03     7.4456   2.3236   103.0046
 13      0.0000     0.0000E+00    0.0000E+00    2.861200E+08  0.00010  1.075E-03    0   0.6412   age125_m22            0.0000     2.6131E+03    10.8883   2.4140   106.1722
 14      0.0000     0.0000E+00    0.0000E+00    5.088000E+08  0.00010  7.183E-04    0   0.6083   age130_m22            0.0000     3.1196E+03    11.8489   2.1847   107.9846
 15      0.0000     0.0000E+00    0.0000E+00    9.047900E+08  0.00010  4.524E-04    0   0.5785   age135_m22            0.0000     3.1355E+03    11.8467   1.9778   109.3905
 16      0.0000     0.0000E+00    0.0000E+00    1.278050E+09  0.00010  3.018E-04    0   0.5588   age138_m22            0.0000     1.6016E+03     8.2989   1.4237   108.1387
 17      0.0000     0.0000E+00    0.0000E+00    1.434000E+09  0.00010  2.691E-04    0   0.5532   age139_m22            0.0000     1.3290E+03     7.5257   1.2624   107.7007
 18      0.0000     0.0000E+00    0.0000E+00    2.500000E+09  0.00010  1.582E-04    0   0.5296   age150_m22            0.0000     1.1716E+03     7.1070   1.1419   108.5609
 19      0.0000     0.0000E+00    0.0000E+00    4.250000E+09  0.00010  1.007E-04    0   0.5110   age158_m22            0.0000     6.8485E+02     5.4563   0.9835   106.9157
 20      0.0000     0.0000E+00    0.0000E+00    6.250000E+09  0.00010  6.869E-05    0   0.4985   age166_m22            0.0000     3.4467E+02     3.9064   0.9214   104.1385
 21      0.0000     0.0000E+00    0.0000E+00    7.500000E+09  0.00010  5.873E-05    0   0.4931   age171_m22            0.0000     3.1869E+02     3.8382   0.9076   103.6004
 22      0.0000     0.0000E+00    0.0000E+00    1.000000E+10  0.00010  4.481E-05    0   0.4854   age181_m22            0.0000     3.0218E+02     3.7554   0.8692   103.2290
 23      0.0000     0.0000E+00    0.0000E+00    1.300000E+10  0.00010  3.489E-05    0   0.4791   age193_m22            0.0000     2.6131E+02     3.4900   0.8116   102.6886
 24      0.0000     0.0000E+00    0.0000E+00    1.500000E+10  0.00010  3.035E-05    0   0.4766   age201_m22            0.0000     2.3795E+02     3.3365   0.7715   102.5222
 25      1.9044     3.1916E+00    3.0028E+00    1.800000E+10  0.00010  2.510E-05    0   0.4735   age213_m22            0.0000     1.8877E+02     2.9807   0.7012   101.9381
 26      0.0000     0.0000E+00    0.0000E+00    1.000000E+06  0.00040  8.458E-03    0   1.0000   age020_m32            0.0000     2.2813E+03    13.9220   4.0000    82.3766
 27      0.0000     0.0000E+00    0.0000E+00    3.160000E+06  0.00040  3.973E-02    0   1.0000   age045_m32            0.0000     8.7066E+02     9.1099   3.4309    91.3467
 28      0.0000     0.0000E+00    0.0000E+00    5.010000E+06  0.00040  1.935E-02    0   0.9532   age055_m32            0.0000     1.7516E+03    12.6217   3.6452    85.4895
 29      0.0000     0.0000E+00    0.0000E+00    6.610000E+06  0.00040  1.204E-02    0   0.9243   age061_m32            0.0000     1.8537E+03    12.8452   3.9616    83.5383
 30      0.0000     0.0000E+00    0.0000E+00    8.710000E+06  0.00040  9.433E-03    0   0.9001   age067_m32            0.0000     1.6654E+03    12.3173   3.9342    84.4624
 31      0.0000     0.0000E+00    0.0000E+00    1.000000E+07  0.00040  8.053E-03    0   0.8877   age070_m32            0.0000     1.5941E+03    12.1108   3.8995    84.9019
 32      0.0000     0.0000E+00    0.0000E+00    1.445000E+07  0.00040  7.027E-03    0   0.8578   age078_m32            0.0000     1.1051E+03    10.3677   3.3769    90.1207
 33      0.0000     0.0000E+00    0.0000E+00    2.512000E+07  0.00040  4.707E-03    0   0.8166   age090_m32            0.0000     8.1195E+02     8.6263   3.0853    94.0794
 34      0.0000     0.0000E+00    0.0000E+00    4.000000E+07  0.00040  3.714E-03    0   0.7827   age104_m32            0.0000     7.7174E+02     7.5131   2.8905    97.4164
 35      0.0000     0.0000E+00    0.0000E+00    5.500000E+07  0.00040  2.982E-03    0   0.7593   age110_m32            0.0000     8.4032E+02     7.3673   2.8329    98.5631
 36      0.0000     0.0000E+00    0.0000E+00    1.015200E+08  0.00040  2.188E-03    0   0.7143   age116_m32            0.0000     1.5081E+03     8.6141   2.5831   102.7944
 37      0.0000     0.0000E+00    0.0000E+00    1.609000E+08  0.00040  1.690E-03    0   0.6856   age120_m32            0.0000     2.1524E+03     9.9030   2.3866   105.4797
 38      0.0000     0.0000E+00    0.0000E+00    2.861200E+08  0.00040  1.152E-03    0   0.6509   age125_m32            0.0000     2.7283E+03    11.0487   2.1669   107.4110
 39      0.0000     0.0000E+00    0.0000E+00    5.088000E+08  0.00040  7.331E-04    0   0.6182   age130_m32            0.0000     2.9239E+03    11.4350   2.0015   108.2145
 40      0.0000     0.0000E+00    0.0000E+00    9.047900E+08  0.00040  3.960E-04    0   0.5890   age135_m32            0.0000     1.6517E+03     8.6137   1.5168   107.3902
 41      0.0000     0.0000E+00    0.0000E+00    1.278050E+09  0.00040  2.854E-04    0   0.5687   age138_m32            0.0000     1.3220E+03     7.5781   1.2113   109.5016
 42      0.0000     0.0000E+00    0.0000E+00    1.434000E+09  0.00040  2.531E-04    0   0.5632   age139_m32            0.0000     1.2891E+03     7.4650   1.1492   109.5216
 43      0.0000     0.0000E+00    0.0000E+00    2.500000E+09  0.00040  1.488E-04    0   0.5386   age150_m32            0.0000     9.1006E+02     6.2340   0.8887   107.8804
 44      0.0000     0.0000E+00    0.0000E+00    4.250000E+09  0.00040  9.082E-05    0   0.5199   age158_m32            0.0000     3.1008E+02     3.5953   0.7811   104.5479
 45     20.2172     1.3367E+01    1.3482E+01    6.250000E+09  0.00040  6.362E-05    0   0.5076   age166_m32            0.0000     9.1819E+01     2.0702   0.7331   101.0536
 46     10.8198     8.6054E+00    8.5954E+00    7.500000E+09  0.00040  5.289E-05    0   0.5027   age171_m32            0.0000     6.4857E+01     1.8257   0.6959    99.7688
 47     20.3686     2.1571E+01    2.1208E+01    1.000000E+10  0.00040  3.972E-05    0   0.4948   age181_m32            0.0000     4.6197E+01     1.6261   0.6324    98.4158
 48      0.9869     1.2646E+00    1.2236E+00    1.300000E+10  0.00040  3.283E-05    0   0.4870   age193_m32            0.0000     9.0107E+01     1.9709   0.5919   101.2287
 49      0.0000     0.0000E+00    0.0000E+00    1.500000E+10  0.00040  2.925E-05    0   0.4854   age201_m32            0.0000     1.5383E+02     2.5890   0.5761   102.8557
 50      0.0000     0.0000E+00    0.0000E+00    1.800000E+10  0.00040  2.469E-05    0   0.4819   age213_m32            0.0000     1.8235E+02     2.8263   0.5370   103.4065
 51      0.0000     0.0000E+00    0.0000E+00    1.000000E+06  0.00400  1.114E-02    0   1.0000   age020_m42            0.0000     2.0223E+03    13.3264   4.0000    81.4639
 52      0.0000     0.0000E+00    0.0000E+00    3.160000E+06  0.00400  4.073E-02    0   0.9999   age045_m42            0.0000     5.9356E+02     7.2436   3.1438    93.9124
 53      0.0000     0.0000E+00    0.0000E+00    5.010000E+06  0.00400  2.534E-02    0   0.9488   age055_m42            0.0000     1.0955E+03    10.3802   3.5322    87.6951
 54      0.0000     0.0000E+00    0.0000E+00    6.610000E+06  0.00400  2.583E-02    0   0.9220   age061_m42            0.0000     5.9963E+02     7.0926   2.9549    94.8758
 55      0.0000     0.0000E+00    0.0000E+00    8.710000E+06  0.00400  1.706E-02    0   0.8983   age067_m42            0.0000     7.8244E+02     8.8144   2.7643    93.1782
 56      0.0000     0.0000E+00    0.0000E+00    1.000000E+07  0.00400  1.271E-02    0   0.8862   age070_m42            0.0000     1.1046E+03    10.6586   2.7443    91.7301
 57      0.0000     0.0000E+00    0.0000E+00    1.445000E+07  0.00400  7.666E-03    0   0.8571   age078_m42            0.0000     1.3225E+03    11.5043   3.1438    88.4444
 58      0.0000     0.0000E+00    0.0000E+00    2.512000E+07  0.00400  5.070E-03    0   0.8174   age090_m42            0.0000     9.3762E+02     9.9439   2.6141    93.4480
 59      0.0000     0.0000E+00    0.0000E+00    4.000000E+07  0.00400  3.505E-03    0   0.7851   age104_m42            0.0000     5.8482E+02     7.7693   2.3008    96.4873
 60      0.0000     0.0000E+00    0.0000E+00    5.500000E+07  0.00400  3.059E-03    0   0.7629   age110_m42            0.0000     6.5094E+02     6.0243   2.3711   101.0897
 61      0.0000     0.0000E+00    0.0000E+00    1.015200E+08  0.00400  2.268E-03    0   0.7207   age116_m42            0.0000     1.8302E+03     8.9655   2.2980   106.2583
 62      0.0000     0.0000E+00    0.0000E+00    1.609000E+08  0.00400  1.720E-03    0   0.6930   age120_m42            0.0000     2.0167E+03     9.4975   2.1641   107.8612
 63      0.0000     0.0000E+00    0.0000E+00    2.861200E+08  0.00400  1.079E-03    0   0.6613   age125_m42            0.0000     1.9970E+03     9.4819   1.8011   108.7417
 64      0.0000     0.0000E+00    0.0000E+00    5.088000E+08  0.00400  6.261E-04    0   0.6313   age130_m42            0.0000     2.2537E+03     9.9299   1.5964   112.0819
 65      0.0000     0.0000E+00    0.0000E+00    9.047900E+08  0.00400  3.535E-04    0   0.6024   age135_m42            0.0000     1.3056E+03     7.6041   1.1803   112.7366
 66      0.0000     0.0000E+00    0.0000E+00    1.278050E+09  0.00400  2.677E-04    0   0.5837   age138_m42            0.0000     5.2094E+02     6.0669   0.4846   110.4596
 67      0.0000     0.0000E+00    0.0000E+00    1.434000E+09  0.00400  1.910E-04    0   0.5716   age139_m42            0.0000     6.5113E+02     6.1752   0.6625   111.0630
 68      0.0000     0.0000E+00    0.0000E+00    2.500000E+09  0.00400  9.818E-05    0   0.5463   age150_m42            0.0000     2.7070E+02     4.5936   0.3946   105.8511
 69      0.0000     0.0000E+00    0.0000E+00    4.250000E+09  0.00400  5.491E-05    0   0.5269   age158_m42            0.0000     2.6026E+02     4.3767   0.2700   102.9625
 70      0.0000     0.0000E+00    0.0000E+00    6.250000E+09  0.00400  3.857E-05    0   0.5151   age166_m42            0.0000     4.0803E+02     5.1571   0.1472   101.5076
 71      2.3217     3.0115E+00    3.0576E+00    7.500000E+09  0.00400  3.243E-05    0   0.5110   age171_m42            0.0000     5.2670E+02     5.7232   0.0713   100.9100
 72      2.0033     3.4765E+00    3.4732E+00    1.000000E+10  0.00400  2.424E-05    0   0.5028   age181_m42            0.0000     7.0263E+02     6.4855  -0.0062   100.2635
 73      0.0000     0.0000E+00    0.0000E+00    1.300000E+10  0.00400  1.883E-05    0   0.4927   age193_m42            0.0000     8.4521E+02     7.0579  -0.0458    99.9796
 74      0.0000     0.0000E+00    0.0000E+00    1.500000E+10  0.00400  1.685E-05    0   0.4919   age201_m42            0.0000     8.0334E+02     6.8704  -0.0400    99.9832
 75      0.0000     0.0000E+00    0.0000E+00    1.800000E+10  0.00400  1.452E-05    0   0.4874   age213_m42            0.0000     7.2791E+02     6.5483  -0.0235   100.2360
 76      0.0000     0.0000E+00    0.0000E+00    1.000000E+06  0.00800  1.286E-02    0   1.0000   age020_m52            0.0000     1.7985E+03    12.6529   4.0000    82.9014
 77      0.0000     0.0000E+00    0.0000E+00    3.160000E+06  0.00800  3.147E-02    0   0.9966   age045_m52            0.0000     1.7330E+03    12.4637   3.9763    83.1264
 78      0.0000     0.0000E+00    0.0000E+00    5.010000E+06  0.00800  2.664E-02    0   0.9443   age055_m52            0.0000     1.2755E+03    11.0550   3.6488    86.6420
 79      0.0000     0.0000E+00    0.0000E+00    6.610000E+06  0.00800  2.151E-02    0   0.9177   age061_m52            0.0000     7.7096E+02     8.7478   2.3400    93.5141
 80      0.0000     0.0000E+00    0.0000E+00    8.710000E+06  0.00800  1.628E-02    0   0.8948   age067_m52            0.0000     8.6198E+02     9.3833   2.7214    93.6278
 81      0.0000     0.0000E+00    0.0000E+00    1.000000E+07  0.00800  1.215E-02    0   0.8827   age070_m52            0.0000     1.0449E+03    10.3295   3.0652    91.6030
 82      0.0000     0.0000E+00    0.0000E+00    1.445000E+07  0.00800  8.739E-03    0   0.8552   age078_m52            0.0000     8.9070E+02     9.4146   3.1084    92.8990
 83      0.0000     0.0000E+00    0.0000E+00    2.512000E+07  0.00800  5.676E-03    0   0.8162   age090_m52            0.0000     8.1549E+02     8.0960   2.7155    97.7593
 84      0.0000     0.0000E+00    0.0000E+00    4.000000E+07  0.00800  3.939E-03    0   0.7841   age104_m52            0.0000     8.2169E+02     7.2013   2.5579   100.3165
 85      0.0000     0.0000E+00    0.0000E+00    5.500000E+07  0.00800  3.155E-03    0   0.7627   age110_m52            0.0000     9.5682E+02     7.0413   2.5278   102.1164
 86      0.0000     0.0000E+00    0.0000E+00    1.015200E+08  0.00800  2.206E-03    0   0.7226   age116_m52            0.0000     1.4288E+03     7.8834   2.3496   106.0544
 87      0.0000     0.0000E+00    0.0000E+00    1.609000E+08  0.00800  1.596E-03    0   0.6963   age120_m52            0.0000     1.6861E+03     8.5645   2.1382   107.8591
 88      0.0000     0.0000E+00    0.0000E+00    2.861200E+08  0.00800  1.002E-03    0   0.6665   age125_m52            0.0000     2.4365E+03    10.7078   1.8508   110.8904
 89      0.0000     0.0000E+00    0.0000E+00    5.088000E+08  0.00800  5.759E-04    0   0.6377   age130_m52            0.0000     2.5670E+03    11.2639   1.4987   115.3153
 90      0.0000     0.0000E+00    0.0000E+00    9.047900E+08  0.00800  2.972E-04    0   0.6086   age135_m52            0.0000     1.4408E+03     9.0032   0.9440   114.6881
 91      0.0000     0.0000E+00    0.0000E+00    1.278050E+09  0.00800  2.242E-04    0   0.5907   age138_m52            0.0000     6.8587E+02     6.8501   0.3176   113.4113
 92      0.0000     0.0000E+00    0.0000E+00    1.434000E+09  0.00800  1.645E-04    0   0.5787   age139_m52            0.0000     5.6565E+02     6.1681   0.4703   112.5478
 93      0.0000     0.0000E+00    0.0000E+00    2.500000E+09  0.00800  7.723E-05    0   0.5519   age150_m52            0.0000     5.3737E+02     6.2943   0.1341   108.4861
 94      8.4477     8.5607E+00    9.0491E+00    4.250000E+09  0.00800  4.151E-05    0   0.5320   age158_m52            0.0000     5.5979E+02     6.2588   0.0679   105.6979
 95      4.3272     6.0473E+00    6.2445E+00    6.250000E+09  0.00800  3.010E-05    0   0.5197   age166_m52            0.0000     8.6354E+02     7.4545  -0.1225   104.2559
 96      2.7110     4.6226E+00    4.7201E+00    7.500000E+09  0.00800  2.467E-05    0   0.5139   age171_m52            0.0000     9.5760E+02     7.8041  -0.1646   103.8825
 97      1.9331     4.3671E+00    4.3854E+00    1.000000E+10  0.00800  1.862E-05    0   0.5054   age181_m52            0.0000     1.2735E+03     8.9175  -0.2940   103.5322
