###################################################################
## OUTPUT of StarlightChains_v04.for    [Cid@UFSC - 01/Apr/2007] ##
###################################################################

## Some input info
NGC3201_a_1.cxt                          [arq_obs]
Base.BC03.S                              [arq_base]
NGC3201_a_1.msk                          [arq_masks]
StCv04.C99.config                        [arq_config]
  150                                    [N_base]
    0                                    [N_YAV_components = # of components with extra extinction!]
    0                                    [i_FitPowerLaw (1/0 = Yes/No)]
-9.99                                    [alpha_PowerLaw]
CCM                                      [red_law_option]
 1.458241                                [q_norm = A(l_norm)/A(V)]

## (Re)Sampling Parameters
 3359.00                                 [l_ini (A)]
 6428.00                                 [l_fin (A)]
    1.00                                 [dl    (A)]     (OBS: dl_cushion =    50.00 A)

## Normalization info
 4020.00                                 [l_norm (A) - for base]
 4010.00                                 [llow_norm (A) - window for f_obs]
 4060.00                                 [lupp_norm (A) - window for f_obs]
1.250092E-14                             [fobs_norm (in input units)]

## S/N
 4730.00                                 [llow_SN (A) - window for S/N]
 4780.00                                 [lupp_SN (A) - window for S/N]
  72.417                                 [S/N in S/N window]
  61.465                                 [S/N in norm. window]
  55.763                                 [S/N_err in S/N window]
  47.330                                 [S/N_err in norm. window]
  1.0000                                 [fscale_chi2]

## etc...
  2147483640                             [idum_orig]
  3049                                   [NOl_eff]
  1842                                   [Nl_eff]
  1207    NSIGMA                         [Ntot_cliped & clip_method]
  3591140                                [Nglobal_steps]
   7                                     [N_chains]
  25                                     [NEX0s_base = N_base in EX0s-fits]
 0   0   1      371   2.0   8.847E+02    [Clip-Bug, RC-Crash & Burn-In warning-flags, n_censored_weights, wei_nsig_threshold & wei_limit]
   130    130.395    130.387      0.008  [idt_all, wdt_TotTime, wdt_UsrTime & wdt_SysTime (sec)]

## Synthesis Results - Best model ##

 1.68637E+00                             [chi2/Nl_eff]
     1.61032                             [adev (%)]

   101.51262                             [sum-of-x (%)]
 4.13826E-14                             [Flux_tot (units of input spectrum!)]
 5.40960E-10                             [Mini_tot (???)]
 2.78320E-10                             [Mcor_tot (???)]

 -14.07                                  [v0_min  (km/s)]
  60.66                                  [vd_min  (km/s)]
 0.8801                                  [AV_min  (mag)]
 0.0000                                  [YAV_min (mag)]

# j     x_j(%)      Mini_j(%)     Mcor_j(%)     age_j(yr)     Z_j      (L/M)_j    YAV?  Mstars   component_j        a/Fe...       SSP_chi2r SSP_adev(%)   SSP_AV   SSP_x(%)
  1      0.0000     0.0000E+00    0.0000E+00    1.000000E+06  0.00010  8.160E-03    0   1.0000   age020_m22            0.0000     4.2525E+02    14.9296   4.0000    71.1511
  2     13.3268     2.1103E-02    4.1017E-02    3.160000E+06  0.00010  4.759E-02    0   1.0000   age045_m22            0.0000     2.6820E+01     3.4548   2.2203    93.7699
  3      0.0000     0.0000E+00    0.0000E+00    5.010000E+06  0.00010  1.932E-02    0   0.9582   age055_m22            0.0000     2.6215E+02    10.7709   2.7132    76.8432
  4      0.0000     0.0000E+00    0.0000E+00    6.610000E+06  0.00010  9.973E-03    0   0.9297   age061_m22            0.0000     3.7310E+02    13.9923   4.0000    73.8556
  5      0.0000     0.0000E+00    0.0000E+00    8.710000E+06  0.00010  7.690E-03    0   0.9030   age067_m22            0.0000     3.5108E+02    13.4175   4.0000    74.4536
  6      0.0000     0.0000E+00    0.0000E+00    1.000000E+07  0.00010  6.375E-03    0   0.8902   age070_m22            0.0000     3.4183E+02    13.4137   4.0000    74.7961
  7      0.0000     0.0000E+00    0.0000E+00    1.445000E+07  0.00010  4.874E-03    0   0.8589   age078_m22            0.0000     2.0303E+02     8.1703   4.0000    78.2582
  8      0.0000     0.0000E+00    0.0000E+00    2.512000E+07  0.00010  4.103E-03    0   0.8174   age090_m22            0.0000     5.8156E+01     5.7530   3.6519    85.9376
  9      1.2499     2.5777E-02    3.9229E-02    4.000000E+07  0.00010  3.654E-03    0   0.7830   age104_m22            0.0000     3.9802E+01     3.5382   3.2692    92.2025
 10      1.4892     3.6283E-02    5.3575E-02    5.500000E+07  0.00010  3.093E-03    0   0.7597   age110_m22            0.0000     5.0956E+01     3.1729   3.1294    94.8197
 11      0.0098     3.0334E-04    4.2085E-04    1.015200E+08  0.00010  2.431E-03    0   0.7138   age116_m22            0.0000     9.7746E+01     3.2976   2.7338    98.9618
 12      0.0000     0.0000E+00    0.0000E+00    1.609000E+08  0.00010  1.319E-03    0   0.6775   age120_m22            0.0000     8.6925E+01     3.3327   2.2291   102.7592
 13      0.0000     0.0000E+00    0.0000E+00    2.861200E+08  0.00010  1.075E-03    0   0.6412   age125_m22            0.0000     3.1067E+02     7.4652   2.1116   111.7196
 14      0.0000     0.0000E+00    0.0000E+00    5.088000E+08  0.00010  7.183E-04    0   0.6083   age130_m22            0.0000     3.8480E+02     9.1996   1.7997   116.4579
 15      0.0000     0.0000E+00    0.0000E+00    9.047900E+08  0.00010  4.524E-04    0   0.5785   age135_m22            0.0000     3.9121E+02     9.6481   1.5772   118.6646
 16      0.0000     0.0000E+00    0.0000E+00    1.278050E+09  0.00010  3.018E-04    0   0.5588   age138_m22            0.0000     1.5493E+02     6.7238   1.1721   113.0480
 17      0.0000     0.0000E+00    0.0000E+00    1.434000E+09  0.00010  2.691E-04    0   0.5532   age139_m22            0.0000     1.1777E+02     6.1943   1.0355   111.9296
 18      0.0000     0.0000E+00    0.0000E+00    2.500000E+09  0.00010  1.582E-04    0   0.5296   age150_m22            0.0000     9.7355E+01     5.3595   0.9533   111.6326
 19      0.0000     0.0000E+00    0.0000E+00    4.250000E+09  0.00010  1.007E-04    0   0.5110   age158_m22            0.0000     3.7972E+01     3.8430   0.8601   108.1446
 20      0.0000     0.0000E+00    0.0000E+00    6.250000E+09  0.00010  6.869E-05    0   0.4985   age166_m22            0.0000     7.6726E+00     2.4227   0.8592   103.6551
 21      0.3874     4.9713E-01    4.7646E-01    7.500000E+09  0.00010  5.873E-05    0   0.4931   age171_m22            0.0000     5.3872E+00     2.0806   0.8632   102.5848
 22      0.5936     9.9825E-01    9.4180E-01    1.000000E+10  0.00010  4.481E-05    0   0.4854   age181_m22            0.0000     4.7138E+00     2.0764   0.8257   102.2217
 23      0.0093     2.0016E-02    1.8639E-02    1.300000E+10  0.00010  3.489E-05    0   0.4791   age193_m22            0.0000     3.6554E+00     2.0565   0.7718   101.6427
 24      0.0611     1.5175E-01    1.4057E-01    1.500000E+10  0.00010  3.035E-05    0   0.4766   age201_m22            0.0000     3.2358E+00     2.0055   0.7362   101.3655
 25      2.6545     7.9696E+00    7.3346E+00    1.800000E+10  0.00010  2.510E-05    0   0.4735   age213_m22            0.0000     3.0274E+00     1.8985   0.6774   100.5052
 26      0.0000     0.0000E+00    0.0000E+00    1.000000E+06  0.00040  8.458E-03    0   1.0000   age020_m32            0.0000     4.2019E+02    15.2019   4.0000    71.8421
 27      0.0000     0.0000E+00    0.0000E+00    3.160000E+06  0.00040  3.973E-02    0   1.0000   age045_m32            0.0000     7.0387E+01     6.3555   3.5706    85.2937
 28      0.0000     0.0000E+00    0.0000E+00    5.010000E+06  0.00040  1.935E-02    0   0.9532   age055_m32            0.0000     1.9507E+02     9.9095   3.8900    77.6731
 29      0.0000     0.0000E+00    0.0000E+00    6.610000E+06  0.00040  1.204E-02    0   0.9243   age061_m32            0.0000     2.6269E+02     9.8412   4.0000    76.1439
 30      0.0000     0.0000E+00    0.0000E+00    8.710000E+06  0.00040  9.433E-03    0   0.9001   age067_m32            0.0000     2.2472E+02     8.9190   4.0000    77.2649
 31      0.0000     0.0000E+00    0.0000E+00    1.000000E+07  0.00040  8.053E-03    0   0.8877   age070_m32            0.0000     2.0738E+02     8.5649   4.0000    77.7898
 32      0.0000     0.0000E+00    0.0000E+00    1.445000E+07  0.00040  7.027E-03    0   0.8578   age078_m32            0.0000     8.8821E+01     7.2587   3.5551    83.4385
 33      0.0000     0.0000E+00    0.0000E+00    2.512000E+07  0.00040  4.707E-03    0   0.8166   age090_m32            0.0000     4.0410E+01     5.1116   3.1982    88.7169
 34      1.6229     3.2930E-02    5.0096E-02    4.000000E+07  0.00040  3.714E-03    0   0.7827   age104_m32            0.0000     3.1407E+01     3.3989   2.9298    93.4745
 35      0.1783     4.5060E-03    6.6501E-03    5.500000E+07  0.00040  2.982E-03    0   0.7593   age110_m32            0.0000     4.1579E+01     3.0582   2.8375    95.4516
 36      0.0000     0.0000E+00    0.0000E+00    1.015200E+08  0.00040  2.188E-03    0   0.7143   age116_m32            0.0000     1.5209E+02     4.1642   2.4442   103.3298
 37      0.0000     0.0000E+00    0.0000E+00    1.609000E+08  0.00040  1.690E-03    0   0.6856   age120_m32            0.0000     2.5960E+02     5.8357   2.1573   108.3757
 38      0.0000     0.0000E+00    0.0000E+00    2.861200E+08  0.00040  1.152E-03    0   0.6509   age125_m32            0.0000     3.2320E+02     8.0298   1.8330   114.0662
 39      0.0000     0.0000E+00    0.0000E+00    5.088000E+08  0.00040  7.331E-04    0   0.6182   age130_m32            0.0000     3.5288E+02     9.0475   1.6238   116.5516
 40      0.0000     0.0000E+00    0.0000E+00    9.047900E+08  0.00040  3.960E-04    0   0.5890   age135_m32            0.0000     1.5597E+02     7.3784   1.2351   113.3548
 41      0.0000     0.0000E+00    0.0000E+00    1.278050E+09  0.00040  2.854E-04    0   0.5687   age138_m32            0.0000     1.1848E+02     5.9901   0.9951   113.4562
 42      0.0000     0.0000E+00    0.0000E+00    1.434000E+09  0.00040  2.531E-04    0   0.5632   age139_m32            0.0000     1.1468E+02     5.8507   0.9372   113.2739
 43      0.0000     0.0000E+00    0.0000E+00    2.500000E+09  0.00040  1.488E-04    0   0.5386   age150_m32            0.0000     6.5685E+01     4.9228   0.7111   110.5209
 44     67.8717     5.6317E+01    5.6909E+01    4.250000E+09  0.00040  9.082E-05    0   0.5199   age158_m32            0.0000     7.0781E+00     2.7640   0.7026   104.5364
 45      8.8054     1.0430E+01    1.0290E+01    6.250000E+09  0.00040  6.362E-05    0   0.5076   age166_m32            0.0000     1.0321E+01     1.7955   0.7359    98.9444
 46      0.0007     9.7969E-04    9.5724E-04    7.500000E+09  0.00040  5.289E-05    0   0.5027   age171_m32            0.0000     1.7063E+01     1.9834   0.7080    97.5399
 47      0.0000     0.0000E+00    0.0000E+00    1.000000E+10  0.00040  3.972E-05    0   0.4948   age181_m32            0.0000     2.3750E+01     2.2338   0.6455    96.3320
 48      0.0000     0.0000E+00    0.0000E+00    1.300000E+10  0.00040  3.283E-05    0   0.4870   age193_m32            0.0000     8.1293E+00     2.1944   0.5645   100.1077
 49      0.0009     2.4308E-03    2.2934E-03    1.500000E+10  0.00040  2.925E-05    0   0.4854   age201_m32            0.0000     4.9816E+00     2.4702   0.5236   102.3404
 50      0.0109     3.3132E-02    3.1034E-02    1.800000E+10  0.00040  2.469E-05    0   0.4819   age213_m32            0.0000     5.4117E+00     2.6910   0.4733   103.1668
 51      0.0000     0.0000E+00    0.0000E+00    1.000000E+06  0.00400  1.114E-02    0   1.0000   age020_m42            0.0000     3.8172E+02    13.0410   4.0000    72.5149
 52      0.0000     0.0000E+00    0.0000E+00    3.160000E+06  0.00400  4.073E-02    0   0.9999   age045_m42            0.0000     4.4347E+01     4.7607   3.2260    89.0238
 53      0.0000     0.0000E+00    0.0000E+00    5.010000E+06  0.00400  2.534E-02    0   0.9488   age055_m42            0.0000     1.2897E+02     7.8219   3.7179    80.9955
 54      0.0011     3.1041E-06    5.5626E-06    6.610000E+06  0.00400  2.583E-02    0   0.9220   age061_m42            0.0000     3.3716E+01     3.9128   3.0207    90.2001
 55      0.0000     0.0000E+00    0.0000E+00    8.710000E+06  0.00400  1.706E-02    0   0.8983   age067_m42            0.0000     5.4326E+01     5.7560   2.9083    86.8212
 56      0.0000     0.0000E+00    0.0000E+00    1.000000E+07  0.00400  1.271E-02    0   0.8862   age070_m42            0.0000     8.3404E+01     7.3362   2.9334    84.4056
 57      0.0000     0.0000E+00    0.0000E+00    1.445000E+07  0.00400  7.666E-03    0   0.8571   age078_m42            0.0000     1.4114E+02     8.2069   3.3577    81.1520
 58      0.0000     0.0000E+00    0.0000E+00    2.512000E+07  0.00400  5.070E-03    0   0.8174   age090_m42            0.0000     7.5097E+01     6.6223   2.7813    86.7160
 59      0.0000     0.0000E+00    0.0000E+00    4.000000E+07  0.00400  3.505E-03    0   0.7851   age104_m42            0.0000     5.2731E+01     4.7590   2.4177    91.1075
 60      0.0000     0.0000E+00    0.0000E+00    5.500000E+07  0.00400  3.059E-03    0   0.7629   age110_m42            0.0000     3.6562E+01     2.2113   2.3474    99.0087
 61      0.0000     0.0000E+00    0.0000E+00    1.015200E+08  0.00400  2.268E-03    0   0.7207   age116_m42            0.0000     2.1698E+02     5.7699   2.0755   109.1979
 62      0.0000     0.0000E+00    0.0000E+00    1.609000E+08  0.00400  1.720E-03    0   0.6930   age120_m42            0.0000     2.3794E+02     6.7366   1.8878   112.5148
 63      0.0000     0.0000E+00    0.0000E+00    2.861200E+08  0.00400  1.079E-03    0   0.6613   age125_m42            0.0000     2.2580E+02     7.3549   1.5100   114.3826
 64      0.0000     0.0000E+00    0.0000E+00    5.088000E+08  0.00400  6.261E-04    0   0.6313   age130_m42            0.0000     2.8171E+02     8.2426   1.2698   118.9009
 65      0.0000     0.0000E+00    0.0000E+00    9.047900E+08  0.00400  3.535E-04    0   0.6024   age135_m42            0.0000     1.3962E+02     6.9383   0.9290   117.6343
 66      0.0000     0.0000E+00    0.0000E+00    1.278050E+09  0.00400  2.677E-04    0   0.5837   age138_m42            0.0000     5.2642E+01     6.8214   0.2969   114.4620
 67      0.0000     0.0000E+00    0.0000E+00    1.434000E+09  0.00400  1.910E-04    0   0.5716   age139_m42            0.0000     5.1184E+01     6.7542   0.4457   115.6182
 68      0.0000     0.0000E+00    0.0000E+00    2.500000E+09  0.00400  9.818E-05    0   0.5463   age150_m42            0.0000     5.0186E+01     5.6139   0.2633   108.3904
 69      0.0000     0.0000E+00    0.0000E+00    4.250000E+09  0.00400  5.491E-05    0   0.5269   age158_m42            0.0000     9.1509E+01     5.0994   0.1841   104.2811
 70      0.0000     0.0000E+00    0.0000E+00    6.250000E+09  0.00400  3.857E-05    0   0.5151   age166_m42            0.0000     1.3069E+02     5.9269   0.0000   103.1023
 71      0.0000     0.0000E+00    0.0000E+00    7.500000E+09  0.00400  3.243E-05    0   0.5110   age171_m42            0.0000     1.5452E+02     5.9838  -0.0159   102.5535
 72      0.0000     0.0000E+00    0.0000E+00    1.000000E+10  0.00400  2.424E-05    0   0.5028   age181_m42            0.0000     1.9760E+02     6.4487  -0.0941   102.0455
 73      0.0000     0.0000E+00    0.0000E+00    1.300000E+10  0.00400  1.883E-05    0   0.4927   age193_m42            0.0000     2.3857E+02     6.7205  -0.1267   101.6593
 74      0.0000     0.0000E+00    0.0000E+00    1.500000E+10  0.00400  1.685E-05    0   0.4919   age201_m42            0.0000     2.2799E+02     6.5999  -0.1208   101.5766
 75      0.0019     1.0009E-02    9.4819E-03    1.800000E+10  0.00400  1.452E-05    0   0.4874   age213_m42            0.0000     2.0898E+02     6.3959  -0.1033   101.7000
 76      0.0000     0.0000E+00    0.0000E+00    1.000000E+06  0.00800  1.286E-02    0   1.0000   age020_m52            0.0000     3.2834E+02    11.6922   4.0000    74.5815
 77      0.0000     0.0000E+00    0.0000E+00    3.160000E+06  0.00800  3.147E-02    0   0.9966   age045_m52            0.0000     2.7229E+02     9.6288   4.0000    76.0470
 78      0.0000     0.0000E+00    0.0000E+00    5.010000E+06  0.00800  2.664E-02    0   0.9443   age055_m52            0.0000     1.6480E+02     8.4866   3.8552    79.7985
 79      0.0000     0.0000E+00    0.0000E+00    6.610000E+06  0.00800  2.151E-02    0   0.9177   age061_m52            0.0000     1.1193E+02     6.2744   2.5136    86.9737
 80      0.0000     0.0000E+00    0.0000E+00    8.710000E+06  0.00800  1.628E-02    0   0.8948   age067_m52            0.0000     7.5231E+01     6.2892   2.8772    87.1204
 81      0.0000     0.0000E+00    0.0000E+00    1.000000E+07  0.00800  1.215E-02    0   0.8827   age070_m52            0.0000     9.4424E+01     7.1364   3.2366    84.8227
 82      0.0000     0.0000E+00    0.0000E+00    1.445000E+07  0.00800  8.739E-03    0   0.8552   age078_m52            0.0000     6.9723E+01     6.2343   3.2509    86.5845
 83      0.0000     0.0000E+00    0.0000E+00    2.512000E+07  0.00800  5.676E-03    0   0.8162   age090_m52            0.0000     4.7481E+01     4.5506   2.7886    92.4266
 84      0.0000     0.0000E+00    0.0000E+00    4.000000E+07  0.00800  3.939E-03    0   0.7841   age104_m52            0.0000     5.4604E+01     3.0172   2.5647    96.7730
 85      0.0000     0.0000E+00    0.0000E+00    5.500000E+07  0.00800  3.155E-03    0   0.7627   age110_m52            0.0000     7.6579E+01     2.6470   2.4789   100.2553
 86      0.0000     0.0000E+00    0.0000E+00    1.015200E+08  0.00800  2.206E-03    0   0.7226   age116_m52            0.0000     1.5305E+02     4.6774   2.1819   107.6104
 87      0.0000     0.0000E+00    0.0000E+00    1.609000E+08  0.00800  1.596E-03    0   0.6963   age120_m52            0.0000     1.8811E+02     5.9575   1.9134   111.2566
 88      0.0000     0.0000E+00    0.0000E+00    2.861200E+08  0.00800  1.002E-03    0   0.6665   age125_m52            0.0000     2.9333E+02     9.0594   1.4872   119.0649
 89      0.0000     0.0000E+00    0.0000E+00    5.088000E+08  0.00800  5.759E-04    0   0.6377   age130_m52            0.0000     2.8670E+02    10.8062   1.0600   126.7739
 90      0.0000     0.0000E+00    0.0000E+00    9.047900E+08  0.00800  2.972E-04    0   0.6086   age135_m52            0.0000     9.8211E+01     9.7957   0.5919   124.4425
 91      0.0000     0.0000E+00    0.0000E+00    1.278050E+09  0.00800  2.242E-04    0   0.5907   age138_m52            0.0000     7.4129E+01     8.1747   0.0973   119.2222
 92      0.0000     0.0000E+00    0.0000E+00    1.434000E+09  0.00800  1.645E-04    0   0.5787   age139_m52            0.0000     5.9895E+01     7.3343   0.2696   117.4532
 93      0.0016     1.5578E-03    1.6711E-03    2.500000E+09  0.00800  7.723E-05    0   0.5519   age150_m52            0.0000     1.1781E+02     6.9510  -0.0086   111.7961
 94      0.0000     0.0000E+00    0.0000E+00    4.250000E+09  0.00800  4.151E-05    0   0.5320   age158_m52            0.0000     1.4330E+02     6.6237  -0.0536   108.3907
 95      0.0000     0.0000E+00    0.0000E+00    6.250000E+09  0.00800  3.010E-05    0   0.5197   age166_m52            0.0000     2.2140E+02     7.3791  -0.2460   107.2451
 96      0.0000     0.0000E+00    0.0000E+00    7.500000E+09  0.00800  2.467E-05    0   0.5139   age171_m52            0.0000     2.4248E+02     7.6290  -0.2906   107.0053
 97      0.0000     0.0000E+00    0.0000E+00    1.000000E+10  0.00800  1.862E-05    0   0.5054   age181_m52            0.0000     3.0660E+02     8.4752  -0.4350   107.3540
