###################################################################
## OUTPUT of StarlightChains_v04.for    [Cid@UFSC - 01/Apr/2007] ##
###################################################################

## Some input info
NGC3201_b_1.cxt                          [arq_obs]
Base.BC03.S                              [arq_base]
NGC3201_b_1.msk                          [arq_masks]
StCv04.C99.config                        [arq_config]
  150                                    [N_base]
    0                                    [N_YAV_components = # of components with extra extinction!]
    0                                    [i_FitPowerLaw (1/0 = Yes/No)]
-9.99                                    [alpha_PowerLaw]
CCM                                      [red_law_option]
 1.458241                                [q_norm = A(l_norm)/A(V)]

## (Re)Sampling Parameters
 3359.00                                 [l_ini (A)]
 6428.00                                 [l_fin (A)]
    1.00                                 [dl    (A)]     (OBS: dl_cushion =    50.00 A)

## Normalization info
 4020.00                                 [l_norm (A) - for base]
 4010.00                                 [llow_norm (A) - window for f_obs]
 4060.00                                 [lupp_norm (A) - window for f_obs]
1.147975E-14                             [fobs_norm (in input units)]

## S/N
 4730.00                                 [llow_SN (A) - window for S/N]
 4780.00                                 [lupp_SN (A) - window for S/N]
  72.514                                 [S/N in S/N window]
  57.541                                 [S/N in norm. window]
  54.776                                 [S/N_err in S/N window]
  43.465                                 [S/N_err in norm. window]
  1.0000                                 [fscale_chi2]

## etc...
  2147483639                             [idum_orig]
  3055                                   [NOl_eff]
  1190                                   [Nl_eff]
  1865    NSIGMA                         [Ntot_cliped & clip_method]
  3025890                                [Nglobal_steps]
   7                                     [N_chains]
  23                                     [NEX0s_base = N_base in EX0s-fits]
 0   0   1      371   2.0   8.121E+02    [Clip-Bug, RC-Crash & Burn-In warning-flags, n_censored_weights, wei_nsig_threshold & wei_limit]
   112    111.803    111.791      0.012  [idt_all, wdt_TotTime, wdt_UsrTime & wdt_SysTime (sec)]

## Synthesis Results - Best model ##

 1.42682E+00                             [chi2/Nl_eff]
     1.41475                             [adev (%)]

   103.64494                             [sum-of-x (%)]
 4.27110E-14                             [Flux_tot (units of input spectrum!)]
 4.86528E-10                             [Mini_tot (???)]
 2.51057E-10                             [Mcor_tot (???)]

 -18.35                                  [v0_min  (km/s)]
  80.63                                  [vd_min  (km/s)]
 0.9516                                  [AV_min  (mag)]
 0.0000                                  [YAV_min (mag)]

# j     x_j(%)      Mini_j(%)     Mcor_j(%)     age_j(yr)     Z_j      (L/M)_j    YAV?  Mstars   component_j        a/Fe...       SSP_chi2r SSP_adev(%)   SSP_AV   SSP_x(%)
  1      0.0000     0.0000E+00    0.0000E+00    1.000000E+06  0.00010  8.160E-03    0   1.0000   age020_m22            0.0000     6.2886E+02    19.6853   4.0000    73.5732
  2     34.8988     6.2112E-02    1.2037E-01    3.160000E+06  0.00010  4.759E-02    0   1.0000   age045_m22            0.0000     3.5034E+01     4.0111   2.2861    97.9078
  3      0.0000     0.0000E+00    0.0000E+00    5.010000E+06  0.00010  1.932E-02    0   0.9582   age055_m22            0.0000     2.6461E+02     8.6072   3.1161    83.2282
  4      0.0000     0.0000E+00    0.0000E+00    6.610000E+06  0.00010  9.973E-03    0   0.9297   age061_m22            0.0000     5.1225E+02    18.8495   4.0000    76.4658
  5      0.0000     0.0000E+00    0.0000E+00    8.710000E+06  0.00010  7.690E-03    0   0.9030   age067_m22            0.0000     4.8483E+02    18.2704   4.0000    77.0419
  6      0.0000     0.0000E+00    0.0000E+00    1.000000E+07  0.00010  6.375E-03    0   0.8902   age070_m22            0.0000     4.7366E+02    18.0535   4.0000    77.3000
  7      0.0000     0.0000E+00    0.0000E+00    1.445000E+07  0.00010  4.874E-03    0   0.8589   age078_m22            0.0000     2.9987E+02    13.3738   4.0000    81.2704
  8      0.0000     0.0000E+00    0.0000E+00    2.512000E+07  0.00010  4.103E-03    0   0.8174   age090_m22            0.0000     1.3743E+02     6.7182   3.8063    89.2603
  9      0.0000     0.0000E+00    0.0000E+00    4.000000E+07  0.00010  3.654E-03    0   0.7830   age104_m22            0.0000     2.1180E+02     8.0531   3.2030    93.7158
 10      0.0000     0.0000E+00    0.0000E+00    5.500000E+07  0.00010  3.093E-03    0   0.7597   age110_m22            0.0000     2.6157E+02     8.8518   2.9727    95.6156
 11      0.8417     2.9325E-02    4.0565E-02    1.015200E+08  0.00010  2.431E-03    0   0.7138   age116_m22            0.0000     3.8498E+02    10.7767   2.4295    98.7366
 12      0.0000     0.0000E+00    0.0000E+00    1.609000E+08  0.00010  1.319E-03    0   0.6775   age120_m22            0.0000     3.7643E+02    10.2737   1.9047   102.3619
 13      0.0000     0.0000E+00    0.0000E+00    2.861200E+08  0.00010  1.075E-03    0   0.6412   age125_m22            0.0000     9.0546E+02    17.9740   1.2410   107.4049
 14      0.0000     0.0000E+00    0.0000E+00    5.088000E+08  0.00010  7.183E-04    0   0.6083   age130_m22            0.0000     1.0456E+03    20.4409   0.7122   110.7333
 15      0.0000     0.0000E+00    0.0000E+00    9.047900E+08  0.00010  4.524E-04    0   0.5785   age135_m22            0.0000     1.0269E+03    20.8399   0.4494   112.7110
 16      0.0000     0.0000E+00    0.0000E+00    1.278050E+09  0.00010  3.018E-04    0   0.5588   age138_m22            0.0000     4.6939E+02    13.5610   0.5426   110.9100
 17      0.0000     0.0000E+00    0.0000E+00    1.434000E+09  0.00010  2.691E-04    0   0.5532   age139_m22            0.0000     3.7181E+02    12.0848   0.4900   110.4136
 18      0.0000     0.0000E+00    0.0000E+00    2.500000E+09  0.00010  1.582E-04    0   0.5296   age150_m22            0.0000     3.3059E+02    11.4401   0.4796   110.4976
 19      0.0000     0.0000E+00    0.0000E+00    4.250000E+09  0.00010  1.007E-04    0   0.5110   age158_m22            0.0000     1.6639E+02     8.2021   0.5563   108.6818
 20      0.0000     0.0000E+00    0.0000E+00    6.250000E+09  0.00010  6.869E-05    0   0.4985   age166_m22            0.0000     6.2665E+01     5.1427   0.7020   105.5484
 21      0.0000     0.0000E+00    0.0000E+00    7.500000E+09  0.00010  5.873E-05    0   0.4931   age171_m22            0.0000     5.5676E+01     4.7750   0.7348   104.6189
 22      0.0000     0.0000E+00    0.0000E+00    1.000000E+10  0.00010  4.481E-05    0   0.4854   age181_m22            0.0000     5.2755E+01     4.6201   0.6998   104.2822
 23      0.0000     0.0000E+00    0.0000E+00    1.300000E+10  0.00010  3.489E-05    0   0.4791   age193_m22            0.0000     4.3285E+01     4.2013   0.6540   103.8717
 24      0.0000     0.0000E+00    0.0000E+00    1.500000E+10  0.00010  3.035E-05    0   0.4766   age201_m22            0.0000     3.8203E+01     3.9603   0.6247   103.7132
 25      0.1156     3.9010E-01    3.5796E-01    1.800000E+10  0.00010  2.510E-05    0   0.4735   age213_m22            0.0000     2.7188E+01     3.3826   0.5860   103.1367
 26      0.0000     0.0000E+00    0.0000E+00    1.000000E+06  0.00040  8.458E-03    0   1.0000   age020_m32            0.0000     6.0452E+02    19.7151   4.0000    74.2426
 27      0.0000     0.0000E+00    0.0000E+00    3.160000E+06  0.00040  3.973E-02    0   1.0000   age045_m32            0.0000     1.2050E+02     6.8575   3.7501    89.1378
 28      0.0000     0.0000E+00    0.0000E+00    5.010000E+06  0.00040  1.935E-02    0   0.9532   age055_m32            0.0000     2.4113E+02    10.9585   4.0000    82.0931
 29      0.0000     0.0000E+00    0.0000E+00    6.610000E+06  0.00040  1.204E-02    0   0.9243   age061_m32            0.0000     3.6985E+02    15.5404   4.0000    79.1618
 30      0.0000     0.0000E+00    0.0000E+00    8.710000E+06  0.00040  9.433E-03    0   0.9001   age067_m32            0.0000     3.2077E+02    14.4141   4.0000    80.3107
 31      0.0000     0.0000E+00    0.0000E+00    1.000000E+07  0.00040  8.053E-03    0   0.8877   age070_m32            0.0000     2.9773E+02    13.6234   4.0000    80.9728
 32      0.0000     0.0000E+00    0.0000E+00    1.445000E+07  0.00040  7.027E-03    0   0.8578   age078_m32            0.0000     1.4265E+02     7.5808   3.7753    87.4089
 33      0.0000     0.0000E+00    0.0000E+00    2.512000E+07  0.00040  4.707E-03    0   0.8166   age090_m32            0.0000     1.3500E+02     6.8769   3.3017    91.6085
 34      0.0000     0.0000E+00    0.0000E+00    4.000000E+07  0.00040  3.714E-03    0   0.7827   age104_m32            0.0000     1.8864E+02     7.6347   2.8772    95.1343
 35      0.0012     3.3764E-05    4.9683E-05    5.500000E+07  0.00040  2.982E-03    0   0.7593   age110_m32            0.0000     2.3488E+02     8.4043   2.7073    96.5209
 36      1.1043     4.2748E-02    5.9174E-02    1.015200E+08  0.00040  2.188E-03    0   0.7143   age116_m32            0.0000     5.2979E+02    12.6477   1.9733   101.9739
 37      0.9734     4.8787E-02    6.4820E-02    1.609000E+08  0.00040  1.690E-03    0   0.6856   age120_m32            0.0000     7.6916E+02    16.0303   1.4493   105.3310
 38      0.0000     0.0000E+00    0.0000E+00    2.861200E+08  0.00040  1.152E-03    0   0.6509   age125_m32            0.0000     9.2412E+02    18.6810   0.8915   109.5448
 39      0.0000     0.0000E+00    0.0000E+00    5.088000E+08  0.00040  7.331E-04    0   0.6182   age130_m32            0.0000     9.6252E+02    19.7486   0.5705   111.3486
 40      0.0000     0.0000E+00    0.0000E+00    9.047900E+08  0.00040  3.960E-04    0   0.5890   age135_m32            0.0000     4.6392E+02    13.5342   0.5846   110.9098
 41      0.0000     0.0000E+00    0.0000E+00    1.278050E+09  0.00040  2.854E-04    0   0.5687   age138_m32            0.0000     3.7403E+02    12.2719   0.4640   112.0613
 42      0.0000     0.0000E+00    0.0000E+00    1.434000E+09  0.00040  2.531E-04    0   0.5632   age139_m32            0.0000     3.6502E+02    12.1573   0.4141   111.9651
 43      0.0000     0.0000E+00    0.0000E+00    2.500000E+09  0.00040  1.488E-04    0   0.5386   age150_m32            0.0000     2.2721E+02     9.7353   0.2997   110.5242
 44     21.9030     2.0427E+01    2.0581E+01    4.250000E+09  0.00040  9.082E-05    0   0.5199   age158_m32            0.0000     5.0037E+01     4.9270   0.5251   106.7494
 45      5.0362     6.7049E+00    6.5955E+00    6.250000E+09  0.00040  6.362E-05    0   0.5076   age166_m32            0.0000     9.6587E+00     2.0123   0.7190   102.4734
 46      2.2311     3.5730E+00    3.4808E+00    7.500000E+09  0.00040  5.289E-05    0   0.5027   age171_m32            0.0000     1.1391E+01     1.7735   0.7122   101.2498
 47      0.0000     0.0000E+00    0.0000E+00    1.000000E+10  0.00040  3.972E-05    0   0.4948   age181_m32            0.0000     1.6650E+01     1.8282   0.6551   100.0673
 48      0.3563     9.1925E-01    8.6755E-01    1.300000E+10  0.00040  3.283E-05    0   0.4870   age193_m32            0.0000     1.1511E+01     2.3949   0.4942   103.2263
 49      0.0394     1.1402E-01    1.0726E-01    1.500000E+10  0.00040  2.925E-05    0   0.4854   age201_m32            0.0000     2.2123E+01     3.3466   0.4023   105.0441
 50      0.0000     0.0000E+00    0.0000E+00    1.800000E+10  0.00040  2.469E-05    0   0.4819   age213_m32            0.0000     2.8527E+01     3.7288   0.3304   105.7299
 51      0.0000     0.0000E+00    0.0000E+00    1.000000E+06  0.00400  1.114E-02    0   1.0000   age020_m42            0.0000     5.6102E+02    18.1772   4.0000    75.1111
 52      0.0000     0.0000E+00    0.0000E+00    3.160000E+06  0.00400  4.073E-02    0   0.9999   age045_m42            0.0000     7.6851E+01     5.2876   3.3482    92.8138
 53      0.0000     0.0000E+00    0.0000E+00    5.010000E+06  0.00400  2.534E-02    0   0.9488   age055_m42            0.0000     1.6583E+02     7.6937   3.9904    85.5684
 54      0.0000     0.0000E+00    0.0000E+00    6.610000E+06  0.00400  2.583E-02    0   0.9220   age061_m42            0.0000     1.1125E+02     6.2066   3.0576    93.0712
 55      0.0000     0.0000E+00    0.0000E+00    8.710000E+06  0.00400  1.706E-02    0   0.8983   age067_m42            0.0000     1.0366E+02     6.5758   3.0576    90.4860
 56      0.0000     0.0000E+00    0.0000E+00    1.000000E+07  0.00400  1.271E-02    0   0.8862   age070_m42            0.0000     1.2932E+02     7.4424   3.1472    88.4262
 57      0.0000     0.0000E+00    0.0000E+00    1.445000E+07  0.00400  7.666E-03    0   0.8571   age078_m42            0.0000     2.0046E+02     8.3397   3.6378    85.4843
 58      0.0000     0.0000E+00    0.0000E+00    2.512000E+07  0.00400  5.070E-03    0   0.8174   age090_m42            0.0000     1.2335E+02     6.6882   2.9741    90.5877
 59      0.0000     0.0000E+00    0.0000E+00    4.000000E+07  0.00400  3.505E-03    0   0.7851   age104_m42            0.0000     9.8200E+01     5.1072   2.5269    94.7338
 60      0.0011     3.0085E-05    4.4478E-05    5.500000E+07  0.00400  3.059E-03    0   0.7629   age110_m42            0.0000     2.1072E+02     7.0688   2.1870   100.1197
 61      0.0000     0.0000E+00    0.0000E+00    1.015200E+08  0.00400  2.268E-03    0   0.7207   age116_m42            0.0000     6.6039E+02    14.5354   1.4287   106.4389
 62      1.5752     7.7570E-02    1.0417E-01    1.609000E+08  0.00400  1.720E-03    0   0.6930   age120_m42            0.0000     6.7518E+02    15.2947   1.1611   109.5191
 63      0.0000     0.0000E+00    0.0000E+00    2.861200E+08  0.00400  1.079E-03    0   0.6613   age125_m42            0.0000     6.5671E+02    15.2547   0.7797   111.6043
 64      0.0000     0.0000E+00    0.0000E+00    5.088000E+08  0.00400  6.261E-04    0   0.6313   age130_m42            0.0000     7.5044E+02    17.3473   0.4290   114.8807
 65      0.0000     0.0000E+00    0.0000E+00    9.047900E+08  0.00400  3.535E-04    0   0.6024   age135_m42            0.0000     3.8552E+02    12.5777   0.3644   116.0763
 66      0.0000     0.0000E+00    0.0000E+00    1.278050E+09  0.00400  2.677E-04    0   0.5837   age138_m42            0.0000     8.4317E+01     6.5999  -0.0287   116.3575
 67      0.0000     0.0000E+00    0.0000E+00    1.434000E+09  0.00400  1.910E-04    0   0.5716   age139_m42            0.0000     1.1160E+02     7.4737   0.0643   116.6187
 68     14.2115     1.2260E+01    1.2980E+01    2.500000E+09  0.00400  9.818E-05    0   0.5463   age150_m42            0.0000     4.9716E+01     5.2337   0.1044   112.1734
 69      0.0040     6.1802E-03    6.3105E-03    4.250000E+09  0.00400  5.491E-05    0   0.5269   age158_m42            0.0000     1.0432E+02     5.9723   0.1078   108.9804
 70      3.8465     8.4470E+00    8.4320E+00    6.250000E+09  0.00400  3.857E-05    0   0.5151   age166_m42            0.0000     1.6916E+02     7.0893  -0.0036   108.1721
 71     12.2141     3.1900E+01    3.1590E+01    7.500000E+09  0.00400  3.243E-05    0   0.5110   age171_m42            0.0000     2.1519E+02     7.7958  -0.0840   108.0362
 72      4.2848     1.4972E+01    1.4589E+01    1.000000E+10  0.00400  2.424E-05    0   0.5028   age181_m42            0.0000     2.9349E+02     8.7463  -0.1617   107.9489
 73      0.0000     0.0000E+00    0.0000E+00    1.300000E+10  0.00400  1.883E-05    0   0.4927   age193_m42            0.0000     3.6697E+02     9.4912  -0.1868   107.9590
 74      0.0014     7.0458E-03    6.7165E-03    1.500000E+10  0.00400  1.685E-05    0   0.4919   age201_m42            0.0000     3.4705E+02     9.2848  -0.1780   107.8187
 75      0.0029     1.7159E-02    1.6207E-02    1.800000E+10  0.00400  1.452E-05    0   0.4874   age213_m42            0.0000     3.0958E+02     8.8731  -0.1586   107.8050
 76      0.0000     0.0000E+00    0.0000E+00    1.000000E+06  0.00800  1.286E-02    0   1.0000   age020_m52            0.0000     4.6325E+02    16.7366   4.0000    77.2790
 77      0.0000     0.0000E+00    0.0000E+00    3.160000E+06  0.00800  3.147E-02    0   0.9966   age045_m52            0.0000     3.8231E+02    15.2688   4.0000    79.0158
 78      0.0000     0.0000E+00    0.0000E+00    5.010000E+06  0.00800  2.664E-02    0   0.9443   age055_m52            0.0000     2.1314E+02     9.2199   4.0000    84.0125
 79      0.0000     0.0000E+00    0.0000E+00    6.610000E+06  0.00800  2.151E-02    0   0.9177   age061_m52            0.0000     1.1339E+02     5.9377   2.7347    91.9030
 80      0.0000     0.0000E+00    0.0000E+00    8.710000E+06  0.00800  1.628E-02    0   0.8948   age067_m52            0.0000     1.2033E+02     6.6060   3.0540    91.0130
 81      0.0000     0.0000E+00    0.0000E+00    1.000000E+07  0.00800  1.215E-02    0   0.8827   age070_m52            0.0000     1.5129E+02     7.5059   3.4450    88.7130
 82      0.0000     0.0000E+00    0.0000E+00    1.445000E+07  0.00800  8.739E-03    0   0.8552   age078_m52            0.0000     1.4908E+02     7.4044   3.4021    89.9303
 83      0.0015     2.2942E-05    3.6289E-05    2.512000E+07  0.00800  5.676E-03    0   0.8162   age090_m52            0.0000     1.9788E+02     8.0803   2.7863    94.4893
 84      0.0000     0.0000E+00    0.0000E+00    4.000000E+07  0.00800  3.939E-03    0   0.7841   age104_m52            0.0000     2.6011E+02     8.3626   2.4465    97.8459
 85      0.0000     0.0000E+00    0.0000E+00    5.500000E+07  0.00800  3.155E-03    0   0.7627   age110_m52            0.0000     3.3784E+02     9.4905   2.2432   100.3416
 86      0.0000     0.0000E+00    0.0000E+00    1.015200E+08  0.00800  2.206E-03    0   0.7226   age116_m52            0.0000     4.9987E+02    12.3211   1.6932   106.0792
 87      0.0000     0.0000E+00    0.0000E+00    1.609000E+08  0.00800  1.596E-03    0   0.6963   age120_m52            0.0000     5.7636E+02    13.7992   1.3096   109.0198
 88      0.0000     0.0000E+00    0.0000E+00    2.861200E+08  0.00800  1.002E-03    0   0.6665   age125_m52            0.0000     7.8272E+02    17.5251   0.5764   114.7850
 89      0.0000     0.0000E+00    0.0000E+00    5.088000E+08  0.00800  5.759E-04    0   0.6377   age130_m52            0.0000     6.8834E+02    17.8442   0.0835   122.2891
 90      0.0000     0.0000E+00    0.0000E+00    9.047900E+08  0.00800  2.972E-04    0   0.6086   age135_m52            0.0000     1.9468E+02    11.0822  -0.0112   124.1784
 91      0.0000     0.0000E+00    0.0000E+00    1.278050E+09  0.00800  2.242E-04    0   0.5907   age138_m52            0.0000     8.0095E+01     7.3723  -0.2437   121.9867
 92      0.0000     0.0000E+00    0.0000E+00    1.434000E+09  0.00800  1.645E-04    0   0.5787   age139_m52            0.0000     6.3195E+01     6.5638  -0.0383   120.2631
 93      0.0000     0.0000E+00    0.0000E+00    2.500000E+09  0.00800  7.723E-05    0   0.5519   age150_m52            0.0000     1.3683E+02     6.9373  -0.1877   116.3582
 94      0.0000     0.0000E+00    0.0000E+00    4.250000E+09  0.00800  4.151E-05    0   0.5320   age158_m52            0.0000     1.9777E+02     7.6006  -0.1825   113.6469
 95      0.0000     0.0000E+00    0.0000E+00    6.250000E+09  0.00800  3.010E-05    0   0.5197   age166_m52            0.0000     3.3174E+02     9.1139  -0.3669   113.0773
 96      0.0000     0.0000E+00    0.0000E+00    7.500000E+09  0.00800  2.467E-05    0   0.5139   age171_m52            0.0000     3.6825E+02     9.4973  -0.4133   112.9191
 97      0.0000     0.0000E+00    0.0000E+00    1.000000E+10  0.00800  1.862E-05    0   0.5054   age181_m52            0.0000     4.7732E+02    10.5516  -0.5728   113.4102
