###################################################################
## OUTPUT of StarlightChains_v04.for    [Cid@UFSC - 01/Apr/2007] ##
###################################################################

## Some input info
NGC5286_b_1.cxt                          [arq_obs]
Base.BC03.S                              [arq_base]
NGC5286_b_1.msk                          [arq_masks]
StCv04.C99.config                        [arq_config]
  150                                    [N_base]
    0                                    [N_YAV_components = # of components with extra extinction!]
    0                                    [i_FitPowerLaw (1/0 = Yes/No)]
-9.99                                    [alpha_PowerLaw]
CCM                                      [red_law_option]
 1.458241                                [q_norm = A(l_norm)/A(V)]

## (Re)Sampling Parameters
 3359.00                                 [l_ini (A)]
 6428.00                                 [l_fin (A)]
    1.00                                 [dl    (A)]     (OBS: dl_cushion =    50.00 A)

## Normalization info
 4020.00                                 [l_norm (A) - for base]
 4010.00                                 [llow_norm (A) - window for f_obs]
 4060.00                                 [lupp_norm (A) - window for f_obs]
1.497078E-14                             [fobs_norm (in input units)]

## S/N
 4730.00                                 [llow_SN (A) - window for S/N]
 4780.00                                 [lupp_SN (A) - window for S/N]
 111.377                                 [S/N in S/N window]
  94.497                                 [S/N in norm. window]
  66.783                                 [S/N_err in S/N window]
  56.662                                 [S/N_err in norm. window]
  1.0000                                 [fscale_chi2]

## etc...
  2147483637                             [idum_orig]
  3065                                   [NOl_eff]
  2313                                   [Nl_eff]
   752    NSIGMA                         [Ntot_cliped & clip_method]
  3564890                                [Nglobal_steps]
   7                                     [N_chains]
  20                                     [NEX0s_base = N_base in EX0s-fits]
 0   0   1      308   2.0   8.979E+02    [Clip-Bug, RC-Crash & Burn-In warning-flags, n_censored_weights, wei_nsig_threshold & wei_limit]
   148    146.928    146.908      0.020  [idt_all, wdt_TotTime, wdt_UsrTime & wdt_SysTime (sec)]

## Synthesis Results - Best model ##

 2.07070E+00                             [chi2/Nl_eff]
     1.61664                             [adev (%)]

   101.90338                             [sum-of-x (%)]
 4.64871E-14                             [Flux_tot (units of input spectrum!)]
 6.46834E-10                             [Mini_tot (???)]
 3.34080E-10                             [Mcor_tot (???)]

 -29.35                                  [v0_min  (km/s)]
 100.61                                  [vd_min  (km/s)]
 0.8296                                  [AV_min  (mag)]
 0.0000                                  [YAV_min (mag)]

# j     x_j(%)      Mini_j(%)     Mcor_j(%)     age_j(yr)     Z_j      (L/M)_j    YAV?  Mstars   component_j        a/Fe...       SSP_chi2r SSP_adev(%)   SSP_AV   SSP_x(%)
  1      0.0000     0.0000E+00    0.0000E+00    1.000000E+06  0.00010  8.160E-03    0   1.0000   age020_m22            0.0000     3.0193E+02    16.9486   4.0000    67.8192
  2     25.0848     3.7175E-02    7.1976E-02    3.160000E+06  0.00010  4.759E-02    0   1.0000   age045_m22            0.0000     2.1326E+01     3.4529   2.1382    94.1963
  3      0.0000     1.5677E-08    2.9085E-08    5.010000E+06  0.00010  1.932E-02    0   0.9582   age055_m22            0.0000     1.6999E+02    11.7817   2.6822    73.3543
  4      0.0000     0.0000E+00    0.0000E+00    6.610000E+06  0.00010  9.973E-03    0   0.9297   age061_m22            0.0000     2.7477E+02    15.6088   4.0000    70.5924
  5      0.0000     0.0000E+00    0.0000E+00    8.710000E+06  0.00010  7.690E-03    0   0.9030   age067_m22            0.0000     2.5793E+02    15.0006   4.0000    71.2383
  6      0.0000     0.0000E+00    0.0000E+00    1.000000E+07  0.00010  6.375E-03    0   0.8902   age070_m22            0.0000     2.5295E+02    14.9586   4.0000    71.6302
  7      0.0000     0.0000E+00    0.0000E+00    1.445000E+07  0.00010  4.874E-03    0   0.8589   age078_m22            0.0000     1.3819E+02     9.6472   4.0000    75.3677
  8      0.0000     0.0000E+00    0.0000E+00    2.512000E+07  0.00010  4.103E-03    0   0.8174   age090_m22            0.0000     4.8218E+01     5.8453   3.5898    85.1230
  9      0.0332     6.4157E-04    9.7263E-04    4.000000E+07  0.00010  3.654E-03    0   0.7830   age104_m22            0.0000     3.8823E+01     3.7271   3.1604    94.4189
 10      0.0770     1.7551E-03    2.5816E-03    5.500000E+07  0.00010  3.093E-03    0   0.7597   age110_m22            0.0000     4.4995E+01     3.3776   3.0015    98.2374
 11      0.0000     0.0000E+00    0.0000E+00    1.015200E+08  0.00010  2.431E-03    0   0.7138   age116_m22            0.0000     7.8359E+01     4.2653   2.5661   104.8506
 12      0.0000     0.0000E+00    0.0000E+00    1.609000E+08  0.00010  1.319E-03    0   0.6775   age120_m22            0.0000     5.9492E+01     4.9648   2.0546   109.2112
 13      0.0000     0.0000E+00    0.0000E+00    2.861200E+08  0.00010  1.075E-03    0   0.6412   age125_m22            0.0000     2.2539E+02    11.3519   1.8183   125.7570
 14      0.0000     0.0000E+00    0.0000E+00    5.088000E+08  0.00010  7.183E-04    0   0.6083   age130_m22            0.0000     2.8068E+02    13.5426   1.4790   132.6490
 15      0.0000     0.0000E+00    0.0000E+00    9.047900E+08  0.00010  4.524E-04    0   0.5785   age135_m22            0.0000     2.7884E+02    13.9161   1.2616   134.9893
 16      0.0000     0.0000E+00    0.0000E+00    1.278050E+09  0.00010  3.018E-04    0   0.5588   age138_m22            0.0000     9.9603E+01     8.7646   0.9779   121.9958
 17      0.0000     0.0000E+00    0.0000E+00    1.434000E+09  0.00010  2.691E-04    0   0.5532   age139_m22            0.0000     7.5159E+01     7.7623   0.8692   119.2758
 18      0.0000     0.0000E+00    0.0000E+00    2.500000E+09  0.00010  1.582E-04    0   0.5296   age150_m22            0.0000     5.9035E+01     6.6277   0.8015   118.0935
 19      0.0000     0.0000E+00    0.0000E+00    4.250000E+09  0.00010  1.007E-04    0   0.5110   age158_m22            0.0000     2.3049E+01     4.4334   0.7523   111.7765
 20      0.0000     0.0000E+00    0.0000E+00    6.250000E+09  0.00010  6.869E-05    0   0.4985   age166_m22            0.0000     7.2410E+00     2.5666   0.7898   104.7952
 21      0.0000     0.0000E+00    0.0000E+00    7.500000E+09  0.00010  5.873E-05    0   0.4931   age171_m22            0.0000     6.1444E+00     2.2500   0.7975   103.3973
 22      0.0000     0.0000E+00    0.0000E+00    1.000000E+10  0.00010  4.481E-05    0   0.4854   age181_m22            0.0000     5.7180E+00     2.2301   0.7605   102.9771
 23      0.0384     7.7686E-02    7.2063E-02    1.300000E+10  0.00010  3.489E-05    0   0.4791   age193_m22            0.0000     5.2249E+00     2.1476   0.7097   102.1871
 24      0.0000     0.0000E+00    0.0000E+00    1.500000E+10  0.00010  3.035E-05    0   0.4766   age201_m22            0.0000     5.0220E+00     2.0812   0.6760   101.7834
 25      0.0000     0.0000E+00    0.0000E+00    1.800000E+10  0.00010  2.510E-05    0   0.4735   age213_m22            0.0000     5.1337E+00     1.9356   0.6225   100.5731
 26      0.0000     0.0000E+00    0.0000E+00    1.000000E+06  0.00040  8.458E-03    0   1.0000   age020_m32            0.0000     3.0520E+02    17.1283   4.0000    68.5220
 27      0.0000     0.0000E+00    0.0000E+00    3.160000E+06  0.00040  3.973E-02    0   1.0000   age045_m32            0.0000     5.5533E+01     6.3188   3.5026    84.4666
 28      0.0000     0.0000E+00    0.0000E+00    5.010000E+06  0.00040  1.935E-02    0   0.9532   age055_m32            0.0000     1.3461E+02    10.3897   3.8507    74.8684
 29      0.0000     0.0000E+00    0.0000E+00    6.610000E+06  0.00040  1.204E-02    0   0.9243   age061_m32            0.0000     1.8094E+02    11.5717   4.0000    73.1112
 30      0.0000     0.0000E+00    0.0000E+00    8.710000E+06  0.00040  9.433E-03    0   0.9001   age067_m32            0.0000     1.5363E+02    10.4562   4.0000    74.3835
 31      0.0000     0.0000E+00    0.0000E+00    1.000000E+07  0.00040  8.053E-03    0   0.8877   age070_m32            0.0000     1.4068E+02     9.8283   4.0000    74.9311
 32      0.0000     0.0000E+00    0.0000E+00    1.445000E+07  0.00040  7.027E-03    0   0.8578   age078_m32            0.0000     7.0425E+01     7.5139   3.4966    82.0102
 33      0.0000     0.0000E+00    0.0000E+00    2.512000E+07  0.00040  4.707E-03    0   0.8166   age090_m32            0.0000     3.8353E+01     5.3775   3.1234    88.5754
 34      0.0000     0.0000E+00    0.0000E+00    4.000000E+07  0.00040  3.714E-03    0   0.7827   age104_m32            0.0000     3.0752E+01     3.7395   2.8233    95.4721
 35      0.0000     0.0000E+00    0.0000E+00    5.500000E+07  0.00040  2.982E-03    0   0.7593   age110_m32            0.0000     3.7216E+01     3.4008   2.7132    98.5716
 36      0.0000     0.0000E+00    0.0000E+00    1.015200E+08  0.00040  2.188E-03    0   0.7143   age116_m32            0.0000     1.1791E+02     6.4321   2.2350   111.7372
 37      0.0000     0.0000E+00    0.0000E+00    1.609000E+08  0.00040  1.690E-03    0   0.6856   age120_m32            0.0000     1.9551E+02     9.1876   1.8920   120.4506
 38      0.0000     0.0000E+00    0.0000E+00    2.861200E+08  0.00040  1.152E-03    0   0.6509   age125_m32            0.0000     2.3672E+02    11.9565   1.5366   128.6070
 39      0.0000     0.0000E+00    0.0000E+00    5.088000E+08  0.00040  7.331E-04    0   0.6182   age130_m32            0.0000     2.5625E+02    13.1271   1.3186   131.9655
 40      0.0000     0.0000E+00    0.0000E+00    9.047900E+08  0.00040  3.960E-04    0   0.5890   age135_m32            0.0000     1.0399E+02     9.3906   1.0524   121.9203
 41      0.0000     0.0000E+00    0.0000E+00    1.278050E+09  0.00040  2.854E-04    0   0.5687   age138_m32            0.0000     7.3114E+01     7.5702   0.8294   120.8963
 42      0.0000     0.0000E+00    0.0000E+00    1.434000E+09  0.00040  2.531E-04    0   0.5632   age139_m32            0.0000     7.0985E+01     7.3648   0.7737   120.5508
 43     15.6435     7.4145E+00    7.7320E+00    2.500000E+09  0.00040  1.488E-04    0   0.5386   age150_m32            0.0000     4.4730E+01     5.8544   0.5834   115.5130
 44     44.7774     3.4772E+01    3.5002E+01    4.250000E+09  0.00040  9.082E-05    0   0.5199   age158_m32            0.0000     7.5108E+00     2.7624   0.6349   105.6428
 45      3.3731     3.7393E+00    3.6750E+00    6.250000E+09  0.00040  6.362E-05    0   0.5076   age166_m32            0.0000     9.6377E+00     2.0611   0.7048    97.6589
 46      3.8797     5.1734E+00    5.0353E+00    7.500000E+09  0.00040  5.289E-05    0   0.5027   age171_m32            0.0000     1.3559E+01     2.2822   0.6848    95.8052
 47      1.2533     2.2253E+00    2.1319E+00    1.000000E+10  0.00040  3.972E-05    0   0.4948   age181_m32            0.0000     1.7184E+01     2.4324   0.6295    94.2656
 48      0.0193     4.1555E-02    3.9183E-02    1.300000E+10  0.00040  3.283E-05    0   0.4870   age193_m32            0.0000     8.4563E+00     2.1063   0.5293    99.2259
 49      0.0000     0.0000E+00    0.0000E+00    1.500000E+10  0.00040  2.925E-05    0   0.4854   age201_m32            0.0000     6.6347E+00     2.3253   0.4754   102.2765
 50      0.0000     0.0000E+00    0.0000E+00    1.800000E+10  0.00040  2.469E-05    0   0.4819   age213_m32            0.0000     7.0098E+00     2.5423   0.4197   103.4438
 51      0.0000     0.0000E+00    0.0000E+00    1.000000E+06  0.00400  1.114E-02    0   1.0000   age020_m42            0.0000     2.6545E+02    15.0726   4.0000    69.1259
 52      0.0000     0.0000E+00    0.0000E+00    3.160000E+06  0.00400  4.073E-02    0   0.9999   age045_m42            0.0000     3.3879E+01     4.6530   3.1486    88.9431
 53      0.0000     0.0000E+00    0.0000E+00    5.010000E+06  0.00400  2.534E-02    0   0.9488   age055_m42            0.0000     8.7459E+01     8.1377   3.6766    78.7383
 54      1.0125     2.7646E-03    4.9353E-03    6.610000E+06  0.00400  2.583E-02    0   0.9220   age061_m42            0.0000     3.1098E+01     3.9710   2.9334    90.9615
 55      0.0000     0.0000E+00    0.0000E+00    8.710000E+06  0.00400  1.706E-02    0   0.8983   age067_m42            0.0000     4.4169E+01     6.2645   2.8434    86.0325
 56      0.0000     0.0000E+00    0.0000E+00    1.000000E+07  0.00400  1.271E-02    0   0.8862   age070_m42            0.0000     6.6298E+01     8.1615   2.8795    82.8347
 57      0.0000     0.0000E+00    0.0000E+00    1.445000E+07  0.00400  7.666E-03    0   0.8571   age078_m42            0.0000     1.0131E+02     9.2495   3.3267    78.4000
 58      0.0000     0.0000E+00    0.0000E+00    2.512000E+07  0.00400  5.070E-03    0   0.8174   age090_m42            0.0000     6.1730E+01     7.5174   2.7279    85.2376
 59      0.0000     0.0000E+00    0.0000E+00    4.000000E+07  0.00400  3.505E-03    0   0.7851   age104_m42            0.0000     4.7442E+01     5.4245   2.3482    90.6614
 60      0.0000     0.0000E+00    0.0000E+00    5.500000E+07  0.00400  3.059E-03    0   0.7629   age110_m42            0.0000     3.2117E+01     2.9911   2.2172   102.6357
 61      0.0000     0.0000E+00    0.0000E+00    1.015200E+08  0.00400  2.268E-03    0   0.7207   age116_m42            0.0000     1.5628E+02     8.8537   1.8293   120.4463
 62      0.0000     0.0000E+00    0.0000E+00    1.609000E+08  0.00400  1.720E-03    0   0.6930   age120_m42            0.0000     1.6828E+02    10.0005   1.6311   124.7567
 63      0.0000     0.0000E+00    0.0000E+00    2.861200E+08  0.00400  1.079E-03    0   0.6613   age125_m42            0.0000     1.5423E+02    10.2834   1.2652   126.2071
 64      0.0000     0.0000E+00    0.0000E+00    5.088000E+08  0.00400  6.261E-04    0   0.6313   age130_m42            0.0000     1.9138E+02    11.4328   1.0089   132.2880
 65      0.0000     0.0000E+00    0.0000E+00    9.047900E+08  0.00400  3.535E-04    0   0.6024   age135_m42            0.0000     9.6077E+01     8.5556   0.7551   125.9051
 66      0.0000     0.0000E+00    0.0000E+00    1.278050E+09  0.00400  2.677E-04    0   0.5837   age138_m42            0.0000     5.7963E+01     6.3312   0.2400   115.6191
 67      0.0000     0.0000E+00    0.0000E+00    1.434000E+09  0.00400  1.910E-04    0   0.5716   age139_m42            0.0000     5.1125E+01     6.7453   0.3625   118.4968
 68      0.0000     0.0000E+00    0.0000E+00    2.500000E+09  0.00400  9.818E-05    0   0.5463   age150_m42            0.0000     4.2438E+01     4.7534   0.2571   106.4286
 69      0.0000     0.0000E+00    0.0000E+00    4.250000E+09  0.00400  5.491E-05    0   0.5269   age158_m42            0.0000     5.9649E+01     4.4122   0.2009   100.8184
 70      0.0000     0.0000E+00    0.0000E+00    6.250000E+09  0.00400  3.857E-05    0   0.5151   age166_m42            0.0000     7.2632E+01     4.9267   0.0969    98.6635
 71      0.0000     0.0000E+00    0.0000E+00    7.500000E+09  0.00400  3.243E-05    0   0.5110   age171_m42            0.0000     8.2961E+01     5.4828   0.0000    97.9795
 72      0.7892     2.2963E+00    2.2354E+00    1.000000E+10  0.00400  2.424E-05    0   0.5028   age181_m42            0.0000     1.0230E+02     5.7532  -0.0431    96.8790
 73      0.0000     0.0000E+00    0.0000E+00    1.300000E+10  0.00400  1.883E-05    0   0.4927   age193_m42            0.0000     1.2576E+02     6.0614  -0.0718    96.1962
 74      0.0000     0.0000E+00    0.0000E+00    1.500000E+10  0.00400  1.685E-05    0   0.4919   age201_m42            0.0000     1.2042E+02     5.9677  -0.0680    96.2162
 75      0.0000     0.0000E+00    0.0000E+00    1.800000E+10  0.00400  1.452E-05    0   0.4874   age213_m42            0.0000     1.1248E+02     5.7980  -0.0545    96.5276
 76      0.0000     0.0000E+00    0.0000E+00    1.000000E+06  0.00800  1.286E-02    0   1.0000   age020_m52            0.0000     2.3075E+02    13.3238   4.0000    71.4847
 77      0.0000     0.0000E+00    0.0000E+00    3.160000E+06  0.00800  3.147E-02    0   0.9966   age045_m52            0.0000     1.8743E+02    11.4248   4.0000    72.9843
 78      0.0000     0.0000E+00    0.0000E+00    5.010000E+06  0.00800  2.664E-02    0   0.9443   age055_m52            0.0000     1.1636E+02     8.7648   3.8159    77.2852
 79      0.0000     0.0000E+00    0.0000E+00    6.610000E+06  0.00800  2.151E-02    0   0.9177   age061_m52            0.0000     7.5433E+01     7.3092   2.4693    84.8223
 80      0.0000     0.0000E+00    0.0000E+00    8.710000E+06  0.00800  1.628E-02    0   0.8948   age067_m52            0.0000     6.4054E+01     6.8802   2.8123    86.2170
 81      0.0000     0.0000E+00    0.0000E+00    1.000000E+07  0.00800  1.215E-02    0   0.8827   age070_m52            0.0000     8.0993E+01     7.6386   3.1752    83.6643
 82      0.0000     0.0000E+00    0.0000E+00    1.445000E+07  0.00800  8.739E-03    0   0.8552   age078_m52            0.0000     6.4109E+01     6.4797   3.1781    86.2743
 83      0.0000     0.0000E+00    0.0000E+00    2.512000E+07  0.00800  5.676E-03    0   0.8162   age090_m52            0.0000     4.7769E+01     4.6211   2.6740    94.7315
 84      0.0000     0.0000E+00    0.0000E+00    4.000000E+07  0.00800  3.939E-03    0   0.7841   age104_m52            0.0000     4.8640E+01     3.2853   2.4227   100.9334
 85      0.0000     0.0000E+00    0.0000E+00    5.500000E+07  0.00800  3.155E-03    0   0.7627   age110_m52            0.0000     5.9755E+01     3.8095   2.3126   106.0178
 86      0.0000     0.0000E+00    0.0000E+00    1.015200E+08  0.00800  2.206E-03    0   0.7226   age116_m52            0.0000     1.0587E+02     7.1478   1.9691   116.8963
 87      0.0000     0.0000E+00    0.0000E+00    1.609000E+08  0.00800  1.596E-03    0   0.6963   age120_m52            0.0000     1.2707E+02     8.6797   1.6864   121.8291
 88      0.0000     0.0000E+00    0.0000E+00    2.861200E+08  0.00800  1.002E-03    0   0.6665   age125_m52            0.0000     2.0705E+02    12.4197   1.2218   132.8104
 89      0.0000     0.0000E+00    0.0000E+00    5.088000E+08  0.00800  5.759E-04    0   0.6377   age130_m52            0.0000     2.1199E+02    13.6061   0.8226   140.0157
 90      0.0000     0.0000E+00    0.0000E+00    9.047900E+08  0.00800  2.972E-04    0   0.6086   age135_m52            0.0000     9.8315E+01    10.2114   0.4878   129.4012
 91      0.0000     0.0000E+00    0.0000E+00    1.278050E+09  0.00800  2.242E-04    0   0.5907   age138_m52            0.0000     8.3963E+01     7.2400   0.0765   118.6059
 92      0.0000     0.0000E+00    0.0000E+00    1.434000E+09  0.00800  1.645E-04    0   0.5787   age139_m52            0.0000     7.3006E+01     6.5256   0.2421   117.1598
 93      0.0000     0.0000E+00    0.0000E+00    2.500000E+09  0.00800  7.723E-05    0   0.5519   age150_m52            0.0000     9.4873E+01     5.9534   0.0000   108.4849
 94      0.0000     0.0000E+00    0.0000E+00    4.250000E+09  0.00800  4.151E-05    0   0.5320   age158_m52            0.0000     9.0000E+01     5.6492  -0.0153   104.0170
 95      0.0000     0.0000E+00    0.0000E+00    6.250000E+09  0.00800  3.010E-05    0   0.5197   age166_m52            0.0000     1.2326E+02     6.3539  -0.1873   101.8058
 96      0.0000     0.0000E+00    0.0000E+00    7.500000E+09  0.00800  2.467E-05    0   0.5139   age171_m52            0.0000     1.3301E+02     6.5792  -0.2270   101.3529
 97      0.0000     0.0000E+00    0.0000E+00    1.000000E+10  0.00800  1.862E-05    0   0.5054   age181_m52            0.0000     1.6449E+02     7.3095  -0.3592   101.1293
