###################################################################
## OUTPUT of StarlightChains_v04.for    [Cid@UFSC - 01/Apr/2007] ##
###################################################################

## Some input info
NGC5904_a_1.cxt                          [arq_obs]
Base.BC03.S                              [arq_base]
NGC5904_a_1.msk                          [arq_masks]
StCv04.C99.config                        [arq_config]
  150                                    [N_base]
    0                                    [N_YAV_components = # of components with extra extinction!]
    0                                    [i_FitPowerLaw (1/0 = Yes/No)]
-9.99                                    [alpha_PowerLaw]
CCM                                      [red_law_option]
 1.458241                                [q_norm = A(l_norm)/A(V)]

## (Re)Sampling Parameters
 3359.00                                 [l_ini (A)]
 6428.00                                 [l_fin (A)]
    1.00                                 [dl    (A)]     (OBS: dl_cushion =    50.00 A)

## Normalization info
 4020.00                                 [l_norm (A) - for base]
 4010.00                                 [llow_norm (A) - window for f_obs]
 4060.00                                 [lupp_norm (A) - window for f_obs]
5.027376E-14                             [fobs_norm (in input units)]

## S/N
 4730.00                                 [llow_SN (A) - window for S/N]
 4780.00                                 [lupp_SN (A) - window for S/N]
  94.495                                 [S/N in S/N window]
  88.383                                 [S/N in norm. window]
 203.063                                 [S/N_err in S/N window]
 189.929                                 [S/N_err in norm. window]
  1.0000                                 [fscale_chi2]

## etc...
  2147483635                             [idum_orig]
  3067                                   [NOl_eff]
  1042                                   [Nl_eff]
  2025    NSIGMA                         [Ntot_cliped & clip_method]
  2676240                                [Nglobal_steps]
   7                                     [N_chains]
  15                                     [NEX0s_base = N_base in EX0s-fits]
 0   0   1      257   2.0   3.991E+02    [Clip-Bug, RC-Crash & Burn-In warning-flags, n_censored_weights, wei_nsig_threshold & wei_limit]
   121    120.533    120.517      0.016  [idt_all, wdt_TotTime, wdt_UsrTime & wdt_SysTime (sec)]

## Synthesis Results - Best model ##

 2.73093E+00                             [chi2/Nl_eff]
     0.91714                             [adev (%)]

   102.16311                             [sum-of-x (%)]
 6.27579E-14                             [Flux_tot (units of input spectrum!)]
 6.03092E-10                             [Mini_tot (???)]
 3.19741E-10                             [Mcor_tot (???)]

 -14.43                                  [v0_min  (km/s)]
  61.24                                  [vd_min  (km/s)]
 0.1492                                  [AV_min  (mag)]
 0.0000                                  [YAV_min (mag)]

# j     x_j(%)      Mini_j(%)     Mcor_j(%)     age_j(yr)     Z_j      (L/M)_j    YAV?  Mstars   component_j        a/Fe...       SSP_chi2r SSP_adev(%)   SSP_AV   SSP_x(%)
  1      0.0000     0.0000E+00    0.0000E+00    1.000000E+06  0.00010  8.160E-03    0   1.0000   age020_m22            0.0000     8.5379E+02    14.5931   3.6186    77.9408
  2     16.3615     3.5019E-02    6.6052E-02    3.160000E+06  0.00010  4.759E-02    0   1.0000   age045_m22            0.0000     1.3385E+02     5.9675   1.5891    96.6547
  3      0.0000     0.0000E+00    0.0000E+00    5.010000E+06  0.00010  1.932E-02    0   0.9582   age055_m22            0.0000     7.5465E+02    13.9435   1.9202    84.1471
  4      0.0000     0.0000E+00    0.0000E+00    6.610000E+06  0.00010  9.973E-03    0   0.9297   age061_m22            0.0000     8.3516E+02    14.6827   3.5802    80.8431
  5      0.0000     0.0000E+00    0.0000E+00    8.710000E+06  0.00010  7.690E-03    0   0.9030   age067_m22            0.0000     7.9094E+02    14.3208   3.5720    81.2412
  6      0.0000     0.0000E+00    0.0000E+00    1.000000E+07  0.00010  6.375E-03    0   0.8902   age070_m22            0.0000     7.5510E+02    14.0098   3.5875    81.3700
  7      0.0000     0.0000E+00    0.0000E+00    1.445000E+07  0.00010  4.874E-03    0   0.8589   age078_m22            0.0000     5.6372E+02    12.2920   3.3998    84.0639
  8      0.0000     0.0000E+00    0.0000E+00    2.512000E+07  0.00010  4.103E-03    0   0.8174   age090_m22            0.0000     2.6567E+02     8.8261   2.9823    90.0536
  9      0.0000     0.0000E+00    0.0000E+00    4.000000E+07  0.00010  3.654E-03    0   0.7830   age104_m22            0.0000     1.6977E+02     6.3278   2.6776    94.3946
 10      0.0000     0.0000E+00    0.0000E+00    5.500000E+07  0.00010  3.093E-03    0   0.7597   age110_m22            0.0000     1.5374E+02     5.5067   2.5675    96.0138
 11      0.0000     0.0000E+00    0.0000E+00    1.015200E+08  0.00010  2.431E-03    0   0.7138   age116_m22            0.0000     1.8350E+02     5.1629   2.2135    98.9483
 12      0.0000     0.0000E+00    0.0000E+00    1.609000E+08  0.00010  1.319E-03    0   0.6775   age120_m22            0.0000     1.8262E+02     4.7303   1.7198   101.6377
 13      0.0000     0.0000E+00    0.0000E+00    2.861200E+08  0.00010  1.075E-03    0   0.6412   age125_m22            0.0000     4.9739E+02     7.3934   1.7613   105.5123
 14      0.0000     0.0000E+00    0.0000E+00    5.088000E+08  0.00010  7.183E-04    0   0.6083   age130_m22            0.0000     6.3238E+02     8.6433   1.5202   107.4612
 15      0.0000     0.0000E+00    0.0000E+00    9.047900E+08  0.00010  4.524E-04    0   0.5785   age135_m22            0.0000     6.4366E+02     8.8230   1.3172   108.7272
 16      0.0000     0.0000E+00    0.0000E+00    1.278050E+09  0.00010  3.018E-04    0   0.5588   age138_m22            0.0000     2.7453E+02     5.6608   0.7938   106.6587
 17      0.0000     0.0000E+00    0.0000E+00    1.434000E+09  0.00010  2.691E-04    0   0.5532   age139_m22            0.0000     2.1371E+02     5.0126   0.6385   106.0344
 18      0.0000     0.0000E+00    0.0000E+00    2.500000E+09  0.00010  1.582E-04    0   0.5296   age150_m22            0.0000     1.8106E+02     4.6865   0.5358   106.5415
 19      0.0000     0.0000E+00    0.0000E+00    4.250000E+09  0.00010  1.007E-04    0   0.5110   age158_m22            0.0000     8.3966E+01     3.3215   0.3862   104.8050
 20      0.0000     0.0000E+00    0.0000E+00    6.250000E+09  0.00010  6.869E-05    0   0.4985   age166_m22            0.0000     3.2372E+01     2.2340   0.3300   102.0517
 21      0.0000     0.0000E+00    0.0000E+00    7.500000E+09  0.00010  5.873E-05    0   0.4931   age171_m22            0.0000     3.3220E+01     2.3770   0.3224   101.4605
 22      0.0000     0.0000E+00    0.0000E+00    1.000000E+10  0.00010  4.481E-05    0   0.4854   age181_m22            0.0000     3.0588E+01     2.2851   0.2831   101.1185
 23      0.0052     1.5097E-02    1.3643E-02    1.300000E+10  0.00010  3.489E-05    0   0.4791   age193_m22            0.0000     2.5043E+01     2.1017   0.2241   100.5995
 24      0.0000     0.0000E+00    0.0000E+00    1.500000E+10  0.00010  3.035E-05    0   0.4766   age201_m22            0.0000     2.2726E+01     2.0331   0.1840   100.4167
 25      0.0000     0.0000E+00    0.0000E+00    1.800000E+10  0.00010  2.510E-05    0   0.4735   age213_m22            0.0000     1.9409E+01     1.9527   0.1138    99.8218
 26      0.0000     0.0000E+00    0.0000E+00    1.000000E+06  0.00040  8.458E-03    0   1.0000   age020_m32            0.0000     8.3724E+02    14.5205   3.6341    78.6410
 27      0.0000     0.0000E+00    0.0000E+00    3.160000E+06  0.00040  3.973E-02    0   1.0000   age045_m32            0.0000     2.9877E+02     9.2717   2.8818    90.0266
 28      0.0000     0.0000E+00    0.0000E+00    5.010000E+06  0.00040  1.935E-02    0   0.9532   age055_m32            0.0000     6.4052E+02    13.1828   3.1266    84.3809
 29      0.0000     0.0000E+00    0.0000E+00    6.610000E+06  0.00040  1.204E-02    0   0.9243   age061_m32            0.0000     6.9950E+02    13.5775   3.4368    82.6830
 30      0.0000     0.0000E+00    0.0000E+00    8.710000E+06  0.00040  9.433E-03    0   0.9001   age067_m32            0.0000     6.2812E+02    12.9334   3.4080    83.5146
 31      0.0000     0.0000E+00    0.0000E+00    1.000000E+07  0.00040  8.053E-03    0   0.8877   age070_m32            0.0000     6.0029E+02    12.6718   3.3710    83.9536
 32      0.0000     0.0000E+00    0.0000E+00    1.445000E+07  0.00040  7.027E-03    0   0.8578   age078_m32            0.0000     3.7786E+02    10.4416   2.8457    88.7201
 33      0.0000     0.0000E+00    0.0000E+00    2.512000E+07  0.00040  4.707E-03    0   0.8166   age090_m32            0.0000     2.3541E+02     8.3446   2.5388    92.5355
 34      0.0000     0.0000E+00    0.0000E+00    4.000000E+07  0.00040  3.714E-03    0   0.7827   age104_m32            0.0000     1.6326E+02     6.3798   2.3296    95.7107
 35      0.0000     0.0000E+00    0.0000E+00    5.500000E+07  0.00040  2.982E-03    0   0.7593   age110_m32            0.0000     1.5384E+02     5.7176   2.2632    96.9056
 36      0.0000     0.0000E+00    0.0000E+00    1.015200E+08  0.00040  2.188E-03    0   0.7143   age116_m32            0.0000     2.4406E+02     5.3050   1.9727   101.4921
 37      0.3001     1.8085E-02    2.3387E-02    1.609000E+08  0.00040  1.690E-03    0   0.6856   age120_m32            0.0000     3.7883E+02     6.3683   1.7531   104.3757
 38      0.0000     0.0000E+00    0.0000E+00    2.861200E+08  0.00040  1.152E-03    0   0.6509   age125_m32            0.0000     5.2891E+02     7.7126   1.5109   106.7212
 39      0.0000     0.0000E+00    0.0000E+00    5.088000E+08  0.00040  7.331E-04    0   0.6182   age130_m32            0.0000     5.8287E+02     8.3442   1.3387   107.6044
 40      0.0000     0.0000E+00    0.0000E+00    9.047900E+08  0.00040  3.960E-04    0   0.5890   age135_m32            0.0000     2.8644E+02     5.9792   0.8760   106.1032
 41      0.0000     0.0000E+00    0.0000E+00    1.278050E+09  0.00040  2.854E-04    0   0.5687   age138_m32            0.0000     2.1316E+02     5.0428   0.5977   107.5950
 42      0.0000     0.0000E+00    0.0000E+00    1.434000E+09  0.00040  2.531E-04    0   0.5632   age139_m32            0.0000     2.0575E+02     4.9657   0.5375   107.5447
 43     10.0590     6.8856E+00    6.9951E+00    2.500000E+09  0.00040  1.488E-04    0   0.5386   age150_m32            0.0000     1.2174E+02     3.8582   0.2789   105.8247
 44     27.3864     3.0715E+01    3.0120E+01    4.250000E+09  0.00040  9.082E-05    0   0.5199   age158_m32            0.0000     2.1339E+01     1.7532   0.1814   102.4409
 45      0.1132     1.8123E-01    1.7352E-01    6.250000E+09  0.00040  6.362E-05    0   0.5076   age166_m32            0.0000     2.4857E+01     2.2517   0.1450    98.9634
 46      0.8244     1.5876E+00    1.5053E+00    7.500000E+09  0.00040  5.289E-05    0   0.5027   age171_m32            0.0000     3.0898E+01     2.4356   0.1057    97.7665
 47      8.2410     2.1133E+01    1.9723E+01    1.000000E+10  0.00040  3.972E-05    0   0.4948   age181_m32            0.0000     3.5041E+01     2.4492   0.0388    96.4919
 48      0.0024     7.4723E-03    6.8639E-03    1.300000E+10  0.00040  3.283E-05    0   0.4870   age193_m32            0.0000     1.1276E+01     1.4823  -0.0086    99.2026
 49      0.0000     0.0000E+00    0.0000E+00    1.500000E+10  0.00040  2.925E-05    0   0.4854   age201_m32            0.0000     8.9032E+00     1.2694  -0.0284   100.7826
 50      0.0000     0.0000E+00    0.0000E+00    1.800000E+10  0.00040  2.469E-05    0   0.4819   age213_m32            0.0000     9.8579E+00     1.2817  -0.0709   101.3096
 51      0.0000     0.0000E+00    0.0000E+00    1.000000E+06  0.00400  1.114E-02    0   1.0000   age020_m42            0.0000     8.0037E+02    14.1533   3.5587    79.1106
 52      0.0000     0.0000E+00    0.0000E+00    3.160000E+06  0.00400  4.073E-02    0   0.9999   age045_m42            0.0000     1.9686E+02     7.5212   2.5721    92.6846
 53      0.0000     0.0000E+00    0.0000E+00    5.010000E+06  0.00400  2.534E-02    0   0.9488   age055_m42            0.0000     4.3152E+02    10.8539   2.9882    86.5831
 54      0.0000     0.0000E+00    0.0000E+00    6.610000E+06  0.00400  2.583E-02    0   0.9220   age061_m42            0.0000     1.6992E+02     6.8033   2.3866    93.2959
 55      0.0000     0.0000E+00    0.0000E+00    8.710000E+06  0.00400  1.706E-02    0   0.8983   age067_m42            0.0000     2.7411E+02     8.9368   2.2195    91.3664
 56      0.0000     0.0000E+00    0.0000E+00    1.000000E+07  0.00400  1.271E-02    0   0.8862   age070_m42            0.0000     3.8797E+02    10.6537   2.2107    89.8683
 57      0.0000     0.0000E+00    0.0000E+00    1.445000E+07  0.00400  7.666E-03    0   0.8571   age078_m42            0.0000     4.9396E+02    11.6638   2.6091    87.0143
 58      0.0000     0.0000E+00    0.0000E+00    2.512000E+07  0.00400  5.070E-03    0   0.8174   age090_m42            0.0000     3.2336E+02     9.8117   2.0642    91.7397
 59      0.0000     0.0000E+00    0.0000E+00    4.000000E+07  0.00400  3.505E-03    0   0.7851   age104_m42            0.0000     1.8803E+02     7.5336   1.7243    94.9440
 60      0.0000     0.0000E+00    0.0000E+00    5.500000E+07  0.00400  3.059E-03    0   0.7629   age110_m42            0.0000     1.0632E+02     4.4371   1.7649    99.6041
 61      0.0261     1.1708E-03    1.5915E-03    1.015200E+08  0.00400  2.268E-03    0   0.7207   age116_m42            0.0000     3.1605E+02     5.5637   1.6557   105.0752
 62      1.6289     9.6464E-02    1.2609E-01    1.609000E+08  0.00400  1.720E-03    0   0.6930   age120_m42            0.0000     3.5243E+02     6.0633   1.5050   106.9394
 63      0.0000     0.0000E+00    0.0000E+00    2.861200E+08  0.00400  1.079E-03    0   0.6613   age125_m42            0.0000     3.8233E+02     6.6186   1.1478   107.5267
 64      0.0000     0.0000E+00    0.0000E+00    5.088000E+08  0.00400  6.261E-04    0   0.6313   age130_m42            0.0000     4.5218E+02     7.1737   0.9573   110.2880
 65      0.0000     0.0000E+00    0.0000E+00    9.047900E+08  0.00400  3.535E-04    0   0.6024   age135_m42            0.0000     2.3361E+02     5.3534   0.5521   110.4012
 66      0.0000     0.0000E+00    0.0000E+00    1.278050E+09  0.00400  2.677E-04    0   0.5837   age138_m42            0.0000     9.4252E+01     4.6423  -0.1681   107.9200
 67      0.0000     0.0000E+00    0.0000E+00    1.434000E+09  0.00400  1.910E-04    0   0.5716   age139_m42            0.0000     9.9179E+01     4.4534   0.0056   108.8295
 68     29.1854     3.0278E+01    3.1200E+01    2.500000E+09  0.00400  9.818E-05    0   0.5463   age150_m42            0.0000     6.2411E+01     3.8776  -0.2748   103.9875
 69      0.0000     0.0000E+00    0.0000E+00    4.250000E+09  0.00400  5.491E-05    0   0.5269   age158_m42            0.0000     9.7876E+01     4.2482  -0.3985   101.1146
 70      0.0000     0.0000E+00    0.0000E+00    6.250000E+09  0.00400  3.857E-05    0   0.5151   age166_m42            0.0000     1.5274E+02     5.1246  -0.5329    99.7538
 71      0.0000     0.0000E+00    0.0000E+00    7.500000E+09  0.00400  3.243E-05    0   0.5110   age171_m42            0.0000     1.9077E+02     5.6711  -0.6166    99.2021
 72      0.0000     0.0000E+00    0.0000E+00    1.000000E+10  0.00400  2.424E-05    0   0.5028   age181_m42            0.0000     2.4848E+02     6.3950  -0.7032    98.6236
 73      0.0000     0.0000E+00    0.0000E+00    1.300000E+10  0.00400  1.883E-05    0   0.4927   age193_m42            0.0000     2.9782E+02     6.9302  -0.7465    98.3534
 74      0.0000     0.0000E+00    0.0000E+00    1.500000E+10  0.00400  1.685E-05    0   0.4919   age201_m42            0.0000     2.8384E+02     6.7558  -0.7410    98.3683
 75      0.0000     0.0000E+00    0.0000E+00    1.800000E+10  0.00400  1.452E-05    0   0.4874   age213_m42            0.0000     2.5887E+02     6.4484  -0.7233    98.6078
 76      0.0000     0.0000E+00    0.0000E+00    1.000000E+06  0.00800  1.286E-02    0   1.0000   age020_m52            0.0000     7.0282E+02    13.3666   3.5359    80.8907
 77      0.0000     0.0000E+00    0.0000E+00    3.160000E+06  0.00800  3.147E-02    0   0.9966   age045_m52            0.0000     6.7283E+02    13.1635   3.4427    82.4306
 78      0.0000     0.0000E+00    0.0000E+00    5.010000E+06  0.00800  2.664E-02    0   0.9443   age055_m52            0.0000     4.9144E+02    11.3600   3.1054    85.7395
 79      0.0000     0.0000E+00    0.0000E+00    6.610000E+06  0.00800  2.151E-02    0   0.9177   age061_m52            0.0000     3.0188E+02     8.9340   1.7813    91.9980
 80      0.0000     0.0000E+00    0.0000E+00    8.710000E+06  0.00800  1.628E-02    0   0.8948   age067_m52            0.0000     3.0180E+02     9.3622   2.1610    92.1049
 81      0.0000     0.0000E+00    0.0000E+00    1.000000E+07  0.00800  1.215E-02    0   0.8827   age070_m52            0.0000     3.7566E+02    10.3857   2.5040    90.2834
 82      0.0000     0.0000E+00    0.0000E+00    1.445000E+07  0.00800  8.739E-03    0   0.8552   age078_m52            0.0000     3.0902E+02     9.4280   2.5433    91.5079
 83      0.0000     0.0000E+00    0.0000E+00    2.512000E+07  0.00800  5.676E-03    0   0.8162   age090_m52            0.0000     2.1767E+02     7.6194   2.1382    95.9996
 84      0.0000     0.0000E+00    0.0000E+00    4.000000E+07  0.00800  3.939E-03    0   0.7841   age104_m52            0.0000     1.6806E+02     6.0169   1.9668    98.6782
 85      0.0000     0.0000E+00    0.0000E+00    5.500000E+07  0.00800  3.155E-03    0   0.7627   age110_m52            0.0000     1.6515E+02     5.0816   1.9276   100.5659
 86      0.0000     0.0000E+00    0.0000E+00    1.015200E+08  0.00800  2.206E-03    0   0.7226   age116_m52            0.0000     2.3427E+02     4.8150   1.7198   104.7385
 87      0.0000     0.0000E+00    0.0000E+00    1.609000E+08  0.00800  1.596E-03    0   0.6963   age120_m52            0.0000     2.9365E+02     5.4173   1.4945   106.6303
 88      0.0000     0.0000E+00    0.0000E+00    2.861200E+08  0.00800  1.002E-03    0   0.6665   age125_m52            0.0000     4.9050E+02     7.8068   1.1738   109.9396
 89      0.0000     0.0000E+00    0.0000E+00    5.088000E+08  0.00800  5.759E-04    0   0.6377   age130_m52            0.0000     5.3057E+02     8.7786   0.8020   114.2657
 90      0.0000     0.0000E+00    0.0000E+00    9.047900E+08  0.00800  2.972E-04    0   0.6086   age135_m52            0.0000     2.6812E+02     7.0817   0.2481   113.1870
 91      0.0000     0.0000E+00    0.0000E+00    1.278050E+09  0.00800  2.242E-04    0   0.5907   age138_m52            0.0000     1.4386E+02     5.8102  -0.3722   111.3626
 92      0.0000     0.0000E+00    0.0000E+00    1.434000E+09  0.00800  1.645E-04    0   0.5787   age139_m52            0.0000     1.0911E+02     5.0584  -0.2184   110.7341
 93      0.0000     0.0000E+00    0.0000E+00    2.500000E+09  0.00800  7.723E-05    0   0.5519   age150_m52            0.0000     1.4971E+02     5.6671  -0.5639   106.7773
 94      0.1837     4.5065E-01    4.5221E-01    4.250000E+09  0.00800  4.151E-05    0   0.5320   age158_m52            0.0000     1.7753E+02     5.8315  -0.6305   104.0756
 95      0.0000     0.0000E+00    0.0000E+00    6.250000E+09  0.00800  3.010E-05    0   0.5197   age166_m52            0.0000     2.7493E+02     7.0041  -0.8359   102.7206
 96      0.0000     0.0000E+00    0.0000E+00    7.500000E+09  0.00800  2.467E-05    0   0.5139   age171_m52            0.0000     3.0327E+02     7.3295  -0.8811   102.3429
 97      0.0000     0.0000E+00    0.0000E+00    1.000000E+10  0.00800  1.862E-05    0   0.5054   age181_m52            0.0000     3.9124E+02     8.2557  -1.0000   101.6188
