###################################################################
## OUTPUT of StarlightChains_v04.for    [Cid@UFSC - 01/Apr/2007] ##
###################################################################

## Some input info
NGC5927_a_1.cxt                          [arq_obs]
Base.BC03.S                              [arq_base]
NGC5927_a_1.msk                          [arq_masks]
StCv04.C99.config                        [arq_config]
  150                                    [N_base]
    0                                    [N_YAV_components = # of components with extra extinction!]
    0                                    [i_FitPowerLaw (1/0 = Yes/No)]
-9.99                                    [alpha_PowerLaw]
CCM                                      [red_law_option]
 1.458241                                [q_norm = A(l_norm)/A(V)]

## (Re)Sampling Parameters
 3359.00                                 [l_ini (A)]
 6428.00                                 [l_fin (A)]
    1.00                                 [dl    (A)]     (OBS: dl_cushion =    50.00 A)

## Normalization info
 4020.00                                 [l_norm (A) - for base]
 4010.00                                 [llow_norm (A) - window for f_obs]
 4060.00                                 [lupp_norm (A) - window for f_obs]
6.245917E-15                             [fobs_norm (in input units)]

## S/N
 4730.00                                 [llow_SN (A) - window for S/N]
 4780.00                                 [lupp_SN (A) - window for S/N]
  32.311                                 [S/N in S/N window]
  18.790                                 [S/N in norm. window]
  40.662                                 [S/N_err in S/N window]
  23.646                                 [S/N_err in norm. window]
  1.0000                                 [fscale_chi2]

## etc...
  2147483633                             [idum_orig]
  3065                                   [NOl_eff]
  1813                                   [Nl_eff]
  1252    NSIGMA                         [Ntot_cliped & clip_method]
  3536120                                [Nglobal_steps]
   7                                     [N_chains]
  19                                     [NEX0s_base = N_base in EX0s-fits]
 0   0   1      209   2.0   5.156E+02    [Clip-Bug, RC-Crash & Burn-In warning-flags, n_censored_weights, wei_nsig_threshold & wei_limit]
   148    148.229    148.213      0.016  [idt_all, wdt_TotTime, wdt_UsrTime & wdt_SysTime (sec)]

## Synthesis Results - Best model ##

 1.68102E+00                             [chi2/Nl_eff]
     1.85511                             [adev (%)]

   100.81287                             [sum-of-x (%)]
 3.41807E-14                             [Flux_tot (units of input spectrum!)]
 2.18711E-09                             [Mini_tot (???)]
 1.09538E-09                             [Mcor_tot (???)]

   9.95                                  [v0_min  (km/s)]
  52.62                                  [vd_min  (km/s)]
 1.2595                                  [AV_min  (mag)]
 0.0000                                  [YAV_min (mag)]

# j     x_j(%)      Mini_j(%)     Mcor_j(%)     age_j(yr)     Z_j      (L/M)_j    YAV?  Mstars   component_j        a/Fe...       SSP_chi2r SSP_adev(%)   SSP_AV   SSP_x(%)
  1      5.9113     1.1230E-02    2.2423E-02    1.000000E+06  0.00010  8.160E-03    0   1.0000   age020_m22            0.0000     1.3285E+03    36.9531   4.0000    86.1804
  2     18.0357     5.8751E-03    1.1731E-02    3.160000E+06  0.00010  4.759E-02    0   1.0000   age045_m22            0.0000     2.4422E+02     7.4808   3.5062    96.4957
  3      2.1493     1.7246E-03    3.2994E-03    5.010000E+06  0.00010  1.932E-02    0   0.9582   age055_m22            0.0000     3.2390E+02    12.7554   3.8360    85.6102
  4      0.0000     0.0000E+00    0.0000E+00    6.610000E+06  0.00010  9.973E-03    0   0.9297   age061_m22            0.0000     1.2656E+03    36.8192   4.0000    88.2987
  5      0.0000     0.0000E+00    0.0000E+00    8.710000E+06  0.00010  7.690E-03    0   0.9030   age067_m22            0.0000     1.2361E+03    36.5378   4.0000    88.7371
  6      0.0000     0.0000E+00    0.0000E+00    1.000000E+07  0.00010  6.375E-03    0   0.8902   age070_m22            0.0000     1.2267E+03    36.6955   4.0000    88.9204
  7      0.0000     0.0000E+00    0.0000E+00    1.445000E+07  0.00010  4.874E-03    0   0.8589   age078_m22            0.0000     9.9312E+02    32.4330   4.0000    91.6743
  8      0.0000     0.0000E+00    0.0000E+00    2.512000E+07  0.00010  4.103E-03    0   0.8174   age090_m22            0.0000     6.2668E+02    23.1024   4.0000    96.3281
  9      0.0000     0.0000E+00    0.0000E+00    4.000000E+07  0.00010  3.654E-03    0   0.7830   age104_m22            0.0000     5.1414E+02    16.7208   4.0000    98.4752
 10      0.0000     0.0000E+00    0.0000E+00    5.500000E+07  0.00010  3.093E-03    0   0.7597   age110_m22            0.0000     4.8523E+02    14.7239   4.0000    98.9917
 11      0.0000     0.0000E+00    0.0000E+00    1.015200E+08  0.00010  2.431E-03    0   0.7138   age116_m22            0.0000     4.6266E+02     8.7471   4.0000    98.3388
 12      0.0000     0.0000E+00    0.0000E+00    1.609000E+08  0.00010  1.319E-03    0   0.6775   age120_m22            0.0000     4.4190E+02     7.7421   3.6341    99.3182
 13      0.0000     0.0000E+00    0.0000E+00    2.861200E+08  0.00010  1.075E-03    0   0.6412   age125_m22            0.0000     6.8582E+02     9.2362   3.6795   101.4252
 14      0.0000     0.0000E+00    0.0000E+00    5.088000E+08  0.00010  7.183E-04    0   0.6083   age130_m22            0.0000     7.5980E+02    10.0769   3.4309   102.8416
 15      0.0000     0.0000E+00    0.0000E+00    9.047900E+08  0.00010  4.524E-04    0   0.5785   age135_m22            0.0000     7.5795E+02    10.2726   3.2260   103.9769
 16      0.0000     0.0000E+00    0.0000E+00    1.278050E+09  0.00010  3.018E-04    0   0.5588   age138_m22            0.0000     4.9773E+02     8.5642   2.6881   103.2178
 17      0.0000     0.0000E+00    0.0000E+00    1.434000E+09  0.00010  2.691E-04    0   0.5532   age139_m22            0.0000     4.4676E+02     8.2263   2.5314   102.8492
 18      0.0000     0.0000E+00    0.0000E+00    2.500000E+09  0.00010  1.582E-04    0   0.5296   age150_m22            0.0000     4.2122E+02     8.0142   2.4309   103.6427
 19      0.0000     0.0000E+00    0.0000E+00    4.250000E+09  0.00010  1.007E-04    0   0.5110   age158_m22            0.0000     3.1946E+02     7.1760   2.2824   102.6858
 20      0.0000     0.0000E+00    0.0000E+00    6.250000E+09  0.00010  6.869E-05    0   0.4985   age166_m22            0.0000     2.3786E+02     6.5114   2.2322   100.6174
 21      0.0000     0.0000E+00    0.0000E+00    7.500000E+09  0.00010  5.873E-05    0   0.4931   age171_m22            0.0000     2.3041E+02     6.5093   2.2254   100.1845
 22      0.0000     0.0000E+00    0.0000E+00    1.000000E+10  0.00010  4.481E-05    0   0.4854   age181_m22            0.0000     2.2526E+02     6.4416   2.1847    99.8996
 23      0.0000     0.0000E+00    0.0000E+00    1.300000E+10  0.00010  3.489E-05    0   0.4791   age193_m22            0.0000     2.1318E+02     6.2925   2.1235    99.5101
 24      0.0000     0.0000E+00    0.0000E+00    1.500000E+10  0.00010  3.035E-05    0   0.4766   age201_m22            0.0000     2.0568E+02     6.1966   2.0842    99.4043
 25      0.0000     0.0000E+00    0.0000E+00    1.800000E+10  0.00010  2.510E-05    0   0.4735   age213_m22            0.0000     1.8927E+02     6.0026   2.0148    98.9878
 26      0.0000     0.0000E+00    0.0000E+00    1.000000E+06  0.00040  8.458E-03    0   1.0000   age020_m32            0.0000     1.3265E+03    37.3927   4.0000    86.6603
 27      0.0000     0.0000E+00    0.0000E+00    3.160000E+06  0.00040  3.973E-02    0   1.0000   age045_m32            0.0000     5.7662E+02    20.7365   4.0000    96.0217
 28      0.0000     0.0000E+00    0.0000E+00    5.010000E+06  0.00040  1.935E-02    0   0.9532   age055_m32            0.0000     8.1347E+02    26.7374   4.0000    91.3471
 29      0.0000     0.0000E+00    0.0000E+00    6.610000E+06  0.00040  1.204E-02    0   0.9243   age061_m32            0.0000     1.0920E+03    33.6022   4.0000    90.1798
 30      0.0000     0.0000E+00    0.0000E+00    8.710000E+06  0.00040  9.433E-03    0   0.9001   age067_m32            0.0000     1.0406E+03    32.8462   4.0000    91.0224
 31      0.0000     0.0000E+00    0.0000E+00    1.000000E+07  0.00040  8.053E-03    0   0.8877   age070_m32            0.0000     9.9887E+02    32.0106   4.0000    91.4398
 32      0.0000     0.0000E+00    0.0000E+00    1.445000E+07  0.00040  7.027E-03    0   0.8578   age078_m32            0.0000     5.7540E+02    20.0496   4.0000    94.6359
 33      0.0000     0.0000E+00    0.0000E+00    2.512000E+07  0.00040  4.707E-03    0   0.8166   age090_m32            0.0000     4.1423E+02    13.1724   4.0000    96.2769
 34      0.0000     0.0000E+00    0.0000E+00    4.000000E+07  0.00040  3.714E-03    0   0.7827   age104_m32            0.0000     3.8852E+02     9.4641   4.0000    97.2221
 35      0.0000     0.0000E+00    0.0000E+00    5.500000E+07  0.00040  2.982E-03    0   0.7593   age110_m32            0.0000     4.0103E+02     8.8026   4.0000    97.4501
 36      0.0000     0.0000E+00    0.0000E+00    1.015200E+08  0.00040  2.188E-03    0   0.7143   age116_m32            0.0000     5.1848E+02     8.0847   3.9009    98.7197
 37      0.0000     0.0000E+00    0.0000E+00    1.609000E+08  0.00040  1.690E-03    0   0.6856   age120_m32            0.0000     6.1561E+02     8.5536   3.6825   100.7481
 38      0.0000     0.0000E+00    0.0000E+00    2.861200E+08  0.00040  1.152E-03    0   0.6509   age125_m32            0.0000     6.9895E+02     9.4676   3.4272   102.3737
 39      0.0000     0.0000E+00    0.0000E+00    5.088000E+08  0.00040  7.331E-04    0   0.6182   age130_m32            0.0000     7.2267E+02     9.8966   3.2491   103.1050
 40      0.0000     0.0000E+00    0.0000E+00    9.047900E+08  0.00040  3.960E-04    0   0.5890   age135_m32            0.0000     5.0363E+02     8.8141   2.7680   102.6369
 41      0.0000     0.0000E+00    0.0000E+00    1.278050E+09  0.00040  2.854E-04    0   0.5687   age138_m32            0.0000     4.4878E+02     8.1910   2.4922   104.5735
 42      0.0000     0.0000E+00    0.0000E+00    1.434000E+09  0.00040  2.531E-04    0   0.5632   age139_m32            0.0000     4.4039E+02     8.1417   2.4309   104.5432
 43      0.0000     0.0000E+00    0.0000E+00    2.500000E+09  0.00040  1.488E-04    0   0.5386   age150_m32            0.0000     3.5614E+02     7.4999   2.1715   103.1768
 44      0.0000     0.0000E+00    0.0000E+00    4.250000E+09  0.00040  9.082E-05    0   0.5199   age158_m32            0.0000     2.2164E+02     6.2135   2.0797   100.9537
 45      0.0000     0.0000E+00    0.0000E+00    6.250000E+09  0.00040  6.362E-05    0   0.5076   age166_m32            0.0000     1.5151E+02     5.5558   2.0504    98.5735
 46      0.0000     0.0000E+00    0.0000E+00    7.500000E+09  0.00040  5.289E-05    0   0.5027   age171_m32            0.0000     1.3690E+02     5.3816   2.0111    97.5611
 47      0.0000     0.0000E+00    0.0000E+00    1.000000E+10  0.00040  3.972E-05    0   0.4948   age181_m32            0.0000     1.2433E+02     5.2127   1.9431    96.3654
 48      0.0000     0.0000E+00    0.0000E+00    1.300000E+10  0.00040  3.283E-05    0   0.4870   age193_m32            0.0000     1.5115E+02     5.3714   1.8914    98.6543
 49      0.0000     0.0000E+00    0.0000E+00    1.500000E+10  0.00040  2.925E-05    0   0.4854   age201_m32            0.0000     1.7271E+02     5.5597   1.8700    99.9640
 50      0.0000     0.0000E+00    0.0000E+00    1.800000E+10  0.00040  2.469E-05    0   0.4819   age213_m32            0.0000     1.7965E+02     5.5842   1.8262   100.4128
 51      0.0000     0.0000E+00    0.0000E+00    1.000000E+06  0.00400  1.114E-02    0   1.0000   age020_m42            0.0000     1.2408E+03    35.7477   4.0000    87.2042
 52      0.0000     0.0000E+00    0.0000E+00    3.160000E+06  0.00400  4.073E-02    0   0.9999   age045_m42            0.0000     3.7251E+02    13.3201   4.0000    96.8111
 53      0.0000     0.0000E+00    0.0000E+00    5.010000E+06  0.00400  2.534E-02    0   0.9488   age055_m42            0.0000     6.5496E+02    23.0777   4.0000    93.3512
 54      0.0009     5.1493E-07    9.4795E-07    6.610000E+06  0.00400  2.583E-02    0   0.9220   age061_m42            0.0000     3.4945E+02     9.6888   4.0000    95.9070
 55      0.0000     0.0000E+00    0.0000E+00    8.710000E+06  0.00400  1.706E-02    0   0.8983   age067_m42            0.0000     3.0667E+02     8.1838   4.0000    93.2712
 56      0.0000     0.0000E+00    0.0000E+00    1.000000E+07  0.00400  1.271E-02    0   0.8862   age070_m42            0.0000     3.2058E+02     9.0091   4.0000    92.0627
 57      0.0000     0.0000E+00    0.0000E+00    1.445000E+07  0.00400  7.666E-03    0   0.8571   age078_m42            0.0000     4.5120E+02    14.2538   4.0000    92.3903
 58      0.0000     0.0000E+00    0.0000E+00    2.512000E+07  0.00400  5.070E-03    0   0.8174   age090_m42            0.0000     2.8741E+02     9.5145   3.9923    92.5209
 59      0.0000     0.0000E+00    0.0000E+00    4.000000E+07  0.00400  3.505E-03    0   0.7851   age104_m42            0.0000     2.5403E+02     7.8036   3.6536    95.1880
 60      0.0000     0.0000E+00    0.0000E+00    5.500000E+07  0.00400  3.059E-03    0   0.7629   age110_m42            0.0000     3.3480E+02     6.6744   3.6890    98.3274
 61      0.0000     0.0000E+00    0.0000E+00    1.015200E+08  0.00400  2.268E-03    0   0.7207   age116_m42            0.0000     5.4449E+02     7.8316   3.5779   102.0454
 62      0.0000     0.0000E+00    0.0000E+00    1.609000E+08  0.00400  1.720E-03    0   0.6930   age120_m42            0.0000     5.6138E+02     8.0898   3.4249   103.6357
 63      0.0000     0.0000E+00    0.0000E+00    2.861200E+08  0.00400  1.079E-03    0   0.6613   age125_m42            0.0000     5.4957E+02     8.4051   3.0458   104.1848
 64      0.0000     0.0000E+00    0.0000E+00    5.088000E+08  0.00400  6.261E-04    0   0.6313   age130_m42            0.0000     5.8816E+02     8.9380   2.8485   106.8559
 65      0.0000     0.0000E+00    0.0000E+00    9.047900E+08  0.00400  3.535E-04    0   0.6024   age135_m42            0.0000     4.0671E+02     7.7400   2.4383   107.8635
 66      0.0000     0.0000E+00    0.0000E+00    1.278050E+09  0.00400  2.677E-04    0   0.5837   age138_m42            0.0000     1.6478E+02     5.7901   1.7147   106.7261
 67      0.0000     0.0000E+00    0.0000E+00    1.434000E+09  0.00400  1.910E-04    0   0.5716   age139_m42            0.0000     2.2435E+02     6.2408   1.8906   107.2581
 68      0.0000     0.0000E+00    0.0000E+00    2.500000E+09  0.00400  9.818E-05    0   0.5463   age150_m42            0.0000     8.4926E+01     4.2726   1.6215   103.4859
 69      0.0000     0.0000E+00    0.0000E+00    4.250000E+09  0.00400  5.491E-05    0   0.5269   age158_m42            0.0000     4.2056E+01     3.2815   1.5027   101.1946
 70      0.0000     0.0000E+00    0.0000E+00    6.250000E+09  0.00400  3.857E-05    0   0.5151   age166_m42            0.0000     2.7466E+01     3.1446   1.3711   100.1261
 71      0.0005     2.4495E-04    2.4993E-04    7.500000E+09  0.00400  3.243E-05    0   0.5110   age171_m42            0.0000     2.3226E+01     3.2420   1.2876    99.6719
 72      0.0000     0.0000E+00    0.0000E+00    1.000000E+10  0.00400  2.424E-05    0   0.5028   age181_m42            0.0000     2.0240E+01     3.4284   1.2017    99.1572
 73      0.0000     0.0000E+00    0.0000E+00    1.300000E+10  0.00400  1.883E-05    0   0.4927   age193_m42            0.0000     1.9459E+01     3.5356   1.1588    98.9366
 74      3.5099     3.2292E+00    3.1715E+00    1.500000E+10  0.00400  1.685E-05    0   0.4919   age201_m42            0.0000     1.8685E+01     3.4305   1.1647    98.9441
 75      0.0000     0.0000E+00    0.0000E+00    1.800000E+10  0.00400  1.452E-05    0   0.4874   age213_m42            0.0000     1.7717E+01     3.2678   1.1817    99.2014
 76      0.0000     0.0000E+00    0.0000E+00    1.000000E+06  0.00800  1.286E-02    0   1.0000   age020_m52            0.0000     1.1657E+03    35.2201   4.0000    88.7067
 77      0.0000     0.0000E+00    0.0000E+00    3.160000E+06  0.00800  3.147E-02    0   0.9966   age045_m52            0.0000     1.0891E+03    33.5622   4.0000    89.9939
 78      0.0000     0.0000E+00    0.0000E+00    5.010000E+06  0.00800  2.664E-02    0   0.9443   age055_m52            0.0000     7.6583E+02    25.8791   4.0000    92.9271
 79      0.0000     0.0000E+00    0.0000E+00    6.610000E+06  0.00800  2.151E-02    0   0.9177   age061_m52            0.0000     2.2575E+02     8.9787   3.7109    92.8849
 80      0.0000     0.0000E+00    0.0000E+00    8.710000E+06  0.00800  1.628E-02    0   0.8948   age067_m52            0.0000     2.9534E+02     8.4077   4.0000    93.4336
 81      0.0000     0.0000E+00    0.0000E+00    1.000000E+07  0.00800  1.215E-02    0   0.8827   age070_m52            0.0000     4.0735E+02    12.4016   4.0000    94.3782
 82      0.0000     0.0000E+00    0.0000E+00    1.445000E+07  0.00800  8.739E-03    0   0.8552   age078_m52            0.0000     4.3455E+02    13.4861   4.0000    95.5843
 83      0.0000     0.0000E+00    0.0000E+00    2.512000E+07  0.00800  5.676E-03    0   0.8162   age090_m52            0.0000     3.6487E+02     8.0183   4.0000    95.9494
 84      0.0000     0.0000E+00    0.0000E+00    4.000000E+07  0.00800  3.939E-03    0   0.7841   age104_m52            0.0000     3.7601E+02     7.5396   3.9032    97.0654
 85      0.0000     0.0000E+00    0.0000E+00    5.500000E+07  0.00800  3.155E-03    0   0.7627   age110_m52            0.0000     4.1039E+02     7.3387   3.8566    98.5562
 86      0.0000     0.0000E+00    0.0000E+00    1.015200E+08  0.00800  2.206E-03    0   0.7226   age116_m52            0.0000     4.8405E+02     7.5051   3.6437   102.1858
 87      0.0000     0.0000E+00    0.0000E+00    1.609000E+08  0.00800  1.596E-03    0   0.6963   age120_m52            0.0000     5.1600E+02     7.7436   3.4103   103.8633
 88      0.0000     0.0000E+00    0.0000E+00    2.861200E+08  0.00800  1.002E-03    0   0.6665   age125_m52            0.0000     6.1431E+02     9.0235   3.0814   106.2270
 89      0.0000     0.0000E+00    0.0000E+00    5.088000E+08  0.00800  5.759E-04    0   0.6377   age130_m52            0.0000     6.1242E+02     9.5440   2.7110   110.1653
 90      0.0000     0.0000E+00    0.0000E+00    9.047900E+08  0.00800  2.972E-04    0   0.6086   age135_m52            0.0000     3.7416E+02     8.8143   2.1345   109.6985
 91      0.0000     0.0000E+00    0.0000E+00    1.278050E+09  0.00800  2.242E-04    0   0.5907   age138_m52            0.0000     1.4511E+02     6.3671   1.5219   109.3809
 92      0.0000     0.0000E+00    0.0000E+00    1.434000E+09  0.00800  1.645E-04    0   0.5787   age139_m52            0.0000     1.4129E+02     5.8664   1.6814   108.8871
 93      0.0000     0.0000E+00    0.0000E+00    2.500000E+09  0.00800  7.723E-05    0   0.5519   age150_m52            0.0000     5.3187E+01     4.4852   1.3497   105.9152
 94      0.0000     0.0000E+00    0.0000E+00    4.250000E+09  0.00800  4.151E-05    0   0.5320   age158_m52            0.0000     3.3846E+01     4.0286   1.2839   103.5980
 95      0.0000     0.0000E+00    0.0000E+00    6.250000E+09  0.00800  3.010E-05    0   0.5197   age166_m52            0.0000     2.4540E+01     4.2456   1.0806   102.4573
 96      0.0000     0.0000E+00    0.0000E+00    7.500000E+09  0.00800  2.467E-05    0   0.5139   age171_m52            0.0000     2.5001E+01     4.4227   1.0349   102.1194
 97      1.2370     1.0298E+00    1.0392E+00    1.000000E+10  0.00800  1.862E-05    0   0.5054   age181_m52            0.0000     3.1318E+01     5.1027   0.8920   101.8636
