###################################################################
## OUTPUT of StarlightChains_v04.for    [Cid@UFSC - 01/Apr/2007] ##
###################################################################

## Some input info
NGC5286_a_1.cxt                          [arq_obs]
Base.BC03.S                              [arq_base]
NGC5286_a_1.msk                          [arq_masks]
StCv04.C99.config                        [arq_config]
  150                                    [N_base]
    0                                    [N_YAV_components = # of components with extra extinction!]
    0                                    [i_FitPowerLaw (1/0 = Yes/No)]
-9.99                                    [alpha_PowerLaw]
CCM                                      [red_law_option]
 1.458241                                [q_norm = A(l_norm)/A(V)]

## (Re)Sampling Parameters
 3359.00                                 [l_ini (A)]
 6428.00                                 [l_fin (A)]
    1.00                                 [dl    (A)]     (OBS: dl_cushion =    50.00 A)

## Normalization info
 4020.00                                 [l_norm (A) - for base]
 4010.00                                 [llow_norm (A) - window for f_obs]
 4060.00                                 [lupp_norm (A) - window for f_obs]
3.810619E-14                             [fobs_norm (in input units)]

## S/N
 4730.00                                 [llow_SN (A) - window for S/N]
 4780.00                                 [lupp_SN (A) - window for S/N]
 122.361                                 [S/N in S/N window]
 104.972                                 [S/N in norm. window]
 167.801                                 [S/N_err in S/N window]
 143.955                                 [S/N_err in norm. window]
  1.0000                                 [fscale_chi2]

## etc...
  2147483638                             [idum_orig]
  3066                                   [NOl_eff]
  1534                                   [Nl_eff]
  1532    NSIGMA                         [Ntot_cliped & clip_method]
  2992500                                [Nglobal_steps]
   7                                     [N_chains]
  15                                     [NEX0s_base = N_base in EX0s-fits]
 0   0   1      194   2.0   3.183E+02    [Clip-Bug, RC-Crash & Burn-In warning-flags, n_censored_weights, wei_nsig_threshold & wei_limit]
   153    152.276    152.264      0.012  [idt_all, wdt_TotTime, wdt_UsrTime & wdt_SysTime (sec)]

## Synthesis Results - Best model ##

 2.55198E+00                             [chi2/Nl_eff]
     1.09315                             [adev (%)]

    99.87675                             [sum-of-x (%)]
 1.24062E-13                             [Flux_tot (units of input spectrum!)]
 1.43464E-09                             [Mini_tot (???)]
 7.37399E-10                             [Mcor_tot (???)]

 -24.65                                  [v0_min  (km/s)]
  51.53                                  [vd_min  (km/s)]
 0.8798                                  [AV_min  (mag)]
 0.0000                                  [YAV_min (mag)]

# j     x_j(%)      Mini_j(%)     Mcor_j(%)     age_j(yr)     Z_j      (L/M)_j    YAV?  Mstars   component_j        a/Fe...       SSP_chi2r SSP_adev(%)   SSP_AV   SSP_x(%)
  1      0.0000     0.0000E+00    0.0000E+00    1.000000E+06  0.00010  8.160E-03    0   1.0000   age020_m22            0.0000     4.5227E+02    11.7780   4.0000    77.3896
  2     15.9458     2.9011E-02    5.6442E-02    3.160000E+06  0.00010  4.759E-02    0   1.0000   age045_m22            0.0000     4.5191E+01     3.9898   2.0879    95.5063
  3      0.0874     3.9167E-04    7.3016E-04    5.010000E+06  0.00010  1.932E-02    0   0.9582   age055_m22            0.0000     4.1072E+02    11.7944   2.4035    81.8993
  4      0.0000     0.0000E+00    0.0000E+00    6.610000E+06  0.00010  9.973E-03    0   0.9297   age061_m22            0.0000     4.4930E+02    12.1394   4.0000    79.5487
  5      0.0000     0.0000E+00    0.0000E+00    8.710000E+06  0.00010  7.690E-03    0   0.9030   age067_m22            0.0000     4.2223E+02    11.7951   4.0000    79.8223
  6      0.0000     0.0000E+00    0.0000E+00    1.000000E+07  0.00010  6.375E-03    0   0.8902   age070_m22            0.0000     4.0356E+02    11.4754   4.0000    80.2919
  7      0.0000     0.0000E+00    0.0000E+00    1.445000E+07  0.00010  4.874E-03    0   0.8589   age078_m22            0.0000     2.8734E+02     9.9173   3.8794    81.8817
  8      0.0000     0.0000E+00    0.0000E+00    2.512000E+07  0.00010  4.103E-03    0   0.8174   age090_m22            0.0000     1.1166E+02     6.5492   3.4596    88.7619
  9      0.0000     0.0000E+00    0.0000E+00    4.000000E+07  0.00010  3.654E-03    0   0.7830   age104_m22            0.0000     4.8250E+01     4.1282   3.1486    94.1478
 10      0.0000     0.0000E+00    0.0000E+00    5.500000E+07  0.00010  3.093E-03    0   0.7597   age110_m22            0.0000     4.2188E+01     3.5632   3.0422    95.9283
 11      1.3793     4.9127E-02    6.8224E-02    1.015200E+08  0.00010  2.431E-03    0   0.7138   age116_m22            0.0000     5.6657E+01     3.5242   2.6844    99.3573
 12      0.0000     0.0000E+00    0.0000E+00    1.609000E+08  0.00010  1.319E-03    0   0.6775   age120_m22            0.0000     5.6703E+01     3.3681   2.2048   101.7227
 13      0.0000     0.0000E+00    0.0000E+00    2.861200E+08  0.00010  1.075E-03    0   0.6412   age125_m22            0.0000     2.3900E+02     7.2188   2.2578   106.0201
 14      0.0000     0.0000E+00    0.0000E+00    5.088000E+08  0.00010  7.183E-04    0   0.6083   age130_m22            0.0000     3.2185E+02     8.5834   2.0281   107.7852
 15      0.0197     3.7644E-03    4.2368E-03    9.047900E+08  0.00010  4.524E-04    0   0.5785   age135_m22            0.0000     3.3088E+02     8.7746   1.8271   108.9934
 16      0.0000     0.0000E+00    0.0000E+00    1.278050E+09  0.00010  3.018E-04    0   0.5588   age138_m22            0.0000     1.3259E+02     5.5400   1.3068   106.5479
 17      0.0000     0.0000E+00    0.0000E+00    1.434000E+09  0.00010  2.691E-04    0   0.5532   age139_m22            0.0000     1.0299E+02     4.8998   1.1546   105.7688
 18      0.0000     0.0000E+00    0.0000E+00    2.500000E+09  0.00010  1.582E-04    0   0.5296   age150_m22            0.0000     7.7040E+01     4.0996   1.0397   106.5201
 19      0.0000     0.0000E+00    0.0000E+00    4.250000E+09  0.00010  1.007E-04    0   0.5110   age158_m22            0.0000     3.0067E+01     2.6856   0.8974   104.2911
 20      0.0000     0.0000E+00    0.0000E+00    6.250000E+09  0.00010  6.869E-05    0   0.4985   age166_m22            0.0000     6.8296E+00     1.4448   0.8486   101.0122
 21      0.0000     0.0000E+00    0.0000E+00    7.500000E+09  0.00010  5.873E-05    0   0.4931   age171_m22            0.0000     5.0444E+00     1.2769   0.8364   100.4627
 22      0.0107     2.0701E-02    1.9549E-02    1.000000E+10  0.00010  4.481E-05    0   0.4854   age181_m22            0.0000     4.7768E+00     1.2723   0.7992   100.0585
 23      0.0000     0.0000E+00    0.0000E+00    1.300000E+10  0.00010  3.489E-05    0   0.4791   age193_m22            0.0000     4.4051E+00     1.2620   0.7450    99.4005
 24      0.0221     6.3177E-02    5.8581E-02    1.500000E+10  0.00010  3.035E-05    0   0.4766   age201_m22            0.0000     4.2290E+00     1.2606   0.7069    99.1629
 25      0.0078     2.7015E-02    2.4887E-02    1.800000E+10  0.00010  2.510E-05    0   0.4735   age213_m22            0.0000     4.4700E+00     1.3108   0.6411    98.4308
 26      0.0000     0.0000E+00    0.0000E+00    1.000000E+06  0.00040  8.458E-03    0   1.0000   age020_m32            0.0000     4.5328E+02    11.7944   4.0000    78.3843
 27      0.0000     0.0000E+00    0.0000E+00    3.160000E+06  0.00040  3.973E-02    0   1.0000   age045_m32            0.0000     1.3039E+02     6.9911   3.3637    88.5754
 28      0.0000     0.0000E+00    0.0000E+00    5.010000E+06  0.00040  1.935E-02    0   0.9532   age055_m32            0.0000     3.3389E+02    10.8216   3.5980    82.4169
 29      0.0000     0.0000E+00    0.0000E+00    6.610000E+06  0.00040  1.204E-02    0   0.9243   age061_m32            0.0000     3.6667E+02    11.1598   3.9164    80.3310
 30      0.0000     0.0000E+00    0.0000E+00    8.710000E+06  0.00040  9.433E-03    0   0.9001   age067_m32            0.0000     3.2602E+02    10.5631   3.8871    81.2576
 31      0.0000     0.0000E+00    0.0000E+00    1.000000E+07  0.00040  8.053E-03    0   0.8877   age070_m32            0.0000     3.1032E+02    10.3236   3.8493    81.7606
 32      0.0000     0.0000E+00    0.0000E+00    1.445000E+07  0.00040  7.027E-03    0   0.8578   age078_m32            0.0000     1.7781E+02     8.1480   3.3134    87.3994
 33      0.0000     0.0000E+00    0.0000E+00    2.512000E+07  0.00040  4.707E-03    0   0.8166   age090_m32            0.0000     9.1294E+01     6.0826   3.0088    91.7045
 34      0.0000     0.0000E+00    0.0000E+00    4.000000E+07  0.00040  3.714E-03    0   0.7827   age104_m32            0.0000     4.4121E+01     4.0931   2.7968    95.5367
 35      0.0000     0.0000E+00    0.0000E+00    5.500000E+07  0.00040  2.982E-03    0   0.7593   age110_m32            0.0000     3.8340E+01     3.5412   2.7310    96.9276
 36      0.0000     0.0000E+00    0.0000E+00    1.015200E+08  0.00040  2.188E-03    0   0.7143   age116_m32            0.0000     9.4365E+01     4.3167   2.4538   101.9340
 37      0.0000     0.0000E+00    0.0000E+00    1.609000E+08  0.00040  1.690E-03    0   0.6856   age120_m32            0.0000     1.7116E+02     5.8027   2.2364   105.2022
 38      0.0000     0.0000E+00    0.0000E+00    2.861200E+08  0.00040  1.152E-03    0   0.6509   age125_m32            0.0000     2.6135E+02     7.6188   2.0139   107.1171
 39      0.0000     0.0000E+00    0.0000E+00    5.088000E+08  0.00040  7.331E-04    0   0.6182   age130_m32            0.0000     3.0059E+02     8.3426   1.8513   107.7914
 40      0.0000     0.0000E+00    0.0000E+00    9.047900E+08  0.00040  3.960E-04    0   0.5890   age135_m32            0.0000     1.4982E+02     6.1368   1.4036   105.5864
 41      0.0115     3.4812E-03    3.8516E-03    1.278050E+09  0.00040  2.854E-04    0   0.5687   age138_m32            0.0000     9.8950E+01     4.8058   1.1080   107.4585
 42      0.0000     0.0000E+00    0.0000E+00    1.434000E+09  0.00040  2.531E-04    0   0.5632   age139_m32            0.0000     9.4470E+01     4.6550   1.0465   107.4594
 43      4.7971     2.7913E+00    2.9249E+00    2.500000E+09  0.00040  1.488E-04    0   0.5386   age150_m32            0.0000     5.8667E+01     3.7426   0.7978   105.3307
 44     61.9764     5.9085E+01    5.9764E+01    4.250000E+09  0.00040  9.082E-05    0   0.5199   age158_m32            0.0000     9.0879E+00     1.7429   0.7144   101.1520
 45     14.6918     1.9995E+01    1.9746E+01    6.250000E+09  0.00040  6.362E-05    0   0.5076   age166_m32            0.0000     1.0471E+01     1.8173   0.6834    97.1624
 46      0.0000     0.0000E+00    0.0000E+00    7.500000E+09  0.00040  5.289E-05    0   0.5027   age171_m32            0.0000     1.5722E+01     2.0777   0.6504    95.7579
 47      0.0019     4.0793E-03    3.9270E-03    1.000000E+10  0.00040  3.972E-05    0   0.4948   age181_m32            0.0000     2.0723E+01     2.2741   0.5909    94.2960
 48      0.0000     0.0000E+00    0.0000E+00    1.300000E+10  0.00040  3.283E-05    0   0.4870   age193_m32            0.0000     9.2391E+00     1.7933   0.5422    97.2846
 49      0.0000     0.0000E+00    0.0000E+00    1.500000E+10  0.00040  2.925E-05    0   0.4854   age201_m32            0.0000     8.0260E+00     1.7492   0.5208    99.0520
 50      0.0014     4.8736E-03    4.5693E-03    1.800000E+10  0.00040  2.469E-05    0   0.4819   age213_m32            0.0000     9.5019E+00     1.8760   0.4801    99.6217
 51      0.0000     0.0000E+00    0.0000E+00    1.000000E+06  0.00400  1.114E-02    0   1.0000   age020_m42            0.0000     4.1758E+02    11.4985   4.0000    77.3905
 52      0.0000     0.0000E+00    0.0000E+00    3.160000E+06  0.00400  4.073E-02    0   0.9999   age045_m42            0.0000     7.6732E+01     5.4018   3.0682    91.2913
 53      0.0000     0.0000E+00    0.0000E+00    5.010000E+06  0.00400  2.534E-02    0   0.9488   age055_m42            0.0000     2.0889E+02     8.5308   3.4774    84.6265
 54      0.0000     0.0000E+00    0.0000E+00    6.610000E+06  0.00400  2.583E-02    0   0.9220   age061_m42            0.0000     5.4601E+01     4.5893   2.8736    92.4866
 55      0.0000     0.0000E+00    0.0000E+00    8.710000E+06  0.00400  1.706E-02    0   0.8983   age067_m42            0.0000     1.1571E+02     6.7038   2.6986    90.4856
 56      0.0000     0.0000E+00    0.0000E+00    1.000000E+07  0.00400  1.271E-02    0   0.8862   age070_m42            0.0000     1.8824E+02     8.5878   2.6858    88.9341
 57      0.0000     0.0000E+00    0.0000E+00    1.445000E+07  0.00400  7.666E-03    0   0.8571   age078_m42            0.0000     2.5050E+02     9.4596   3.0930    85.3674
 58      0.0000     0.0000E+00    0.0000E+00    2.512000E+07  0.00400  5.070E-03    0   0.8174   age090_m42            0.0000     1.5820E+02     7.9070   2.5529    90.6171
 59      0.0000     0.0000E+00    0.0000E+00    4.000000E+07  0.00400  3.505E-03    0   0.7851   age104_m42            0.0000     8.8971E+01     5.9303   2.2373    93.5780
 60      0.0000     0.0000E+00    0.0000E+00    5.500000E+07  0.00400  3.059E-03    0   0.7629   age110_m42            0.0000     2.6314E+01     2.8460   2.2765    99.0446
 61      0.0000     0.0000E+00    0.0000E+00    1.015200E+08  0.00400  2.268E-03    0   0.7207   age116_m42            0.0000     1.4672E+02     5.6101   2.1633   105.4260
 62      0.0000     0.0000E+00    0.0000E+00    1.609000E+08  0.00400  1.720E-03    0   0.6930   age120_m42            0.0000     1.7962E+02     6.3943   2.0244   106.9969
 63      0.0000     0.0000E+00    0.0000E+00    2.861200E+08  0.00400  1.079E-03    0   0.6613   age125_m42            0.0000     1.8601E+02     6.5310   1.6709   107.4336
 64      0.0000     0.0000E+00    0.0000E+00    5.088000E+08  0.00400  6.261E-04    0   0.6313   age130_m42            0.0000     2.2470E+02     7.1643   1.4694   110.6379
 65      0.0000     0.0000E+00    0.0000E+00    9.047900E+08  0.00400  3.535E-04    0   0.6024   age135_m42            0.0000     1.2462E+02     5.5805   1.0848   110.0086
 66      0.0000     0.0000E+00    0.0000E+00    1.278050E+09  0.00400  2.677E-04    0   0.5837   age138_m42            0.0000     1.0089E+02     5.6122   0.4417   105.4070
 67      0.0000     0.0000E+00    0.0000E+00    1.434000E+09  0.00400  1.910E-04    0   0.5716   age139_m42            0.0000     9.4521E+01     5.3973   0.6005   106.7704
 68      0.0000     0.0000E+00    0.0000E+00    2.500000E+09  0.00400  9.818E-05    0   0.5463   age150_m42            0.0000     8.7816E+01     5.1671   0.3624   100.4887
 69      0.0000     0.0000E+00    0.0000E+00    4.250000E+09  0.00400  5.491E-05    0   0.5269   age158_m42            0.0000     1.0504E+02     5.3646   0.2497    97.2396
 70      0.0000     0.0000E+00    0.0000E+00    6.250000E+09  0.00400  3.857E-05    0   0.5151   age166_m42            0.0000     1.3971E+02     6.0420   0.1356    95.4492
 71      0.0000     0.0000E+00    0.0000E+00    7.500000E+09  0.00400  3.243E-05    0   0.5110   age171_m42            0.0000     1.6412E+02     6.4737   0.0649    94.6435
 72      0.0000     0.0000E+00    0.0000E+00    1.000000E+10  0.00400  2.424E-05    0   0.5028   age181_m42            0.0000     1.9790E+02     7.0234  -0.0060    93.7312
 73      0.0000     0.0000E+00    0.0000E+00    1.300000E+10  0.00400  1.883E-05    0   0.4927   age193_m42            0.0000     2.2457E+02     7.4240  -0.0395    93.2212
 74      0.0000     0.0000E+00    0.0000E+00    1.500000E+10  0.00400  1.685E-05    0   0.4919   age201_m42            0.0000     2.1743E+02     7.3189  -0.0360    93.2971
 75      0.0000     0.0000E+00    0.0000E+00    1.800000E+10  0.00400  1.452E-05    0   0.4874   age213_m42            0.0000     2.0470E+02     7.1340  -0.0239    93.6815
 76      0.0000     0.0000E+00    0.0000E+00    1.000000E+06  0.00800  1.286E-02    0   1.0000   age020_m52            0.0000     3.6747E+02    10.8963   4.0000    78.7188
 77      0.0000     0.0000E+00    0.0000E+00    3.160000E+06  0.00800  3.147E-02    0   0.9966   age045_m52            0.0000     3.5307E+02    10.8255   3.9342    79.7888
 78      0.0000     0.0000E+00    0.0000E+00    5.010000E+06  0.00800  2.664E-02    0   0.9443   age055_m52            0.0000     2.5005E+02     9.1743   3.5994    83.4082
 79      0.0000     0.0000E+00    0.0000E+00    6.610000E+06  0.00800  2.151E-02    0   0.9177   age061_m52            0.0000     1.6026E+02     7.3983   2.2920    90.0774
 80      0.0000     0.0000E+00    0.0000E+00    8.710000E+06  0.00800  1.628E-02    0   0.8948   age067_m52            0.0000     1.4175E+02     7.3891   2.6570    90.7982
 81      0.0000     0.0000E+00    0.0000E+00    1.000000E+07  0.00800  1.215E-02    0   0.8827   age070_m52            0.0000     1.7788E+02     8.2102   3.0001    88.8236
 82      0.0000     0.0000E+00    0.0000E+00    1.445000E+07  0.00800  8.739E-03    0   0.8552   age078_m52            0.0000     1.3269E+02     7.1583   3.0356    90.3061
 83      0.0000     0.0000E+00    0.0000E+00    2.512000E+07  0.00800  5.676E-03    0   0.8162   age090_m52            0.0000     6.8473E+01     5.2949   2.6223    95.8360
 84      0.0000     0.0000E+00    0.0000E+00    4.000000E+07  0.00800  3.939E-03    0   0.7841   age104_m52            0.0000     4.1029E+01     3.7357   2.4552    98.6852
 85      0.0000     0.0000E+00    0.0000E+00    5.500000E+07  0.00800  3.155E-03    0   0.7627   age110_m52            0.0000     4.2499E+01     3.1336   2.4177   100.6921
 86      0.0000     0.0000E+00    0.0000E+00    1.015200E+08  0.00800  2.206E-03    0   0.7226   age116_m52            0.0000     9.7248E+01     4.5563   2.2240   104.9624
 87      0.0000     0.0000E+00    0.0000E+00    1.609000E+08  0.00800  1.596E-03    0   0.6963   age120_m52            0.0000     1.3518E+02     5.5383   2.0066   106.8085
 88      0.0000     0.0000E+00    0.0000E+00    2.861200E+08  0.00800  1.002E-03    0   0.6665   age125_m52            0.0000     2.6041E+02     8.0395   1.7147   109.7181
 89      0.0000     0.0000E+00    0.0000E+00    5.088000E+08  0.00800  5.759E-04    0   0.6377   age130_m52            0.0000     3.1318E+02     9.0612   1.3785   113.2370
 90      0.0000     0.0000E+00    0.0000E+00    9.047900E+08  0.00800  2.972E-04    0   0.6086   age135_m52            0.0000     2.0886E+02     7.6714   0.8728   110.4478
 91      0.0000     0.0000E+00    0.0000E+00    1.278050E+09  0.00800  2.242E-04    0   0.5907   age138_m52            0.0000     1.5988E+02     6.8855   0.2819   107.8023
 92      0.0000     0.0000E+00    0.0000E+00    1.434000E+09  0.00800  1.645E-04    0   0.5787   age139_m52            0.0000     1.3167E+02     6.3104   0.4295   107.2426
 93      0.0000     0.0000E+00    0.0000E+00    2.500000E+09  0.00800  7.723E-05    0   0.5519   age150_m52            0.0000     1.6445E+02     6.7667   0.1149   102.3861
 94      0.0000     0.0000E+00    0.0000E+00    4.250000E+09  0.00800  4.151E-05    0   0.5320   age158_m52            0.0000     1.7144E+02     6.7999   0.0560    99.4237
 95      0.0000     0.0000E+00    0.0000E+00    6.250000E+09  0.00800  3.010E-05    0   0.5197   age166_m52            0.0000     2.3367E+02     7.7257  -0.1231    97.5132
 96      0.0000     0.0000E+00    0.0000E+00    7.500000E+09  0.00800  2.467E-05    0   0.5139   age171_m52            0.0000     2.5123E+02     7.9708  -0.1614    97.0017
 97      0.0000     0.0000E+00    0.0000E+00    1.000000E+10  0.00800  1.862E-05    0   0.5054   age181_m52            0.0000     3.0938E+02     8.7647  -0.2824    96.3122
