###################################################################
## OUTPUT of StarlightChains_v04.for    [Cid@UFSC - 01/Apr/2007] ##
###################################################################

## Some input info
NGC5904_b_1.cxt                          [arq_obs]
Base.BC03.S                              [arq_base]
NGC5904_b_1.msk                          [arq_masks]
StCv04.C99.config                        [arq_config]
  150                                    [N_base]
    0                                    [N_YAV_components = # of components with extra extinction!]
    0                                    [i_FitPowerLaw (1/0 = Yes/No)]
-9.99                                    [alpha_PowerLaw]
CCM                                      [red_law_option]
 1.458241                                [q_norm = A(l_norm)/A(V)]

## (Re)Sampling Parameters
 3359.00                                 [l_ini (A)]
 6428.00                                 [l_fin (A)]
    1.00                                 [dl    (A)]     (OBS: dl_cushion =    50.00 A)

## Normalization info
 4020.00                                 [l_norm (A) - for base]
 4010.00                                 [llow_norm (A) - window for f_obs]
 4060.00                                 [lupp_norm (A) - window for f_obs]
8.938202E-14                             [fobs_norm (in input units)]

## S/N
 4730.00                                 [llow_SN (A) - window for S/N]
 4780.00                                 [lupp_SN (A) - window for S/N]
  94.706                                 [S/N in S/N window]
  90.136                                 [S/N in norm. window]
 354.791                                 [S/N_err in S/N window]
 337.672                                 [S/N_err in norm. window]
  1.0000                                 [fscale_chi2]

## etc...
  2147483634                             [idum_orig]
  3067                                   [NOl_eff]
   967                                   [Nl_eff]
  2100    NSIGMA                         [Ntot_cliped & clip_method]
  3540180                                [Nglobal_steps]
   7                                     [N_chains]
  21                                     [NEX0s_base = N_base in EX0s-fits]
 0   0   1      257   2.0   7.096E+02    [Clip-Bug, RC-Crash & Burn-In warning-flags, n_censored_weights, wei_nsig_threshold & wei_limit]
   161    160.855    160.847      0.008  [idt_all, wdt_TotTime, wdt_UsrTime & wdt_SysTime (sec)]

## Synthesis Results - Best model ##

 2.68836E+00                             [chi2/Nl_eff]
     0.52902                             [adev (%)]

   101.05859                             [sum-of-x (%)]
 1.12942E-13                             [Flux_tot (units of input spectrum!)]
 1.45540E-09                             [Mini_tot (???)]
 7.53229E-10                             [Mcor_tot (???)]

 -16.16                                  [v0_min  (km/s)]
  65.21                                  [vd_min  (km/s)]
 0.1664                                  [AV_min  (mag)]
 0.0000                                  [YAV_min (mag)]

# j     x_j(%)      Mini_j(%)     Mcor_j(%)     age_j(yr)     Z_j      (L/M)_j    YAV?  Mstars   component_j        a/Fe...       SSP_chi2r SSP_adev(%)   SSP_AV   SSP_x(%)
  1      0.0000     0.0000E+00    0.0000E+00    1.000000E+06  0.00010  8.160E-03    0   1.0000   age020_m22            0.0000     1.8772E+03    11.4171   3.5875    74.0255
  2     19.1162     3.0845E-02    5.9599E-02    3.160000E+06  0.00010  4.759E-02    0   1.0000   age045_m22            0.0000     2.5793E+02     4.5498   1.5320    95.3646
  3      0.0000     0.0000E+00    0.0000E+00    5.010000E+06  0.00010  1.932E-02    0   0.9582   age055_m22            0.0000     1.8156E+03    11.4470   1.8677    80.6630
  4      0.0000     0.0000E+00    0.0000E+00    6.610000E+06  0.00010  9.973E-03    0   0.9297   age061_m22            0.0000     1.9422E+03    11.7595   3.5359    77.0708
  5      0.0000     0.0000E+00    0.0000E+00    8.710000E+06  0.00010  7.690E-03    0   0.9030   age067_m22            0.0000     1.8381E+03    11.4776   3.5277    77.5270
  6      0.0000     0.0000E+00    0.0000E+00    1.000000E+07  0.00010  6.375E-03    0   0.8902   age070_m22            0.0000     1.7584E+03    11.2546   3.5410    77.7229
  7      0.0000     0.0000E+00    0.0000E+00    1.445000E+07  0.00010  4.874E-03    0   0.8589   age078_m22            0.0000     1.2821E+03     9.7665   3.3541    80.8135
  8      0.0000     0.0000E+00    0.0000E+00    2.512000E+07  0.00010  4.103E-03    0   0.8174   age090_m22            0.0000     5.3816E+02     6.7392   2.9275    88.1151
  9      0.0000     0.0000E+00    0.0000E+00    4.000000E+07  0.00010  3.654E-03    0   0.7830   age104_m22            0.0000     2.7272E+02     4.6776   2.6068    93.9868
 10      0.0000     0.0000E+00    0.0000E+00    5.500000E+07  0.00010  3.093E-03    0   0.7597   age110_m22            0.0000     2.4087E+02     4.0353   2.4981    95.9544
 11      0.0000     0.0000E+00    0.0000E+00    1.015200E+08  0.00010  2.431E-03    0   0.7138   age116_m22            0.0000     3.1181E+02     3.7264   2.1390    99.5971
 12      0.0000     0.0000E+00    0.0000E+00    1.609000E+08  0.00010  1.319E-03    0   0.6775   age120_m22            0.0000     3.0296E+02     3.3157   1.6639   101.9166
 13      0.0000     0.0000E+00    0.0000E+00    2.861200E+08  0.00010  1.075E-03    0   0.6412   age125_m22            0.0000     1.0055E+03     5.9426   1.7088   106.9262
 14      0.0000     0.0000E+00    0.0000E+00    5.088000E+08  0.00010  7.183E-04    0   0.6083   age130_m22            0.0000     1.3005E+03     7.0091   1.4744   109.0553
 15      0.0000     0.0000E+00    0.0000E+00    9.047900E+08  0.00010  4.524E-04    0   0.5785   age135_m22            0.0000     1.3319E+03     7.2076   1.2743   110.3905
 16      0.0000     0.0000E+00    0.0000E+00    1.278050E+09  0.00010  3.018E-04    0   0.5588   age138_m22            0.0000     5.2762E+02     4.4209   0.7551   107.6009
 17      0.0000     0.0000E+00    0.0000E+00    1.434000E+09  0.00010  2.691E-04    0   0.5532   age139_m22            0.0000     4.0169E+02     3.8672   0.6021   106.7968
 18      0.0000     0.0000E+00    0.0000E+00    2.500000E+09  0.00010  1.582E-04    0   0.5296   age150_m22            0.0000     3.2089E+02     3.3234   0.4900   107.3590
 19      0.0000     0.0000E+00    0.0000E+00    4.250000E+09  0.00010  1.007E-04    0   0.5110   age158_m22            0.0000     1.3403E+02     2.2694   0.3486   104.9228
 20      0.0000     0.0000E+00    0.0000E+00    6.250000E+09  0.00010  6.869E-05    0   0.4985   age166_m22            0.0000     4.3913E+01     1.6378   0.3012   101.4008
 21      0.0000     0.0000E+00    0.0000E+00    7.500000E+09  0.00010  5.873E-05    0   0.4931   age171_m22            0.0000     4.6400E+01     1.7605   0.2910   100.7305
 22      0.0000     0.0000E+00    0.0000E+00    1.000000E+10  0.00010  4.481E-05    0   0.4854   age181_m22            0.0000     4.2599E+01     1.7031   0.2539   100.3321
 23      0.0000     0.0000E+00    0.0000E+00    1.300000E+10  0.00010  3.489E-05    0   0.4791   age193_m22            0.0000     3.5499E+01     1.5834   0.1995    99.6774
 24      0.0535     1.3544E-01    1.2473E-01    1.500000E+10  0.00010  3.035E-05    0   0.4766   age201_m22            0.0000     3.3040E+01     1.5333   0.1613    99.4240
 25      0.0000     0.0000E+00    0.0000E+00    1.800000E+10  0.00010  2.510E-05    0   0.4735   age213_m22            0.0000     3.0901E+01     1.4909   0.0949    98.6650
 26      0.0000     0.0000E+00    0.0000E+00    1.000000E+06  0.00040  8.458E-03    0   1.0000   age020_m32            0.0000     1.8773E+03    11.4660   3.5994    74.7398
 27      0.0000     0.0000E+00    0.0000E+00    3.160000E+06  0.00040  3.973E-02    0   1.0000   age045_m32            0.0000     6.1147E+02     7.0699   2.8242    87.9988
 28      0.0000     0.0000E+00    0.0000E+00    5.010000E+06  0.00040  1.935E-02    0   0.9532   age055_m32            0.0000     1.4755E+03    10.5213   3.0700    81.3135
 29      0.0000     0.0000E+00    0.0000E+00    6.610000E+06  0.00040  1.204E-02    0   0.9243   age061_m32            0.0000     1.6039E+03    10.8011   3.3902    79.2255
 30      0.0000     0.0000E+00    0.0000E+00    8.710000E+06  0.00040  9.433E-03    0   0.9001   age067_m32            0.0000     1.4286E+03    10.2711   3.3614    80.1837
 31      0.0000     0.0000E+00    0.0000E+00    1.000000E+07  0.00040  8.053E-03    0   0.8877   age070_m32            0.0000     1.3609E+03    10.0419   3.3244    80.6880
 32      0.0000     0.0000E+00    0.0000E+00    1.445000E+07  0.00040  7.027E-03    0   0.8578   age078_m32            0.0000     8.1236E+02     8.1006   2.7849    86.5265
 33      0.0000     0.0000E+00    0.0000E+00    2.512000E+07  0.00040  4.707E-03    0   0.8166   age090_m32            0.0000     4.6259E+02     6.3467   2.4766    91.0781
 34      0.0000     0.0000E+00    0.0000E+00    4.000000E+07  0.00040  3.714E-03    0   0.7827   age104_m32            0.0000     2.6746E+02     4.7131   2.2587    95.2666
 35      0.0000     0.0000E+00    0.0000E+00    5.500000E+07  0.00040  2.982E-03    0   0.7593   age110_m32            0.0000     2.4167E+02     4.1789   2.1921    96.8083
 36      0.0000     0.0000E+00    0.0000E+00    1.015200E+08  0.00040  2.188E-03    0   0.7143   age116_m32            0.0000     4.6177E+02     4.0166   1.9061   102.4604
 37      0.0000     0.0000E+00    0.0000E+00    1.609000E+08  0.00040  1.690E-03    0   0.6856   age120_m32            0.0000     7.7172E+02     4.9159   1.6836   105.9784
 38      0.0000     0.0000E+00    0.0000E+00    2.861200E+08  0.00040  1.152E-03    0   0.6509   age125_m32            0.0000     1.0810E+03     6.1979   1.4584   108.2734
 39      0.0000     0.0000E+00    0.0000E+00    5.088000E+08  0.00040  7.331E-04    0   0.6182   age130_m32            0.0000     1.2098E+03     6.7983   1.2958   109.1195
 40      0.0000     0.0000E+00    0.0000E+00    9.047900E+08  0.00040  3.960E-04    0   0.5890   age135_m32            0.0000     5.6628E+02     4.9585   0.8500   106.8241
 41      0.0000     0.0000E+00    0.0000E+00    1.278050E+09  0.00040  2.854E-04    0   0.5687   age138_m32            0.0000     4.0102E+02     3.8036   0.5563   108.4458
 42      0.0000     0.0000E+00    0.0000E+00    1.434000E+09  0.00040  2.531E-04    0   0.5632   age139_m32            0.0000     3.8486E+02     3.6614   0.4937   108.4442
 43     17.7138     9.1413E+00    9.5133E+00    2.500000E+09  0.00040  1.488E-04    0   0.5386   age150_m32            0.0000     2.2642E+02     2.8059   0.2401   106.3325
 44     38.6612     3.2688E+01    3.2837E+01    4.250000E+09  0.00040  9.082E-05    0   0.5199   age158_m32            0.0000     2.9496E+01     1.2000   0.1597   101.7436
 45      1.2339     1.4893E+00    1.4607E+00    6.250000E+09  0.00040  6.362E-05    0   0.5076   age166_m32            0.0000     5.1170E+01     1.7130   0.1331    97.3340
 46      0.9710     1.4098E+00    1.3693E+00    7.500000E+09  0.00040  5.289E-05    0   0.5027   age171_m32            0.0000     6.6931E+01     1.8681   0.1001    95.9172
 47      0.0628     1.2150E-01    1.1616E-01    1.000000E+10  0.00040  3.972E-05    0   0.4948   age181_m32            0.0000     7.6543E+01     1.8838   0.0411    94.4828
 48      0.0000     0.0000E+00    0.0000E+00    1.300000E+10  0.00040  3.283E-05    0   0.4870   age193_m32            0.0000     2.0744E+01     1.1294  -0.0114    97.6675
 49      0.0000     0.0000E+00    0.0000E+00    1.500000E+10  0.00040  2.925E-05    0   0.4854   age201_m32            0.0000     1.1579E+01     0.9361  -0.0349    99.5495
 50      0.0000     0.0000E+00    0.0000E+00    1.800000E+10  0.00040  2.469E-05    0   0.4819   age213_m32            0.0000     1.2633E+01     0.9446  -0.0775   100.1731
 51      0.0000     0.0000E+00    0.0000E+00    1.000000E+06  0.00400  1.114E-02    0   1.0000   age020_m42            0.0000     1.7849E+03    11.1177   3.5277    75.2188
 52      0.0000     0.0000E+00    0.0000E+00    3.160000E+06  0.00400  4.073E-02    0   0.9999   age045_m42            0.0000     3.9634E+02     5.7648   2.5173    90.9525
 53      0.0000     0.0000E+00    0.0000E+00    5.010000E+06  0.00400  2.534E-02    0   0.9488   age055_m42            0.0000     9.2284E+02     8.3902   2.9430    83.7875
 54      0.0000     0.0000E+00    0.0000E+00    6.610000E+06  0.00400  2.583E-02    0   0.9220   age061_m42            0.0000     2.8489E+02     5.0047   2.3245    92.2465
 55      0.0000     0.0000E+00    0.0000E+00    8.710000E+06  0.00400  1.706E-02    0   0.8983   age067_m42            0.0000     5.4189E+02     6.8616   2.1573    89.7634
 56      0.0000     0.0000E+00    0.0000E+00    1.000000E+07  0.00400  1.271E-02    0   0.8862   age070_m42            0.0000     8.3303E+02     8.4432   2.1478    87.8927
 57      0.0000     0.0000E+00    0.0000E+00    1.445000E+07  0.00400  7.666E-03    0   0.8571   age078_m42            0.0000     1.0787E+03     9.1521   2.5647    84.1486
 58      0.0000     0.0000E+00    0.0000E+00    2.512000E+07  0.00400  5.070E-03    0   0.8174   age090_m42            0.0000     7.1083E+02     7.8037   2.0125    89.6241
 59      0.0000     0.0000E+00    0.0000E+00    4.000000E+07  0.00400  3.505E-03    0   0.7851   age104_m42            0.0000     4.0404E+02     5.8752   1.6873    92.9944
 60      0.0000     0.0000E+00    0.0000E+00    5.500000E+07  0.00400  3.059E-03    0   0.7629   age110_m42            0.0000     1.5804E+02     2.9672   1.7215    99.0943
 61      0.0000     0.0000E+00    0.0000E+00    1.015200E+08  0.00400  2.268E-03    0   0.7207   age116_m42            0.0000     6.4188E+02     4.5154   1.6060   106.1715
 62      0.0000     0.0000E+00    0.0000E+00    1.609000E+08  0.00400  1.720E-03    0   0.6930   age120_m42            0.0000     7.4987E+02     5.1636   1.4626   107.9825
 63      0.0000     0.0000E+00    0.0000E+00    2.861200E+08  0.00400  1.079E-03    0   0.6613   age125_m42            0.0000     7.5425E+02     5.1962   1.1089   108.5737
 64      0.0000     0.0000E+00    0.0000E+00    5.088000E+08  0.00400  6.261E-04    0   0.6313   age130_m42            0.0000     9.1841E+02     5.7811   0.9048   112.0463
 65      0.0000     0.0000E+00    0.0000E+00    9.047900E+08  0.00400  3.535E-04    0   0.6024   age135_m42            0.0000     4.7022E+02     4.4545   0.5141   111.4884
 66      0.0000     0.0000E+00    0.0000E+00    1.278050E+09  0.00400  2.677E-04    0   0.5837   age138_m42            0.0000     2.1859E+02     4.1766  -0.1431   107.0742
 67      0.0000     0.0000E+00    0.0000E+00    1.434000E+09  0.00400  1.910E-04    0   0.5716   age139_m42            0.0000     2.3088E+02     4.0678   0.0186   108.3627
 68      6.6721     5.2184E+00    5.5084E+00    2.500000E+09  0.00400  9.818E-05    0   0.5463   age150_m42            0.0000     1.6519E+02     3.4601  -0.2220   101.8532
 69      0.0000     0.0000E+00    0.0000E+00    4.250000E+09  0.00400  5.491E-05    0   0.5269   age158_m42            0.0000     2.2578E+02     3.4435  -0.3366    98.4507
 70      1.1240     2.2379E+00    2.2273E+00    6.250000E+09  0.00400  3.857E-05    0   0.5151   age166_m42            0.0000     3.3671E+02     4.0520  -0.4549    96.7467
 71      1.3925     3.2973E+00    3.2556E+00    7.500000E+09  0.00400  3.243E-05    0   0.5110   age171_m42            0.0000     4.1411E+02     4.4558  -0.5293    96.0300
 72      0.1780     5.6390E-01    5.4784E-01    1.000000E+10  0.00400  2.424E-05    0   0.5028   age181_m42            0.0000     5.2475E+02     4.9745  -0.6041    95.2173
 73      0.0000     0.0000E+00    0.0000E+00    1.300000E+10  0.00400  1.883E-05    0   0.4927   age193_m42            0.0000     6.1069E+02     5.3232  -0.6410    94.7640
 74      0.0000     0.0000E+00    0.0000E+00    1.500000E+10  0.00400  1.685E-05    0   0.4919   age201_m42            0.0000     5.8421E+02     5.1869  -0.6381    94.8226
 75      0.0000     0.0000E+00    0.0000E+00    1.800000E+10  0.00400  1.452E-05    0   0.4874   age213_m42            0.0000     5.3758E+02     4.9610  -0.6257    95.1384
 76      0.0000     0.0000E+00    0.0000E+00    1.000000E+06  0.00800  1.286E-02    0   1.0000   age020_m52            0.0000     1.5948E+03    10.5776   3.5003    77.1467
 77      0.0000     0.0000E+00    0.0000E+00    3.160000E+06  0.00800  3.147E-02    0   0.9966   age045_m52            0.0000     1.5245E+03    10.3935   3.4057    78.8333
 78      0.0000     0.0000E+00    0.0000E+00    5.010000E+06  0.00800  2.664E-02    0   0.9443   age055_m52            0.0000     1.0689E+03     8.7685   3.0693    82.5868
 79      0.0000     0.0000E+00    0.0000E+00    6.610000E+06  0.00800  2.151E-02    0   0.9177   age061_m52            0.0000     6.8607E+02     7.0625   1.7472    89.3697
 80      0.0000     0.0000E+00    0.0000E+00    8.710000E+06  0.00800  1.628E-02    0   0.8948   age067_m52            0.0000     6.4824E+02     7.2604   2.1130    90.0682
 81      0.0000     0.0000E+00    0.0000E+00    1.000000E+07  0.00800  1.215E-02    0   0.8827   age070_m52            0.0000     8.0666E+02     8.0335   2.4574    88.0270
 82      0.0000     0.0000E+00    0.0000E+00    1.445000E+07  0.00800  8.739E-03    0   0.8552   age078_m52            0.0000     6.2307E+02     7.1310   2.4922    89.6907
 83      0.0000     0.0000E+00    0.0000E+00    2.512000E+07  0.00800  5.676E-03    0   0.8162   age090_m52            0.0000     3.9036E+02     5.7133   2.0687    95.5174
 84      0.0000     0.0000E+00    0.0000E+00    4.000000E+07  0.00800  3.939E-03    0   0.7841   age104_m52            0.0000     2.7754E+02     4.2732   1.9010    98.6206
 85      0.0000     0.0000E+00    0.0000E+00    5.500000E+07  0.00800  3.155E-03    0   0.7627   age110_m52            0.0000     2.6522E+02     3.3621   1.8663   100.8162
 86      0.0000     0.0000E+00    0.0000E+00    1.015200E+08  0.00800  2.206E-03    0   0.7226   age116_m52            0.0000     4.5059E+02     3.6390   1.6726   105.4221
 87      0.0000     0.0000E+00    0.0000E+00    1.609000E+08  0.00800  1.596E-03    0   0.6963   age120_m52            0.0000     5.7565E+02     4.4173   1.4524   107.4579
 88      0.0000     0.0000E+00    0.0000E+00    2.861200E+08  0.00800  1.002E-03    0   0.6665   age125_m52            0.0000     1.0059E+03     6.5962   1.1506   110.9778
 89      0.0000     0.0000E+00    0.0000E+00    5.088000E+08  0.00800  5.759E-04    0   0.6377   age130_m52            0.0000     1.1355E+03     7.5751   0.7989   115.1481
 90      0.0000     0.0000E+00    0.0000E+00    9.047900E+08  0.00800  2.972E-04    0   0.6086   age135_m52            0.0000     6.2805E+02     6.4876   0.2826   112.8193
 91      0.0000     0.0000E+00    0.0000E+00    1.278050E+09  0.00800  2.242E-04    0   0.5907   age138_m52            0.0000     3.8308E+02     5.4198  -0.3109   109.7929
 92      0.0000     0.0000E+00    0.0000E+00    1.434000E+09  0.00800  1.645E-04    0   0.5787   age139_m52            0.0000     2.9536E+02     4.7607  -0.1631   109.1036
 93      0.0000     0.0000E+00    0.0000E+00    2.500000E+09  0.00800  7.723E-05    0   0.5519   age150_m52            0.0000     3.9305E+02     5.0384  -0.4807   104.0749
 94      0.2700     4.9946E-01    5.1342E-01    4.250000E+09  0.00800  4.151E-05    0   0.5320   age158_m52            0.0000     4.3447E+02     5.0123  -0.5401   101.0192
 95      0.7821     1.9952E+00    2.0036E+00    6.250000E+09  0.00800  3.010E-05    0   0.5197   age166_m52            0.0000     6.4772E+02     5.9024  -0.7245    99.2046
 96      1.3693     4.2620E+00    4.2321E+00    7.500000E+09  0.00800  2.467E-05    0   0.5139   age171_m52            0.0000     7.0892E+02     6.1637  -0.7639    98.7334
 97      1.9229     7.9299E+00    7.7439E+00    1.000000E+10  0.00800  1.862E-05    0   0.5054   age181_m52            0.0000     9.1054E+02     6.9992  -0.8883    98.1509
