###################################################################
## OUTPUT of StarlightChains_v04.for    [Cid@UFSC - 01/Apr/2007] ##
###################################################################

## Some input info
NGC5286_c_1.cxt                          [arq_obs]
Base.BC03.S                              [arq_base]
NGC5286_c_1.msk                          [arq_masks]
StCv04.C99.config                        [arq_config]
  150                                    [N_base]
    0                                    [N_YAV_components = # of components with extra extinction!]
    0                                    [i_FitPowerLaw (1/0 = Yes/No)]
-9.99                                    [alpha_PowerLaw]
CCM                                      [red_law_option]
 1.458241                                [q_norm = A(l_norm)/A(V)]

## (Re)Sampling Parameters
 3359.00                                 [l_ini (A)]
 6428.00                                 [l_fin (A)]
    1.00                                 [dl    (A)]     (OBS: dl_cushion =    50.00 A)

## Normalization info
 4020.00                                 [l_norm (A) - for base]
 4010.00                                 [llow_norm (A) - window for f_obs]
 4060.00                                 [lupp_norm (A) - window for f_obs]
3.906300E-14                             [fobs_norm (in input units)]

## S/N
 4730.00                                 [llow_SN (A) - window for S/N]
 4780.00                                 [lupp_SN (A) - window for S/N]
 103.062                                 [S/N in S/N window]
  88.537                                 [S/N in norm. window]
 171.763                                 [S/N_err in S/N window]
 147.556                                 [S/N_err in norm. window]
  1.0000                                 [fscale_chi2]

## etc...
  2147483636                             [idum_orig]
  3065                                   [NOl_eff]
  1717                                   [Nl_eff]
  1348    NSIGMA                         [Ntot_cliped & clip_method]
  3435670                                [Nglobal_steps]
   7                                     [N_chains]
  17                                     [NEX0s_base = N_base in EX0s-fits]
 0   0   1      214   2.0   3.215E+02    [Clip-Bug, RC-Crash & Burn-In warning-flags, n_censored_weights, wei_nsig_threshold & wei_limit]
   161    160.474    160.462      0.012  [idt_all, wdt_TotTime, wdt_UsrTime & wdt_SysTime (sec)]

## Synthesis Results - Best model ##

 2.70566E+00                             [chi2/Nl_eff]
     1.01708                             [adev (%)]

    98.65333                             [sum-of-x (%)]
 1.37902E-13                             [Flux_tot (units of input spectrum!)]
 2.31166E-09                             [Mini_tot (???)]
 1.15957E-09                             [Mcor_tot (???)]

 -21.49                                  [v0_min  (km/s)]
  66.20                                  [vd_min  (km/s)]
 0.9492                                  [AV_min  (mag)]
 0.0000                                  [YAV_min (mag)]

# j     x_j(%)      Mini_j(%)     Mcor_j(%)     age_j(yr)     Z_j      (L/M)_j    YAV?  Mstars   component_j        a/Fe...       SSP_chi2r SSP_adev(%)   SSP_AV   SSP_x(%)
  1      0.0000     0.0000E+00    0.0000E+00    1.000000E+06  0.00010  8.160E-03    0   1.0000   age020_m22            0.0000     4.0858E+02     9.9671   4.0000    77.7379
  2     17.8036     2.2622E-02    4.5097E-02    3.160000E+06  0.00010  4.759E-02    0   1.0000   age045_m22            0.0000     3.3318E+01     3.0921   2.1226    95.1221
  3      0.0000     0.0000E+00    0.0000E+00    5.010000E+06  0.00010  1.932E-02    0   0.9582   age055_m22            0.0000     3.4759E+02     9.8881   2.4309    81.5857
  4      0.0000     0.0000E+00    0.0000E+00    6.610000E+06  0.00010  9.973E-03    0   0.9297   age061_m22            0.0000     3.9310E+02    10.1365   4.0000    79.8187
  5      0.0000     0.0000E+00    0.0000E+00    8.710000E+06  0.00010  7.690E-03    0   0.9030   age067_m22            0.0000     3.6850E+02     9.8403   4.0000    80.0870
  6      0.0000     0.0000E+00    0.0000E+00    1.000000E+07  0.00010  6.375E-03    0   0.8902   age070_m22            0.0000     3.5355E+02     9.5543   4.0000    80.5563
  7      0.0000     0.0000E+00    0.0000E+00    1.445000E+07  0.00010  4.874E-03    0   0.8589   age078_m22            0.0000     2.4476E+02     8.3374   3.9114    81.4368
  8      0.0000     0.0000E+00    0.0000E+00    2.512000E+07  0.00010  4.103E-03    0   0.8174   age090_m22            0.0000     9.3636E+01     5.4075   3.4989    88.2302
  9      0.6741     1.1156E-02    1.7414E-02    4.000000E+07  0.00010  3.654E-03    0   0.7830   age104_m22            0.0000     4.9357E+01     3.6312   3.1953    93.4599
 10      0.0090     1.7678E-04    2.6773E-04    5.500000E+07  0.00010  3.093E-03    0   0.7597   age110_m22            0.0000     4.9418E+01     3.3435   3.0912    95.2060
 11      5.7929     1.4409E-01    2.0504E-01    1.015200E+08  0.00010  2.431E-03    0   0.7138   age116_m22            0.0000     7.2945E+01     3.6159   2.7361    98.6406
 12      0.0000     0.0000E+00    0.0000E+00    1.609000E+08  0.00010  1.319E-03    0   0.6775   age120_m22            0.0000     7.5263E+01     3.5875   2.2542   101.1790
 13      0.0000     0.0000E+00    0.0000E+00    2.861200E+08  0.00010  1.075E-03    0   0.6412   age125_m22            0.0000     2.9037E+02     7.5213   2.3112   105.4222
 14      0.0000     0.0000E+00    0.0000E+00    5.088000E+08  0.00010  7.183E-04    0   0.6083   age130_m22            0.0000     3.8530E+02     8.8250   2.0820   107.2128
 15      0.0000     0.0000E+00    0.0000E+00    9.047900E+08  0.00010  4.524E-04    0   0.5785   age135_m22            0.0000     3.9591E+02     9.0281   1.8824   108.4252
 16      0.0000     0.0000E+00    0.0000E+00    1.278050E+09  0.00010  3.018E-04    0   0.5588   age138_m22            0.0000     1.7009E+02     6.0186   1.3621   105.9473
 17      0.0000     0.0000E+00    0.0000E+00    1.434000E+09  0.00010  2.691E-04    0   0.5532   age139_m22            0.0000     1.3560E+02     5.4198   1.2099   105.1602
 18      0.0000     0.0000E+00    0.0000E+00    2.500000E+09  0.00010  1.582E-04    0   0.5296   age150_m22            0.0000     1.0398E+02     4.6292   1.0944   105.9090
 19      0.0000     0.0000E+00    0.0000E+00    4.250000E+09  0.00010  1.007E-04    0   0.5110   age158_m22            0.0000     4.6168E+01     3.1613   0.9502   103.7089
 20      0.0000     0.0000E+00    0.0000E+00    6.250000E+09  0.00010  6.869E-05    0   0.4985   age166_m22            0.0000     1.3648E+01     1.8035   0.8988   100.4473
 21      0.0664     6.8410E-02    6.7248E-02    7.500000E+09  0.00010  5.873E-05    0   0.4931   age171_m22            0.0000     9.6072E+00     1.5232   0.8864    99.8780
 22      0.0000     0.0000E+00    0.0000E+00    1.000000E+10  0.00010  4.481E-05    0   0.4854   age181_m22            0.0000     9.2971E+00     1.5198   0.8494    99.4672
 23      0.1508     2.6127E-01    2.4954E-01    1.300000E+10  0.00010  3.489E-05    0   0.4791   age193_m22            0.0000     8.5111E+00     1.4948   0.7952    98.8189
 24      0.0328     6.5372E-02    6.2111E-02    1.500000E+10  0.00010  3.035E-05    0   0.4766   age201_m22            0.0000     7.7635E+00     1.4568   0.7568    98.5952
 25      6.3581     1.5317E+01    1.4459E+01    1.800000E+10  0.00010  2.510E-05    0   0.4735   age213_m22            0.0000     6.5293E+00     1.3924   0.6902    97.8902
 26      0.0000     0.0000E+00    0.0000E+00    1.000000E+06  0.00040  8.458E-03    0   1.0000   age020_m32            0.0000     4.0880E+02     9.9502   4.0000    78.7237
 27      0.0000     0.0000E+00    0.0000E+00    3.160000E+06  0.00040  3.973E-02    0   1.0000   age045_m32            0.0000     1.0789E+02     5.7474   3.3984    88.1357
 28      0.0000     0.0000E+00    0.0000E+00    5.010000E+06  0.00040  1.935E-02    0   0.9532   age055_m32            0.0000     2.8185E+02     9.0624   3.6298    82.0011
 29      0.0000     0.0000E+00    0.0000E+00    6.610000E+06  0.00040  1.204E-02    0   0.9243   age061_m32            0.0000     3.1307E+02     9.3981   3.9461    79.9437
 30      0.0000     0.0000E+00    0.0000E+00    8.710000E+06  0.00040  9.433E-03    0   0.9001   age067_m32            0.0000     2.7744E+02     8.8749   3.9164    80.8842
 31      0.0000     0.0000E+00    0.0000E+00    1.000000E+07  0.00040  8.053E-03    0   0.8877   age070_m32            0.0000     2.6372E+02     8.6675   3.8823    81.3145
 32      0.0000     0.0000E+00    0.0000E+00    1.445000E+07  0.00040  7.027E-03    0   0.8578   age078_m32            0.0000     1.4780E+02     6.7240   3.3518    86.9159
 33      0.0000     0.0000E+00    0.0000E+00    2.512000E+07  0.00040  4.707E-03    0   0.8166   age090_m32            0.0000     7.5759E+01     4.9601   3.0528    91.1223
 34      0.0000     0.0000E+00    0.0000E+00    4.000000E+07  0.00040  3.714E-03    0   0.7827   age104_m32            0.0000     4.2260E+01     3.4621   2.8448    94.8708
 35      0.0000     0.0000E+00    0.0000E+00    5.500000E+07  0.00040  2.982E-03    0   0.7593   age110_m32            0.0000     4.2300E+01     3.1615   2.7804    96.2578
 36      0.0000     0.0000E+00    0.0000E+00    1.015200E+08  0.00040  2.188E-03    0   0.7143   age116_m32            0.0000     1.2242E+02     4.5983   2.5054   101.3062
 37      0.0000     0.0000E+00    0.0000E+00    1.609000E+08  0.00040  1.690E-03    0   0.6856   age120_m32            0.0000     2.1023E+02     6.1267   2.2889   104.5429
 38      0.0000     0.0000E+00    0.0000E+00    2.861200E+08  0.00040  1.152E-03    0   0.6509   age125_m32            0.0000     3.1583E+02     7.8935   2.0642   106.6058
 39      0.0000     0.0000E+00    0.0000E+00    5.088000E+08  0.00040  7.331E-04    0   0.6182   age130_m32            0.0000     3.6094E+02     8.5938   1.9047   107.2493
 40      0.0000     0.0000E+00    0.0000E+00    9.047900E+08  0.00040  3.960E-04    0   0.5890   age135_m32            0.0000     1.9132E+02     6.5858   1.4580   105.0415
 41      0.0000     0.0000E+00    0.0000E+00    1.278050E+09  0.00040  2.854E-04    0   0.5687   age138_m32            0.0000     1.2986E+02     5.3036   1.1611   106.9386
 42      0.0000     0.0000E+00    0.0000E+00    1.434000E+09  0.00040  2.531E-04    0   0.5632   age139_m32            0.0000     1.2396E+02     5.1390   1.1004   106.8904
 43      7.8200     3.1779E+00    3.4121E+00    2.500000E+09  0.00040  1.488E-04    0   0.5386   age150_m32            0.0000     8.0301E+01     4.2223   0.8505   104.7185
 44     27.2530     1.8145E+01    1.8807E+01    4.250000E+09  0.00040  9.082E-05    0   0.5199   age158_m32            0.0000     1.7720E+01     2.1998   0.7645   100.5822
 45     27.0524     2.5713E+01    2.6019E+01    6.250000E+09  0.00040  6.362E-05    0   0.5076   age166_m32            0.0000     8.4951E+00     1.5362   0.7300    96.6536
 46      0.0000     0.0000E+00    0.0000E+00    7.500000E+09  0.00040  5.289E-05    0   0.5027   age171_m32            0.0000     1.2341E+01     1.7362   0.6964    95.2621
 47      0.0000     0.0000E+00    0.0000E+00    1.000000E+10  0.00040  3.972E-05    0   0.4948   age181_m32            0.0000     1.6951E+01     1.9437   0.6373    93.8092
 48      0.0000     0.0000E+00    0.0000E+00    1.300000E+10  0.00040  3.283E-05    0   0.4870   age193_m32            0.0000     1.0725E+01     1.7438   0.5891    96.8035
 49      0.0000     0.0000E+00    0.0000E+00    1.500000E+10  0.00040  2.925E-05    0   0.4854   age201_m32            0.0000     1.2601E+01     1.9517   0.5682    98.5654
 50      3.1159     7.6313E+00    7.3313E+00    1.800000E+10  0.00040  2.469E-05    0   0.4819   age213_m32            0.0000     1.5284E+01     2.1439   0.5270    99.1507
 51      0.0000     0.0000E+00    0.0000E+00    1.000000E+06  0.00400  1.114E-02    0   1.0000   age020_m42            0.0000     3.6943E+02     9.6594   4.0000    77.7173
 52      0.0000     0.0000E+00    0.0000E+00    3.160000E+06  0.00400  4.073E-02    0   0.9999   age045_m42            0.0000     6.0633E+01     4.3793   3.1007    90.8816
 53      0.0000     0.0000E+00    0.0000E+00    5.010000E+06  0.00400  2.534E-02    0   0.9488   age055_m42            0.0000     1.7450E+02     7.1266   3.5108    84.2335
 54      0.0000     0.0000E+00    0.0000E+00    6.610000E+06  0.00400  2.583E-02    0   0.9220   age061_m42            0.0000     4.5339E+01     3.7472   2.9142    91.9573
 55      0.0000     0.0000E+00    0.0000E+00    8.710000E+06  0.00400  1.706E-02    0   0.8983   age067_m42            0.0000     9.2813E+01     5.4088   2.7392    89.9568
 56      0.0000     0.0000E+00    0.0000E+00    1.000000E+07  0.00400  1.271E-02    0   0.8862   age070_m42            0.0000     1.5597E+02     7.0722   2.7251    88.4140
 57      0.0000     0.0000E+00    0.0000E+00    1.445000E+07  0.00400  7.666E-03    0   0.8571   age078_m42            0.0000     2.1408E+02     7.8966   3.1314    84.8973
 58      0.0000     0.0000E+00    0.0000E+00    2.512000E+07  0.00400  5.070E-03    0   0.8174   age090_m42            0.0000     1.2942E+02     6.4552   2.5913    90.1465
 59      0.0000     0.0000E+00    0.0000E+00    4.000000E+07  0.00400  3.505E-03    0   0.7851   age104_m42            0.0000     6.6790E+01     4.6513   2.2720    93.3024
 60      0.0000     0.0000E+00    0.0000E+00    5.500000E+07  0.00400  3.059E-03    0   0.7629   age110_m42            0.0000     3.0595E+01     2.5437   2.3177    98.6494
 61      0.0000     0.0000E+00    0.0000E+00    1.015200E+08  0.00400  2.268E-03    0   0.7207   age116_m42            0.0000     1.8080E+02     5.8860   2.2135   104.8636
 62      0.0000     0.0000E+00    0.0000E+00    1.609000E+08  0.00400  1.720E-03    0   0.6930   age120_m42            0.0000     2.1711E+02     6.6426   2.0724   106.5143
 63      0.0000     0.0000E+00    0.0000E+00    2.861200E+08  0.00400  1.079E-03    0   0.6613   age125_m42            0.0000     2.2740E+02     6.8776   1.7161   107.0681
 64      0.0000     0.0000E+00    0.0000E+00    5.088000E+08  0.00400  6.261E-04    0   0.6313   age130_m42            0.0000     2.6668E+02     7.4435   1.5196   110.1450
 65      0.0000     0.0000E+00    0.0000E+00    9.047900E+08  0.00400  3.535E-04    0   0.6024   age135_m42            0.0000     1.4994E+02     5.8970   1.1354   109.4977
 66      0.0000     0.0000E+00    0.0000E+00    1.278050E+09  0.00400  2.677E-04    0   0.5837   age138_m42            0.0000     1.1463E+02     5.6438   0.4951   104.8138
 67      0.0000     0.0000E+00    0.0000E+00    1.434000E+09  0.00400  1.910E-04    0   0.5716   age139_m42            0.0000     1.1055E+02     5.5136   0.6509   106.2545
 68      0.0000     0.0000E+00    0.0000E+00    2.500000E+09  0.00400  9.818E-05    0   0.5463   age150_m42            0.0000     9.6752E+01     5.0022   0.4110    99.9700
 69      0.0000     0.0000E+00    0.0000E+00    4.250000E+09  0.00400  5.491E-05    0   0.5269   age158_m42            0.0000     1.1023E+02     4.9896   0.2976    96.6753
 70      0.0000     0.0000E+00    0.0000E+00    6.250000E+09  0.00400  3.857E-05    0   0.5151   age166_m42            0.0000     1.4571E+02     5.5858   0.1830    94.9072
 71      0.0000     0.0000E+00    0.0000E+00    7.500000E+09  0.00400  3.243E-05    0   0.5110   age171_m42            0.0000     1.7139E+02     5.9903   0.1118    94.1120
 72      0.0000     0.0000E+00    0.0000E+00    1.000000E+10  0.00400  2.424E-05    0   0.5028   age181_m42            0.0000     2.0784E+02     6.5102   0.0420    93.1578
 73      0.0000     0.0000E+00    0.0000E+00    1.300000E+10  0.00400  1.883E-05    0   0.4927   age193_m42            0.0000     2.3660E+02     6.8863   0.0086    92.6198
 74      0.0000     0.0000E+00    0.0000E+00    1.500000E+10  0.00400  1.685E-05    0   0.4919   age201_m42            0.0000     2.2873E+02     6.7797   0.0110    92.7111
 75      0.0000     0.0000E+00    0.0000E+00    1.800000E+10  0.00400  1.452E-05    0   0.4874   age213_m42            0.0000     2.1425E+02     6.5912   0.0220    93.1068
 76      0.0000     0.0000E+00    0.0000E+00    1.000000E+06  0.00800  1.286E-02    0   1.0000   age020_m52            0.0000     3.1773E+02     9.0859   4.0000    79.0196
 77      0.0000     0.0000E+00    0.0000E+00    3.160000E+06  0.00800  3.147E-02    0   0.9966   age045_m52            0.0000     3.0191E+02     9.1186   3.9593    79.5409
 78      0.0000     0.0000E+00    0.0000E+00    5.010000E+06  0.00800  2.664E-02    0   0.9443   age055_m52            0.0000     2.1221E+02     7.6678   3.6298    83.1408
 79      0.0000     0.0000E+00    0.0000E+00    6.610000E+06  0.00800  2.151E-02    0   0.9177   age061_m52            0.0000     1.2725E+02     5.9638   2.3259    89.8085
 80      0.0000     0.0000E+00    0.0000E+00    8.710000E+06  0.00800  1.628E-02    0   0.8948   age067_m52            0.0000     1.1435E+02     5.9740   2.6904    90.4773
 81      0.0000     0.0000E+00    0.0000E+00    1.000000E+07  0.00800  1.215E-02    0   0.8827   age070_m52            0.0000     1.4738E+02     6.7253   3.0327    88.4821
 82      0.0000     0.0000E+00    0.0000E+00    1.445000E+07  0.00800  8.739E-03    0   0.8552   age078_m52            0.0000     1.1028E+02     5.8504   3.0700    89.9302
 83      0.0000     0.0000E+00    0.0000E+00    2.512000E+07  0.00800  5.676E-03    0   0.8162   age090_m52            0.0000     6.1585E+01     4.3243   2.6607    95.3022
 84      0.0000     0.0000E+00    0.0000E+00    4.000000E+07  0.00800  3.939E-03    0   0.7841   age104_m52            0.0000     4.4258E+01     3.1667   2.4953    98.1424
 85      0.0000     0.0000E+00    0.0000E+00    5.500000E+07  0.00800  3.155E-03    0   0.7627   age110_m52            0.0000     5.5235E+01     3.0283   2.4620   100.1426
 86      0.0000     0.0000E+00    0.0000E+00    1.015200E+08  0.00800  2.206E-03    0   0.7226   age116_m52            0.0000     1.2352E+02     4.8011   2.2734   104.4710
 87      0.0000     0.0000E+00    0.0000E+00    1.609000E+08  0.00800  1.596E-03    0   0.6963   age120_m52            0.0000     1.6587E+02     5.8024   2.0554   106.3578
 88      0.0000     0.0000E+00    0.0000E+00    2.861200E+08  0.00800  1.002E-03    0   0.6665   age125_m52            0.0000     3.0674E+02     8.2191   1.7649   109.3115
 89      0.0000     0.0000E+00    0.0000E+00    5.088000E+08  0.00800  5.759E-04    0   0.6377   age130_m52            0.0000     3.5920E+02     9.1686   1.4279   112.9523
 90      0.0000     0.0000E+00    0.0000E+00    9.047900E+08  0.00800  2.972E-04    0   0.6086   age135_m52            0.0000     2.4301E+02     7.9177   0.9271   110.0021
 91      0.0000     0.0000E+00    0.0000E+00    1.278050E+09  0.00800  2.242E-04    0   0.5907   age138_m52            0.0000     1.7373E+02     6.7702   0.3362   107.2497
 92      0.0000     0.0000E+00    0.0000E+00    1.434000E+09  0.00800  1.645E-04    0   0.5787   age139_m52            0.0000     1.4388E+02     6.2039   0.4813   106.7159
 93      0.0000     0.0000E+00    0.0000E+00    2.500000E+09  0.00800  7.723E-05    0   0.5519   age150_m52            0.0000     1.7117E+02     6.4294   0.1653   101.8364
 94      0.0000     0.0000E+00    0.0000E+00    4.250000E+09  0.00800  4.151E-05    0   0.5320   age158_m52            0.0000     1.8082E+02     6.4141   0.1042    98.8973
 95      0.0000     0.0000E+00    0.0000E+00    6.250000E+09  0.00800  3.010E-05    0   0.5197   age166_m52            0.0000     2.4457E+02     7.2714  -0.0747    96.9696
 96      0.0000     0.0000E+00    0.0000E+00    7.500000E+09  0.00800  2.467E-05    0   0.5139   age171_m52            0.0000     2.6259E+02     7.5036  -0.1118    96.4327
 97      0.0000     0.0000E+00    0.0000E+00    1.000000E+10  0.00800  1.862E-05    0   0.5054   age181_m52            0.0000     3.2124E+02     8.2519  -0.2306    95.7037
