###################################################################
## OUTPUT of StarlightChains_v04.for    [Cid@UFSC - 01/Apr/2007] ##
###################################################################

## Some input info
NGC5927_b_1.cxt                          [arq_obs]
Base.BC03.S                              [arq_base]
NGC5927_b_1.msk                          [arq_masks]
StCv04.C99.config                        [arq_config]
  150                                    [N_base]
    0                                    [N_YAV_components = # of components with extra extinction!]
    0                                    [i_FitPowerLaw (1/0 = Yes/No)]
-9.99                                    [alpha_PowerLaw]
CCM                                      [red_law_option]
 1.458241                                [q_norm = A(l_norm)/A(V)]

## (Re)Sampling Parameters
 3359.00                                 [l_ini (A)]
 6428.00                                 [l_fin (A)]
    1.00                                 [dl    (A)]     (OBS: dl_cushion =    50.00 A)

## Normalization info
 4020.00                                 [l_norm (A) - for base]
 4010.00                                 [llow_norm (A) - window for f_obs]
 4060.00                                 [lupp_norm (A) - window for f_obs]
5.211403E-15                             [fobs_norm (in input units)]

## S/N
 4730.00                                 [llow_SN (A) - window for S/N]
 4780.00                                 [lupp_SN (A) - window for S/N]
  32.308                                 [S/N in S/N window]
  18.819                                 [S/N in norm. window]
 338.726                                 [S/N_err in S/N window]
 197.303                                 [S/N_err in norm. window]
  1.0000                                 [fscale_chi2]

## etc...
  2147483632                             [idum_orig]
  3064                                   [NOl_eff]
  1289                                   [Nl_eff]
  1775    NSIGMA                         [Ntot_cliped & clip_method]
  4167450                                [Nglobal_steps]
   7                                     [N_chains]
  24                                     [NEX0s_base = N_base in EX0s-fits]
 0   0   1      139   2.0   4.522E+02    [Clip-Bug, RC-Crash & Burn-In warning-flags, n_censored_weights, wei_nsig_threshold & wei_limit]
   164    163.847    163.835      0.012  [idt_all, wdt_TotTime, wdt_UsrTime & wdt_SysTime (sec)]

## Synthesis Results - Best model ##

 3.07885E+00                             [chi2/Nl_eff]
     2.30083                             [adev (%)]

    99.74208                             [sum-of-x (%)]
 2.75208E-14                             [Flux_tot (units of input spectrum!)]
 1.75439E-09                             [Mini_tot (???)]
 8.77085E-10                             [Mcor_tot (???)]

  -7.11                                  [v0_min  (km/s)]
  13.72                                  [vd_min  (km/s)]
 1.2409                                  [AV_min  (mag)]
 0.0000                                  [YAV_min (mag)]

# j     x_j(%)      Mini_j(%)     Mcor_j(%)     age_j(yr)     Z_j      (L/M)_j    YAV?  Mstars   component_j        a/Fe...       SSP_chi2r SSP_adev(%)   SSP_AV   SSP_x(%)
  1      1.7860     3.4423E-03    6.8855E-03    1.000000E+06  0.00010  8.160E-03    0   1.0000   age020_m22            0.0000     2.9201E+03    35.2899   4.0000    98.5688
  2     12.0983     3.9982E-03    7.9974E-03    3.160000E+06  0.00010  4.759E-02    0   1.0000   age045_m22            0.0000     4.2651E+02     8.7905   3.5003    97.6678
  3      9.7640     7.9483E-03    1.5234E-02    5.010000E+06  0.00010  1.932E-02    0   0.9582   age055_m22            0.0000     5.8915E+02    16.8251   3.9018    86.4817
  4      0.0000     0.0000E+00    0.0000E+00    6.610000E+06  0.00010  9.973E-03    0   0.9297   age061_m22            0.0000     2.9872E+03    34.4689   4.0000   101.4331
  5      0.4715     9.6426E-04    1.7417E-03    8.710000E+06  0.00010  7.690E-03    0   0.9030   age067_m22            0.0000     2.9225E+03    34.2451   4.0000   101.7800
  6      0.6257     1.5436E-03    2.7486E-03    1.000000E+07  0.00010  6.375E-03    0   0.8902   age070_m22            0.0000     2.9214E+03    34.4594   4.0000   101.9799
  7      0.0000     0.0000E+00    0.0000E+00    1.445000E+07  0.00010  4.874E-03    0   0.8589   age078_m22            0.0000     2.2863E+03    30.4208   4.0000   103.4064
  8      0.0000     0.0000E+00    0.0000E+00    2.512000E+07  0.00010  4.103E-03    0   0.8174   age090_m22            0.0000     1.3177E+03    21.4089   4.0000   104.9340
  9      0.0000     0.0000E+00    0.0000E+00    4.000000E+07  0.00010  3.654E-03    0   0.7830   age104_m22            0.0000     9.4782E+02    15.2991   4.0000   104.6542
 10      0.0000     0.0000E+00    0.0000E+00    5.500000E+07  0.00010  3.093E-03    0   0.7597   age110_m22            0.0000     8.5586E+02    13.5112   4.0000   104.2017
 11      0.0000     0.0000E+00    0.0000E+00    1.015200E+08  0.00010  2.431E-03    0   0.7138   age116_m22            0.0000     7.3436E+02     9.3378   4.0000   100.7938
 12      0.0000     0.0000E+00    0.0000E+00    1.609000E+08  0.00010  1.319E-03    0   0.6775   age120_m22            0.0000     6.8149E+02     9.3345   3.6938    99.7886
 13      0.0000     0.0000E+00    0.0000E+00    2.861200E+08  0.00010  1.075E-03    0   0.6412   age125_m22            0.0000     9.8098E+02    10.1780   3.7583   101.6941
 14      0.0000     0.0000E+00    0.0000E+00    5.088000E+08  0.00010  7.183E-04    0   0.6083   age130_m22            0.0000     1.0575E+03    10.4393   3.5218   103.0413
 15      0.0000     0.0000E+00    0.0000E+00    9.047900E+08  0.00010  4.524E-04    0   0.5785   age135_m22            0.0000     1.0440E+03    10.4945   3.3126   104.2915
 16      0.0000     0.0000E+00    0.0000E+00    1.278050E+09  0.00010  3.018E-04    0   0.5588   age138_m22            0.0000     6.9100E+02     8.9849   2.7717   103.5968
 17      0.0000     0.0000E+00    0.0000E+00    1.434000E+09  0.00010  2.691E-04    0   0.5532   age139_m22            0.0000     6.2152E+02     8.6632   2.6119   103.2484
 18      0.0006     5.5673E-05    5.8976E-05    2.500000E+09  0.00010  1.582E-04    0   0.5296   age150_m22            0.0000     5.9929E+02     8.7379   2.5049   104.2656
 19      0.0000     0.0000E+00    0.0000E+00    4.250000E+09  0.00010  1.007E-04    0   0.5110   age158_m22            0.0000     4.7066E+02     7.8965   2.3304   103.4473
 20      0.0000     0.0000E+00    0.0000E+00    6.250000E+09  0.00010  6.869E-05    0   0.4985   age166_m22            0.0000     3.7232E+02     7.2340   2.2564   101.4255
 21      0.0000     0.0000E+00    0.0000E+00    7.500000E+09  0.00010  5.873E-05    0   0.4931   age171_m22            0.0000     3.6704E+02     7.3251   2.2514   100.9810
 22      0.0000     0.0000E+00    0.0000E+00    1.000000E+10  0.00010  4.481E-05    0   0.4854   age181_m22            0.0000     3.5717E+02     7.2494   2.2113   100.6355
 23      0.0000     0.0000E+00    0.0000E+00    1.300000E+10  0.00010  3.489E-05    0   0.4791   age193_m22            0.0000     3.3730E+02     7.0638   2.1486   100.1674
 24      0.0000     0.0000E+00    0.0000E+00    1.500000E+10  0.00010  3.035E-05    0   0.4766   age201_m22            0.0000     3.2573E+02     6.9743   2.1071   100.0493
 25      0.0000     0.0000E+00    0.0000E+00    1.800000E+10  0.00010  2.510E-05    0   0.4735   age213_m22            0.0000     3.0191E+02     6.7832   2.0349    99.5744
 26      0.0000     0.0000E+00    0.0000E+00    1.000000E+06  0.00040  8.458E-03    0   1.0000   age020_m32            0.0000     2.9953E+03    35.5532   4.0000    99.3732
 27      0.0000     0.0000E+00    0.0000E+00    3.160000E+06  0.00040  3.973E-02    0   1.0000   age045_m32            0.0000     1.1712E+03    18.9040   4.0000   103.9235
 28      0.0000     0.0000E+00    0.0000E+00    5.010000E+06  0.00040  1.935E-02    0   0.9532   age055_m32            0.0000     1.7876E+03    24.2300   4.0000   101.5070
 29      0.0000     0.0000E+00    0.0000E+00    6.610000E+06  0.00040  1.204E-02    0   0.9243   age061_m32            0.0000     2.5086E+03    31.3344   4.0000   102.4027
 30      0.0000     0.0000E+00    0.0000E+00    8.710000E+06  0.00040  9.433E-03    0   0.9001   age067_m32            0.0000     2.3838E+03    30.6606   4.0000   103.0200
 31      0.0000     0.0000E+00    0.0000E+00    1.000000E+07  0.00040  8.053E-03    0   0.8877   age070_m32            0.0000     2.2743E+03    29.8588   4.0000   103.1546
 32      0.0000     0.0000E+00    0.0000E+00    1.445000E+07  0.00040  7.027E-03    0   0.8578   age078_m32            0.0000     1.1886E+03    18.1044   4.0000   102.3400
 33      0.0000     0.0000E+00    0.0000E+00    2.512000E+07  0.00040  4.707E-03    0   0.8166   age090_m32            0.0000     7.9728E+02    11.9854   4.0000   101.3420
 34      0.0000     0.0000E+00    0.0000E+00    4.000000E+07  0.00040  3.714E-03    0   0.7827   age104_m32            0.0000     6.7656E+02     9.5065   4.0000   100.5460
 35      0.0000     0.0000E+00    0.0000E+00    5.500000E+07  0.00040  2.982E-03    0   0.7593   age110_m32            0.0000     6.7386E+02     9.2771   4.0000   100.2509
 36      0.0000     0.0000E+00    0.0000E+00    1.015200E+08  0.00040  2.188E-03    0   0.7143   age116_m32            0.0000     7.7881E+02     9.6334   3.9379    99.4013
 37      0.0000     0.0000E+00    0.0000E+00    1.609000E+08  0.00040  1.690E-03    0   0.6856   age120_m32            0.0000     8.8904E+02    10.0356   3.7465   101.3071
 38      0.0000     0.0000E+00    0.0000E+00    2.861200E+08  0.00040  1.152E-03    0   0.6509   age125_m32            0.0000     9.8299E+02    10.1064   3.5085   102.7292
 39      0.0000     0.0000E+00    0.0000E+00    5.088000E+08  0.00040  7.331E-04    0   0.6182   age130_m32            0.0000     9.9734E+02    10.1954   3.3304   103.4195
 40      0.0000     0.0000E+00    0.0000E+00    9.047900E+08  0.00040  3.960E-04    0   0.5890   age135_m32            0.0000     6.9661E+02     8.9208   2.8352   103.0086
 41      0.0000     0.0000E+00    0.0000E+00    1.278050E+09  0.00040  2.854E-04    0   0.5687   age138_m32            0.0000     6.3292E+02     8.7836   2.5543   105.2637
 42      0.0000     0.0000E+00    0.0000E+00    1.434000E+09  0.00040  2.531E-04    0   0.5632   age139_m32            0.0000     6.1925E+02     8.7407   2.5004   105.1943
 43      0.0000     0.0000E+00    0.0000E+00    2.500000E+09  0.00040  1.488E-04    0   0.5386   age150_m32            0.0000     5.0205E+02     7.9552   2.2299   103.8937
 44      0.0000     0.0000E+00    0.0000E+00    4.250000E+09  0.00040  9.082E-05    0   0.5199   age158_m32            0.0000     3.3428E+02     6.7731   2.1071   101.6661
 45      0.0000     0.0000E+00    0.0000E+00    6.250000E+09  0.00040  6.362E-05    0   0.5076   age166_m32            0.0000     2.5338E+02     6.2374   2.0540    99.2266
 46      0.0000     0.0000E+00    0.0000E+00    7.500000E+09  0.00040  5.289E-05    0   0.5027   age171_m32            0.0000     2.3166E+02     6.0259   2.0097    98.1208
 47      0.0000     0.0000E+00    0.0000E+00    1.000000E+10  0.00040  3.972E-05    0   0.4948   age181_m32            0.0000     2.1030E+02     5.8042   1.9380    96.8125
 48      0.0000     0.0000E+00    0.0000E+00    1.300000E+10  0.00040  3.283E-05    0   0.4870   age193_m32            0.0000     2.3760E+02     5.9641   1.9002    99.1339
 49      0.0000     0.0000E+00    0.0000E+00    1.500000E+10  0.00040  2.925E-05    0   0.4854   age201_m32            0.0000     2.6161E+02     6.1813   1.8878   100.4506
 50      0.0000     0.0000E+00    0.0000E+00    1.800000E+10  0.00040  2.469E-05    0   0.4819   age213_m32            0.0000     2.6652E+02     6.2265   1.8499   100.8553
 51      0.0005     6.8250E-07    1.3652E-06    1.000000E+06  0.00400  1.114E-02    0   1.0000   age020_m42            0.0000     2.7482E+03    33.9993   4.0000    99.3296
 52      0.0000     0.0000E+00    0.0000E+00    3.160000E+06  0.00400  4.073E-02    0   0.9999   age045_m42            0.0000     7.0091E+02    12.0257   4.0000   101.8115
 53      0.0000     0.0000E+00    0.0000E+00    5.010000E+06  0.00400  2.534E-02    0   0.9488   age055_m42            0.0000     1.3440E+03    21.2776   4.0000   101.8343
 54      0.0000     0.0000E+00    0.0000E+00    6.610000E+06  0.00400  2.583E-02    0   0.9220   age061_m42            0.0000     6.1215E+02     9.3318   4.0000    99.3213
 55      0.0000     0.0000E+00    0.0000E+00    8.710000E+06  0.00400  1.706E-02    0   0.8983   age067_m42            0.0000     5.3824E+02    10.1860   4.0000    95.6298
 56      0.0000     0.0000E+00    0.0000E+00    1.000000E+07  0.00400  1.271E-02    0   0.8862   age070_m42            0.0000     5.6851E+02    11.7198   4.0000    94.7395
 57      0.0000     0.0000E+00    0.0000E+00    1.445000E+07  0.00400  7.666E-03    0   0.8571   age078_m42            0.0000     8.8467E+02    13.2268   4.0000    97.8139
 58      0.0000     0.0000E+00    0.0000E+00    2.512000E+07  0.00400  5.070E-03    0   0.8174   age090_m42            0.0000     4.9489E+02    12.4288   4.0000    93.8609
 59      0.0000     0.0000E+00    0.0000E+00    4.000000E+07  0.00400  3.505E-03    0   0.7851   age104_m42            0.0000     4.1143E+02    10.8354   3.7062    95.5722
 60      0.0000     0.0000E+00    0.0000E+00    5.500000E+07  0.00400  3.059E-03    0   0.7629   age110_m42            0.0000     5.0602E+02     8.7889   3.7465    98.6499
 61      0.0000     0.0000E+00    0.0000E+00    1.015200E+08  0.00400  2.268E-03    0   0.7207   age116_m42            0.0000     7.6830E+02     9.2502   3.6393   102.3581
 62      0.0000     0.0000E+00    0.0000E+00    1.609000E+08  0.00400  1.720E-03    0   0.6930   age120_m42            0.0000     7.8560E+02     9.1061   3.4738   104.0973
 63      0.0000     0.0000E+00    0.0000E+00    2.861200E+08  0.00400  1.079E-03    0   0.6613   age125_m42            0.0000     7.5919E+02     8.9843   3.1314   104.3528
 64      0.0000     0.0000E+00    0.0000E+00    5.088000E+08  0.00400  6.261E-04    0   0.6313   age130_m42            0.0000     8.0695E+02     9.4040   2.9298   107.3687
 65      0.0000     0.0000E+00    0.0000E+00    9.047900E+08  0.00400  3.535E-04    0   0.6024   age135_m42            0.0000     5.5737E+02     8.1589   2.4944   108.6277
 66      0.0038     2.2262E-04    2.5992E-04    1.278050E+09  0.00400  2.677E-04    0   0.5837   age138_m42            0.0000     2.1103E+02     6.0502   1.7531   106.7909
 67      0.0000     0.0000E+00    0.0000E+00    1.434000E+09  0.00400  1.910E-04    0   0.5716   age139_m42            0.0000     2.8937E+02     6.4909   1.9253   107.5027
 68      0.0000     0.0000E+00    0.0000E+00    2.500000E+09  0.00400  9.818E-05    0   0.5463   age150_m42            0.0000     1.0796E+02     5.0832   1.6091   103.6220
 69      0.0000     0.0000E+00    0.0000E+00    4.250000E+09  0.00400  5.491E-05    0   0.5269   age158_m42            0.0000     5.3871E+01     4.0526   1.4826   101.1738
 70      0.0000     0.0000E+00    0.0000E+00    6.250000E+09  0.00400  3.857E-05    0   0.5151   age166_m42            0.0000     3.5383E+01     4.2046   1.3370    99.9902
 71      0.0000     0.0000E+00    0.0000E+00    7.500000E+09  0.00400  3.243E-05    0   0.5110   age171_m42            0.0000     3.1451E+01     4.3971   1.2511    99.4380
 72      0.0039     2.5033E-03    2.5177E-03    1.000000E+10  0.00400  2.424E-05    0   0.5028   age181_m42            0.0000     3.1168E+01     4.7164   1.1633    98.8381
 73      3.5640     2.9767E+00    2.9336E+00    1.300000E+10  0.00400  1.883E-05    0   0.4927   age193_m42            0.0000     3.4286E+01     4.8988   1.1218    98.5623
 74      3.5582     3.3211E+00    3.2678E+00    1.500000E+10  0.00400  1.685E-05    0   0.4919   age201_m42            0.0000     3.2807E+01     4.6900   1.1318    98.5508
 75      2.6437     2.8636E+00    2.7918E+00    1.800000E+10  0.00400  1.452E-05    0   0.4874   age213_m42            0.0000     3.0914E+01     4.3451   1.1560    98.7679
 76      0.0000     0.0000E+00    0.0000E+00    1.000000E+06  0.00800  1.286E-02    0   1.0000   age020_m52            0.0000     2.6433E+03    33.3363   4.0000   100.9310
 77      0.0000     0.0000E+00    0.0000E+00    3.160000E+06  0.00800  3.147E-02    0   0.9966   age045_m52            0.0000     2.4550E+03    31.5291   4.0000   101.9560
 78      0.0000     0.0000E+00    0.0000E+00    5.010000E+06  0.00800  2.664E-02    0   0.9443   age055_m52            0.0000     1.6013E+03    24.1553   4.0000   102.2084
 79      0.0000     0.0000E+00    0.0000E+00    6.610000E+06  0.00800  2.151E-02    0   0.9177   age061_m52            0.0000     4.0210E+02    11.4117   3.7250    93.5076
 80      0.0000     0.0000E+00    0.0000E+00    8.710000E+06  0.00800  1.628E-02    0   0.8948   age067_m52            0.0000     5.2411E+02    10.8555   4.0000    95.5200
 81      0.0000     0.0000E+00    0.0000E+00    1.000000E+07  0.00800  1.215E-02    0   0.8827   age070_m52            0.0000     7.8231E+02    11.7578   4.0000    99.3823
 82      0.0000     0.0000E+00    0.0000E+00    1.445000E+07  0.00800  8.739E-03    0   0.8552   age078_m52            0.0000     8.2308E+02    12.1651   4.0000   100.8855
 83      0.0000     0.0000E+00    0.0000E+00    2.512000E+07  0.00800  5.676E-03    0   0.8162   age090_m52            0.0000     6.0673E+02     9.8965   4.0000    98.4500
 84      0.0000     0.0000E+00    0.0000E+00    4.000000E+07  0.00800  3.939E-03    0   0.7841   age104_m52            0.0000     5.9666E+02    10.2015   3.9689    97.6663
 85      0.0000     0.0000E+00    0.0000E+00    5.500000E+07  0.00800  3.155E-03    0   0.7627   age110_m52            0.0000     6.3540E+02     9.3869   3.9150    99.0837
 86      0.0000     0.0000E+00    0.0000E+00    1.015200E+08  0.00800  2.206E-03    0   0.7226   age116_m52            0.0000     7.0396E+02     8.9328   3.6813   102.7542
 87      0.0000     0.0000E+00    0.0000E+00    1.609000E+08  0.00800  1.596E-03    0   0.6963   age120_m52            0.0000     7.3340E+02     9.0190   3.4582   104.3108
 88      0.0000     0.0000E+00    0.0000E+00    2.861200E+08  0.00800  1.002E-03    0   0.6665   age125_m52            0.0000     8.2737E+02     9.4699   3.1544   106.3629
 89      0.0000     0.0000E+00    0.0000E+00    5.088000E+08  0.00800  5.759E-04    0   0.6377   age130_m52            0.0000     7.9870E+02     9.9909   2.7717   110.4267
 90      0.0000     0.0000E+00    0.0000E+00    9.047900E+08  0.00800  2.972E-04    0   0.6086   age135_m52            0.0000     4.8147E+02     9.1926   2.1760   110.0136
 91      0.0000     0.0000E+00    0.0000E+00    1.278050E+09  0.00800  2.242E-04    0   0.5907   age138_m52            0.0000     1.7999E+02     7.0051   1.5366   109.4528
 92      0.0000     0.0000E+00    0.0000E+00    1.434000E+09  0.00800  1.645E-04    0   0.5787   age139_m52            0.0000     1.7706E+02     6.5463   1.6887   109.0413
 93      0.0000     0.0000E+00    0.0000E+00    2.500000E+09  0.00800  7.723E-05    0   0.5519   age150_m52            0.0000     6.6489E+01     5.9236   1.3090   106.0599
 94      0.0000     0.0000E+00    0.0000E+00    4.250000E+09  0.00800  4.151E-05    0   0.5320   age158_m52            0.0000     4.3030E+01     5.5773   1.2305   103.7922
 95      0.4000     2.0900E-01    2.1727E-01    6.250000E+09  0.00800  3.010E-05    0   0.5197   age166_m52            0.0000     3.2279E+01     6.0882   1.0157   102.4938
 96      0.3888     2.4784E-01    2.5477E-01    7.500000E+09  0.00800  2.467E-05    0   0.5139   age171_m52            0.0000     3.3519E+01     6.3719   0.9679   102.1112
 97     32.0108     2.7038E+01    2.7333E+01    1.000000E+10  0.00800  1.862E-05    0   0.5054   age181_m52            0.0000     4.4995E+01     7.3921   0.8181   101.7531
