###################################################################
## OUTPUT of StarlightChains_v04.for    [Cid@UFSC - 01/Apr/2007] ##
###################################################################

## Some input info
NGC5946_a_1.cxt                          [arq_obs]
Base.BC03.S                              [arq_base]
NGC5946_a_1.msk                          [arq_masks]
StCv04.C99.config                        [arq_config]
  150                                    [N_base]
    0                                    [N_YAV_components = # of components with extra extinction!]
    0                                    [i_FitPowerLaw (1/0 = Yes/No)]
-9.99                                    [alpha_PowerLaw]
CCM                                      [red_law_option]
 1.458241                                [q_norm = A(l_norm)/A(V)]

## (Re)Sampling Parameters
 3359.00                                 [l_ini (A)]
 6428.00                                 [l_fin (A)]
    1.00                                 [dl    (A)]     (OBS: dl_cushion =    50.00 A)

## Normalization info
 4020.00                                 [l_norm (A) - for base]
 4010.00                                 [llow_norm (A) - window for f_obs]
 4060.00                                 [lupp_norm (A) - window for f_obs]
2.679293E-15                             [fobs_norm (in input units)]

## S/N
 4730.00                                 [llow_SN (A) - window for S/N]
 4780.00                                 [lupp_SN (A) - window for S/N]
  76.219                                 [S/N in S/N window]
  50.437                                 [S/N in norm. window]
 152.898                                 [S/N_err in S/N window]
 101.177                                 [S/N_err in norm. window]
  1.0000                                 [fscale_chi2]

## etc...
  2147483630                             [idum_orig]
  3066                                   [NOl_eff]
   878                                   [Nl_eff]
  2188    NSIGMA                         [Ntot_cliped & clip_method]
  4079740                                [Nglobal_steps]
   7                                     [N_chains]
  23                                     [NEX0s_base = N_base in EX0s-fits]
 0   0   1      136   2.0   2.373E+02    [Clip-Bug, RC-Crash & Burn-In warning-flags, n_censored_weights, wei_nsig_threshold & wei_limit]
   179    178.419    178.399      0.020  [idt_all, wdt_TotTime, wdt_UsrTime & wdt_SysTime (sec)]

## Synthesis Results - Best model ##

 2.39457E+00                             [chi2/Nl_eff]
     1.55261                             [adev (%)]

    97.57433                             [sum-of-x (%)]
 4.35262E-14                             [Flux_tot (units of input spectrum!)]
 8.38639E-10                             [Mini_tot (???)]
 4.17013E-10                             [Mcor_tot (???)]

 -37.41                                  [v0_min  (km/s)]
  80.17                                  [vd_min  (km/s)]
 2.0940                                  [AV_min  (mag)]
 0.0000                                  [YAV_min (mag)]

# j     x_j(%)      Mini_j(%)     Mcor_j(%)     age_j(yr)     Z_j      (L/M)_j    YAV?  Mstars   component_j        a/Fe...       SSP_chi2r SSP_adev(%)   SSP_AV   SSP_x(%)
  1      0.0000     0.0000E+00    0.0000E+00    1.000000E+06  0.00010  8.160E-03    0   1.0000   age020_m22            0.0000     2.1467E+03    33.7861   4.0000    95.6623
  2      5.4638     6.1068E-03    1.2281E-02    3.160000E+06  0.00010  4.759E-02    0   1.0000   age045_m22            0.0000     2.0489E+01     3.4558   3.3134    97.3283
  3      9.3065     2.5622E-02    4.9374E-02    5.010000E+06  0.00010  1.932E-02    0   0.9582   age055_m22            0.0000     1.8055E+02    11.6724   3.5683    84.8532
  4      0.0000     0.0000E+00    0.0000E+00    6.610000E+06  0.00010  9.973E-03    0   0.9297   age061_m22            0.0000     2.0274E+03    32.4449   4.0000    98.4962
  5      0.0000     0.0000E+00    0.0000E+00    8.710000E+06  0.00010  7.690E-03    0   0.9030   age067_m22            0.0000     1.9847E+03    31.9620   4.0000    98.9711
  6      0.0000     0.0000E+00    0.0000E+00    1.000000E+07  0.00010  6.375E-03    0   0.8902   age070_m22            0.0000     2.0017E+03    31.8374   4.0000    99.2372
  7      0.0000     0.0000E+00    0.0000E+00    1.445000E+07  0.00010  4.874E-03    0   0.8589   age078_m22            0.0000     1.4597E+03    27.4123   4.0000   101.4288
  8      0.0000     0.0000E+00    0.0000E+00    2.512000E+07  0.00010  4.103E-03    0   0.8174   age090_m22            0.0000     5.5971E+02    17.3752   4.0000   104.0754
  9      1.4621     2.1284E-02    3.3514E-02    4.000000E+07  0.00010  3.654E-03    0   0.7830   age104_m22            0.0000     2.1532E+02     9.4666   4.0000   104.1507
 10      0.0000     0.0000E+00    0.0000E+00    5.500000E+07  0.00010  3.093E-03    0   0.7597   age110_m22            0.0000     1.5701E+02     7.3629   4.0000   103.6657
 11      0.0000     0.0000E+00    0.0000E+00    1.015200E+08  0.00010  2.431E-03    0   0.7138   age116_m22            0.0000     1.0193E+02     7.2155   3.9503    99.6806
 12      0.0000     0.0000E+00    0.0000E+00    1.609000E+08  0.00010  1.319E-03    0   0.6775   age120_m22            0.0000     1.1012E+02     7.5754   3.4701   101.8859
 13      0.0000     0.0000E+00    0.0000E+00    2.861200E+08  0.00010  1.075E-03    0   0.6412   age125_m22            0.0000     3.2873E+02    13.7179   3.5647   104.6263
 14      0.0000     0.0000E+00    0.0000E+00    5.088000E+08  0.00010  7.183E-04    0   0.6083   age130_m22            0.0000     4.1524E+02    15.5571   3.3518   105.7664
 15      0.0000     0.0000E+00    0.0000E+00    9.047900E+08  0.00010  4.524E-04    0   0.5785   age135_m22            0.0000     4.2383E+02    15.8300   3.1580   106.7560
 16      0.0000     0.0000E+00    0.0000E+00    1.278050E+09  0.00010  3.018E-04    0   0.5588   age138_m22            0.0000     2.0994E+02    11.3200   2.6105   105.3821
 17      0.0000     0.0000E+00    0.0000E+00    1.434000E+09  0.00010  2.691E-04    0   0.5532   age139_m22            0.0000     1.7445E+02    10.3785   2.4524   104.8470
 18      0.0000     0.0000E+00    0.0000E+00    2.500000E+09  0.00010  1.582E-04    0   0.5296   age150_m22            0.0000     1.4365E+02     9.4519   2.3332   105.7264
 19      0.0000     0.0000E+00    0.0000E+00    4.250000E+09  0.00010  1.007E-04    0   0.5110   age158_m22            0.0000     7.8438E+01     7.0287   2.1774   104.1802
 20      0.0027     2.1095E-03    2.1148E-03    6.250000E+09  0.00010  6.869E-05    0   0.4985   age166_m22            0.0000     3.2856E+01     4.5638   2.1130   101.5504
 21      0.0000     0.0000E+00    0.0000E+00    7.500000E+09  0.00010  5.873E-05    0   0.4931   age171_m22            0.0000     2.5751E+01     4.0407   2.0961   101.1110
 22      0.0422     5.0038E-02    4.8846E-02    1.000000E+10  0.00010  4.481E-05    0   0.4854   age181_m22            0.0000     2.4906E+01     4.0144   2.0591   100.7132
 23      0.0000     0.0000E+00    0.0000E+00    1.300000E+10  0.00010  3.489E-05    0   0.4791   age193_m22            0.0000     2.2552E+01     3.8756   2.0038   100.1423
 24      0.0439     7.6962E-02    7.3766E-02    1.500000E+10  0.00010  3.035E-05    0   0.4766   age201_m22            0.0000     2.0638E+01     3.7385   1.9645    99.9822
 25      0.8569     1.8159E+00    1.7292E+00    1.800000E+10  0.00010  2.510E-05    0   0.4735   age213_m22            0.0000     1.6122E+01     3.3732   1.8951    99.4314
 26      0.0000     0.0000E+00    0.0000E+00    1.000000E+06  0.00040  8.458E-03    0   1.0000   age020_m32            0.0000     2.1773E+03    33.6744   4.0000    96.4290
 27      0.2004     2.6824E-04    5.3945E-04    3.160000E+06  0.00040  3.973E-02    0   1.0000   age045_m32            0.0000     4.2321E+02    15.5881   4.0000   102.4285
 28      0.0000     0.0000E+00    0.0000E+00    5.010000E+06  0.00040  1.935E-02    0   0.9532   age055_m32            0.0000     8.9030E+02    23.0366   4.0000    98.8578
 29      0.0000     0.0000E+00    0.0000E+00    6.610000E+06  0.00040  1.204E-02    0   0.9243   age061_m32            0.0000     1.6000E+03    29.1603   4.0000    99.9660
 30      0.0000     0.0000E+00    0.0000E+00    8.710000E+06  0.00040  9.433E-03    0   0.9001   age067_m32            0.0000     1.4979E+03    28.1385   4.0000   100.8224
 31      0.0000     0.0000E+00    0.0000E+00    1.000000E+07  0.00040  8.053E-03    0   0.8877   age070_m32            0.0000     1.4016E+03    27.3033   4.0000   101.0550
 32      0.0000     0.0000E+00    0.0000E+00    1.445000E+07  0.00040  7.027E-03    0   0.8578   age078_m32            0.0000     3.8485E+02    15.6425   4.0000   100.0882
 33      0.0000     0.0000E+00    0.0000E+00    2.512000E+07  0.00040  4.707E-03    0   0.8166   age090_m32            0.0000     1.0082E+02     8.4067   4.0000    98.6082
 34      0.0000     0.0000E+00    0.0000E+00    4.000000E+07  0.00040  3.714E-03    0   0.7827   age104_m32            0.0000     4.4011E+01     4.7202   4.0000    97.5578
 35      0.0000     0.0000E+00    0.0000E+00    5.500000E+07  0.00040  2.982E-03    0   0.7593   age110_m32            0.0000     5.4435E+01     5.1855   3.9763    97.8655
 36      0.0000     0.0000E+00    0.0000E+00    1.015200E+08  0.00040  2.188E-03    0   0.7143   age116_m32            0.0000     1.6151E+02     9.2670   3.7332   101.7988
 37      0.0000     0.0000E+00    0.0000E+00    1.609000E+08  0.00040  1.690E-03    0   0.6856   age120_m32            0.0000     2.5185E+02    11.9310   3.5336   104.2411
 38      0.0000     0.0000E+00    0.0000E+00    2.861200E+08  0.00040  1.152E-03    0   0.6509   age125_m32            0.0000     3.5318E+02    14.2958   3.3290   105.4346
 39      0.0000     0.0000E+00    0.0000E+00    5.088000E+08  0.00040  7.331E-04    0   0.6182   age130_m32            0.0000     3.9345E+02    15.1893   3.1752   105.8563
 40      0.0000     0.0000E+00    0.0000E+00    9.047900E+08  0.00040  3.960E-04    0   0.5890   age135_m32            0.0000     2.2826E+02    11.7949   2.7110   104.4973
 41      0.0000     0.0000E+00    0.0000E+00    1.278050E+09  0.00040  2.854E-04    0   0.5687   age138_m32            0.0000     1.7055E+02    10.3255   2.4081   106.5748
 42      0.0000     0.0000E+00    0.0000E+00    1.434000E+09  0.00040  2.531E-04    0   0.5632   age139_m32            0.0000     1.6524E+02    10.1846   2.3460   106.5478
 43      4.2512     1.5197E+00    1.6460E+00    2.500000E+09  0.00040  1.488E-04    0   0.5386   age150_m32            0.0000     1.1877E+02     8.7346   2.0916   104.7046
 44      6.7765     3.9688E+00    4.1496E+00    4.250000E+09  0.00040  9.082E-05    0   0.5199   age158_m32            0.0000     3.8596E+01     5.1322   1.9837   101.6173
 45     30.4817     2.5485E+01    2.6016E+01    6.250000E+09  0.00040  6.362E-05    0   0.5076   age166_m32            0.0000     6.6660E+00     2.4352   1.9290    98.5633
 46     23.0611     2.3192E+01    2.3447E+01    7.500000E+09  0.00040  5.289E-05    0   0.5027   age171_m32            0.0000     5.7907E+00     2.3074   1.8928    97.3128
 47      0.0290     3.8884E-02    3.8693E-02    1.000000E+10  0.00040  3.972E-05    0   0.4948   age181_m32            0.0000     7.4173E+00     2.4752   1.8321    95.9378
 48      0.0121     1.9678E-02    1.9272E-02    1.300000E+10  0.00040  3.283E-05    0   0.4870   age193_m32            0.0000     1.4544E+01     3.3709   1.7946    98.5608
 49      0.0490     8.9147E-02    8.7022E-02    1.500000E+10  0.00040  2.925E-05    0   0.4854   age201_m32            0.0000     2.3825E+01     4.1897   1.7796   100.0941
 50     12.5616     2.7062E+01    2.6227E+01    1.800000E+10  0.00040  2.469E-05    0   0.4819   age213_m32            0.0000     2.9253E+01     4.6040   1.7412   100.5886
 51      0.0000     0.0000E+00    0.0000E+00    1.000000E+06  0.00400  1.114E-02    0   1.0000   age020_m42            0.0000     1.9719E+03    32.2182   4.0000    96.6068
 52      0.0003     3.3431E-07    6.7225E-07    3.160000E+06  0.00400  4.073E-02    0   0.9999   age045_m42            0.0000     1.2453E+02     8.5049   4.0000    99.6703
 53      0.0000     0.0000E+00    0.0000E+00    5.010000E+06  0.00400  2.534E-02    0   0.9488   age055_m42            0.0000     6.2033E+02    19.0285   4.0000   100.0199
 54      0.3508     7.2240E-04    1.3395E-03    6.610000E+06  0.00400  2.583E-02    0   0.9220   age061_m42            0.0000     4.4585E+01     5.1890   4.0000    96.6332
 55      0.0000     0.0000E+00    0.0000E+00    8.710000E+06  0.00400  1.706E-02    0   0.8983   age067_m42            0.0000     4.8004E+01     6.3607   3.9032    92.8302
 56      0.0000     0.0000E+00    0.0000E+00    1.000000E+07  0.00400  1.271E-02    0   0.8862   age070_m42            0.0000     8.3730E+01     8.4219   3.8794    91.4909
 57      0.0000     0.0000E+00    0.0000E+00    1.445000E+07  0.00400  7.666E-03    0   0.8571   age078_m42            0.0000     2.1479E+02    13.3005   4.0000    94.0302
 58      0.0000     0.0000E+00    0.0000E+00    2.512000E+07  0.00400  5.070E-03    0   0.8174   age090_m42            0.0000     6.6599E+01     7.6013   3.7487    93.2066
 59      0.0000     0.0000E+00    0.0000E+00    4.000000E+07  0.00400  3.505E-03    0   0.7851   age104_m42            0.0000     3.3938E+01     5.3871   3.4413    96.1777
 60      0.0000     0.0000E+00    0.0000E+00    5.500000E+07  0.00400  3.059E-03    0   0.7629   age110_m42            0.0000     5.0767E+01     5.1772   3.5204   100.3519
 61      0.0000     0.0000E+00    0.0000E+00    1.015200E+08  0.00400  2.268E-03    0   0.7207   age116_m42            0.0000     2.2165E+02    11.3050   3.4582   104.9289
 62      0.0007     2.1277E-05    2.9653E-05    1.609000E+08  0.00400  1.720E-03    0   0.6930   age120_m42            0.0000     2.5642E+02    12.2163   3.3244   106.2896
 63      0.0000     0.0000E+00    0.0000E+00    2.861200E+08  0.00400  1.079E-03    0   0.6613   age125_m42            0.0000     2.6890E+02    12.6290   2.9704   106.4836
 64      0.0000     0.0000E+00    0.0000E+00    5.088000E+08  0.00400  6.261E-04    0   0.6313   age130_m42            0.0000     3.0974E+02    13.6970   2.7841   109.0743
 65      0.0000     0.0000E+00    0.0000E+00    9.047900E+08  0.00400  3.535E-04    0   0.6024   age135_m42            0.0000     1.9327E+02    11.0795   2.3880   109.2132
 66      0.0000     0.0000E+00    0.0000E+00    1.278050E+09  0.00400  2.677E-04    0   0.5837   age138_m42            0.0000     1.2264E+02     9.1962   1.7198   106.2099
 67      0.0000     0.0000E+00    0.0000E+00    1.434000E+09  0.00400  1.910E-04    0   0.5716   age139_m42            0.0000     1.3033E+02     9.3208   1.8869   107.2416
 68      0.0000     0.0000E+00    0.0000E+00    2.500000E+09  0.00400  9.818E-05    0   0.5463   age150_m42            0.0000     8.5862E+01     7.4509   1.6238   102.2288
 69      0.0000     0.0000E+00    0.0000E+00    4.250000E+09  0.00400  5.491E-05    0   0.5269   age158_m42            0.0000     8.3524E+01     6.9234   1.4973    99.4545
 70      0.0000     0.0000E+00    0.0000E+00    6.250000E+09  0.00400  3.857E-05    0   0.5151   age166_m42            0.0000     1.0701E+02     7.5359   1.3790    97.9637
 71      0.0000     0.0000E+00    0.0000E+00    7.500000E+09  0.00400  3.243E-05    0   0.5110   age171_m42            0.0000     1.2620E+02     8.0505   1.3068    97.2730
 72      0.0000     0.0000E+00    0.0000E+00    1.000000E+10  0.00400  2.424E-05    0   0.5028   age181_m42            0.0000     1.5337E+02     8.7758   1.2351    96.4548
 73      0.0000     0.0000E+00    0.0000E+00    1.300000E+10  0.00400  1.883E-05    0   0.4927   age193_m42            0.0000     1.7448E+02     9.3491   1.1989    96.0505
 74      0.0000     0.0000E+00    0.0000E+00    1.500000E+10  0.00400  1.685E-05    0   0.4919   age201_m42            0.0000     1.6908E+02     9.1879   1.2017    96.1140
 75      0.0000     0.0000E+00    0.0000E+00    1.800000E+10  0.00400  1.452E-05    0   0.4874   age213_m42            0.0000     1.5852E+02     8.9027   1.2136    96.4622
 76      0.0000     0.0000E+00    0.0000E+00    1.000000E+06  0.00800  1.286E-02    0   1.0000   age020_m52            0.0000     1.8492E+03    30.8496   4.0000    98.5915
 77      0.0000     0.0000E+00    0.0000E+00    3.160000E+06  0.00800  3.147E-02    0   0.9966   age045_m52            0.0000     1.6198E+03    29.2455   4.0000    99.7970
 78      0.0000     0.0000E+00    0.0000E+00    5.010000E+06  0.00800  2.664E-02    0   0.9443   age055_m52            0.0000     8.3703E+02    21.9381   4.0000   100.5754
 79      0.0000     0.0000E+00    0.0000E+00    6.610000E+06  0.00800  2.151E-02    0   0.9177   age061_m52            0.0000     6.0002E+01     7.2841   3.4774    93.2253
 80      0.0000     0.0000E+00    0.0000E+00    8.710000E+06  0.00800  1.628E-02    0   0.8948   age067_m52            0.0000     5.6728E+01     7.1320   3.8493    93.5218
 81      0.0000     0.0000E+00    0.0000E+00    1.000000E+07  0.00800  1.215E-02    0   0.8827   age070_m52            0.0000     1.1791E+02    10.3130   4.0000    95.7907
 82      0.0000     0.0000E+00    0.0000E+00    1.445000E+07  0.00800  8.739E-03    0   0.8552   age078_m52            0.0000     1.2226E+02     9.9229   4.0000    98.0819
 83      0.0000     0.0000E+00    0.0000E+00    2.512000E+07  0.00800  5.676E-03    0   0.8162   age090_m52            0.0000     4.7270E+01     5.3153   3.8433    97.5686
 84      0.0000     0.0000E+00    0.0000E+00    4.000000E+07  0.00800  3.939E-03    0   0.7841   age104_m52            0.0000     5.7138E+01     5.2694   3.6949    99.7867
 85      0.0000     0.0000E+00    0.0000E+00    5.500000E+07  0.00800  3.155E-03    0   0.7627   age110_m52            0.0000     8.4597E+01     6.3606   3.6737   101.3539
 86      0.0000     0.0000E+00    0.0000E+00    1.015200E+08  0.00800  2.206E-03    0   0.7226   age116_m52            0.0000     1.6396E+02     9.4770   3.5062   105.0217
 87      0.0000     0.0000E+00    0.0000E+00    1.609000E+08  0.00800  1.596E-03    0   0.6963   age120_m52            0.0000     2.0764E+02    10.9554   3.2993   106.4610
 88      0.0000     0.0000E+00    0.0000E+00    2.861200E+08  0.00800  1.002E-03    0   0.6665   age125_m52            0.0000     3.3832E+02    14.3244   3.0303   108.5524
 89      0.0000     0.0000E+00    0.0000E+00    5.088000E+08  0.00800  5.759E-04    0   0.6377   age130_m52            0.0000     3.7795E+02    15.3189   2.7073   111.8962
 90      0.0000     0.0000E+00    0.0000E+00    9.047900E+08  0.00800  2.972E-04    0   0.6086   age135_m52            0.0000     2.5347E+02    12.5364   2.1847   110.0443
 91      0.0000     0.0000E+00    0.0000E+00    1.278050E+09  0.00800  2.242E-04    0   0.5907   age138_m52            0.0000     1.6028E+02    10.0904   1.5676   108.8592
 92      0.0000     0.0000E+00    0.0000E+00    1.434000E+09  0.00800  1.645E-04    0   0.5787   age139_m52            0.0000     1.3552E+02     9.3041   1.7124   108.4224
 93      0.0000     0.0000E+00    0.0000E+00    2.500000E+09  0.00800  7.723E-05    0   0.5519   age150_m52            0.0000     1.3434E+02     8.7291   1.3827   104.4797
 94      0.0000     0.0000E+00    0.0000E+00    4.250000E+09  0.00800  4.151E-05    0   0.5320   age158_m52            0.0000     1.3749E+02     8.6015   1.3155   101.7562
 95      0.0000     0.0000E+00    0.0000E+00    6.250000E+09  0.00800  3.010E-05    0   0.5197   age166_m52            0.0000     1.8300E+02     9.6469   1.1332   100.1112
 96      0.0000     0.0000E+00    0.0000E+00    7.500000E+09  0.00800  2.467E-05    0   0.5139   age171_m52            0.0000     1.9636E+02     9.9583   1.0953    99.6315
 97      0.0000     0.0000E+00    0.0000E+00    1.000000E+10  0.00800  1.862E-05    0   0.5054   age181_m52            0.0000     2.4125E+02    10.9511   0.9770    99.0228
