###################################################################
## OUTPUT of StarlightChains_v04.for    [Cid@UFSC - 01/Apr/2007] ##
###################################################################

## Some input info
NGC5986_a_1.cxt                          [arq_obs]
Base.BC03.S                              [arq_base]
NGC5986_a_1.msk                          [arq_masks]
StCv04.C99.config                        [arq_config]
  150                                    [N_base]
    0                                    [N_YAV_components = # of components with extra extinction!]
    0                                    [i_FitPowerLaw (1/0 = Yes/No)]
-9.99                                    [alpha_PowerLaw]
CCM                                      [red_law_option]
 1.458241                                [q_norm = A(l_norm)/A(V)]

## (Re)Sampling Parameters
 3359.00                                 [l_ini (A)]
 6428.00                                 [l_fin (A)]
    1.00                                 [dl    (A)]     (OBS: dl_cushion =    50.00 A)

## Normalization info
 4020.00                                 [l_norm (A) - for base]
 4010.00                                 [llow_norm (A) - window for f_obs]
 4060.00                                 [lupp_norm (A) - window for f_obs]
1.970425E-14                             [fobs_norm (in input units)]

## S/N
 4730.00                                 [llow_SN (A) - window for S/N]
 4780.00                                 [lupp_SN (A) - window for S/N]
 120.453                                 [S/N in S/N window]
 104.720                                 [S/N in norm. window]
  85.601                                 [S/N_err in S/N window]
  74.420                                 [S/N_err in norm. window]
  1.0000                                 [fscale_chi2]

## etc...
  2147483629                             [idum_orig]
  3066                                   [NOl_eff]
  1940                                   [Nl_eff]
  1126    NSIGMA                         [Ntot_cliped & clip_method]
  3430980                                [Nglobal_steps]
   7                                     [N_chains]
  24                                     [NEX0s_base = N_base in EX0s-fits]
 0   0   1       80   2.0   6.653E+02    [Clip-Bug, RC-Crash & Burn-In warning-flags, n_censored_weights, wei_nsig_threshold & wei_limit]
   128    127.780    127.756      0.024  [idt_all, wdt_TotTime, wdt_UsrTime & wdt_SysTime (sec)]

## Synthesis Results - Best model ##

 2.34751E+00                             [chi2/Nl_eff]
     1.52201                             [adev (%)]

    99.76394                             [sum-of-x (%)]
 6.53877E-14                             [Flux_tot (units of input spectrum!)]
 7.48880E-10                             [Mini_tot (???)]
 3.86396E-10                             [Mcor_tot (???)]

 -20.10                                  [v0_min  (km/s)]
  64.45                                  [vd_min  (km/s)]
 0.8948                                  [AV_min  (mag)]
 0.0000                                  [YAV_min (mag)]

# j     x_j(%)      Mini_j(%)     Mcor_j(%)     age_j(yr)     Z_j      (L/M)_j    YAV?  Mstars   component_j        a/Fe...       SSP_chi2r SSP_adev(%)   SSP_AV   SSP_x(%)
  1      0.0000     0.0000E+00    0.0000E+00    1.000000E+06  0.00010  8.160E-03    0   1.0000   age020_m22            0.0000     1.9259E+02     9.8810   4.0000    74.8381
  2      7.8033     1.4351E-02    2.7813E-02    3.160000E+06  0.00010  4.759E-02    0   1.0000   age045_m22            0.0000     2.0553E+01     3.2389   2.1418    92.9827
  3      0.0000     0.0000E+00    0.0000E+00    5.010000E+06  0.00010  1.932E-02    0   0.9582   age055_m22            0.0000     1.5218E+02    10.3872   2.5447    76.2168
  4      0.0000     0.0000E+00    0.0000E+00    6.610000E+06  0.00010  9.973E-03    0   0.9297   age061_m22            0.0000     1.8573E+02    10.0377   4.0000    76.8853
  5      0.0000     0.0000E+00    0.0000E+00    8.710000E+06  0.00010  7.690E-03    0   0.9030   age067_m22            0.0000     1.7477E+02     9.7290   4.0000    77.2226
  6      0.0000     0.0000E+00    0.0000E+00    1.000000E+07  0.00010  6.375E-03    0   0.8902   age070_m22            0.0000     1.6921E+02     9.4898   4.0000    77.7220
  7      0.0000     0.0000E+00    0.0000E+00    1.445000E+07  0.00010  4.874E-03    0   0.8589   age078_m22            0.0000     1.1213E+02     8.4207   4.0000    77.0149
  8      0.0000     0.0000E+00    0.0000E+00    2.512000E+07  0.00010  4.103E-03    0   0.8174   age090_m22            0.0000     4.8241E+01     5.4458   3.5492    85.1152
  9      1.7929     4.2944E-02    6.5169E-02    4.000000E+07  0.00010  3.654E-03    0   0.7830   age104_m22            0.0000     1.5900E+01     3.4113   3.1876    92.4592
 10      1.1534     3.2636E-02    4.8053E-02    5.500000E+07  0.00010  3.093E-03    0   0.7597   age110_m22            0.0000     1.1600E+01     2.9704   3.0711    94.7429
 11      1.4658     5.2771E-02    7.3005E-02    1.015200E+08  0.00010  2.431E-03    0   0.7138   age116_m22            0.0000     1.1853E+01     2.9696   2.6977    98.9638
 12      0.0000     0.0000E+00    0.0000E+00    1.609000E+08  0.00010  1.319E-03    0   0.6775   age120_m22            0.0000     1.2822E+01     2.9883   2.2423   100.5149
 13      0.0000     0.0000E+00    0.0000E+00    2.861200E+08  0.00010  1.075E-03    0   0.6412   age125_m22            0.0000     5.9534E+01     6.4341   2.2528   106.8934
 14      0.0000     0.0000E+00    0.0000E+00    5.088000E+08  0.00010  7.183E-04    0   0.6083   age130_m22            0.0000     8.3521E+01     7.5195   2.0199   108.9677
 15      0.0000     0.0000E+00    0.0000E+00    9.047900E+08  0.00010  4.524E-04    0   0.5785   age135_m22            0.0000     8.7684E+01     7.6686   1.8225   110.1452
 16      0.0000     0.0000E+00    0.0000E+00    1.278050E+09  0.00010  3.018E-04    0   0.5588   age138_m22            0.0000     3.2110E+01     4.8764   1.3228   106.6196
 17      0.0000     0.0000E+00    0.0000E+00    1.434000E+09  0.00010  2.691E-04    0   0.5532   age139_m22            0.0000     2.4231E+01     4.3177   1.1752   105.6175
 18      0.0000     0.0000E+00    0.0000E+00    2.500000E+09  0.00010  1.582E-04    0   0.5296   age150_m22            0.0000     1.8124E+01     3.7216   1.0637   106.1339
 19      0.0000     0.0000E+00    0.0000E+00    4.250000E+09  0.00010  1.007E-04    0   0.5110   age158_m22            0.0000     6.7217E+00     2.4923   0.9322   103.3111
 20      0.0000     0.0000E+00    0.0000E+00    6.250000E+09  0.00010  6.869E-05    0   0.4985   age166_m22            0.0000     2.9123E+00     1.6727   0.8957    99.3969
 21      0.0277     4.1345E-02    3.9513E-02    7.500000E+09  0.00010  5.873E-05    0   0.4931   age171_m22            0.0000     3.0652E+00     1.6323   0.8852    98.7248
 22      0.1265     2.4701E-01    2.3238E-01    1.000000E+10  0.00010  4.481E-05    0   0.4854   age181_m22            0.0000     3.0786E+00     1.6452   0.8477    98.3408
 23      0.0047     1.1720E-02    1.0883E-02    1.300000E+10  0.00010  3.489E-05    0   0.4791   age193_m22            0.0000     3.2795E+00     1.7006   0.7947    97.6507
 24      0.0054     1.5549E-02    1.4363E-02    1.500000E+10  0.00010  3.035E-05    0   0.4766   age201_m22            0.0000     3.4667E+00     1.7395   0.7577    97.3685
 25      0.0040     1.3977E-02    1.2827E-02    1.800000E+10  0.00010  2.510E-05    0   0.4735   age213_m22            0.0000     4.1836E+00     1.8632   0.6947    96.5163
 26      0.0000     0.0000E+00    0.0000E+00    1.000000E+06  0.00040  8.458E-03    0   1.0000   age020_m32            0.0000     1.9457E+02     9.9522   4.0000    75.7785
 27      0.0000     0.0000E+00    0.0000E+00    3.160000E+06  0.00040  3.973E-02    0   1.0000   age045_m32            0.0000     5.5633E+01     5.7076   3.4509    84.8781
 28      0.0000     0.0000E+00    0.0000E+00    5.010000E+06  0.00040  1.935E-02    0   0.9532   age055_m32            0.0000     1.2728E+02     9.2067   3.7296    77.1924
 29      0.0000     0.0000E+00    0.0000E+00    6.610000E+06  0.00040  1.204E-02    0   0.9243   age061_m32            0.0000     1.4077E+02     9.2625   4.0000    76.1387
 30      0.0002     2.1500E-06    3.7506E-06    8.710000E+06  0.00040  9.433E-03    0   0.9001   age067_m32            0.0000     1.2572E+02     8.8691   4.0000    76.5036
 31      0.0000     0.0000E+00    0.0000E+00    1.000000E+07  0.00040  8.053E-03    0   0.8877   age070_m32            0.0000     1.2029E+02     8.7642   3.9828    76.5756
 32      0.0000     0.0000E+00    0.0000E+00    1.445000E+07  0.00040  7.027E-03    0   0.8578   age078_m32            0.0000     7.2112E+01     6.8155   3.4176    83.1947
 33      0.0000     0.0000E+00    0.0000E+00    2.512000E+07  0.00040  4.707E-03    0   0.8166   age090_m32            0.0000     3.9288E+01     5.1130   3.0901    88.3924
 34      0.1294     3.0500E-03    4.6267E-03    4.000000E+07  0.00040  3.714E-03    0   0.7827   age104_m32            0.0000     1.6359E+01     3.4471   2.8462    93.5185
 35      0.2718     7.9774E-03    1.1740E-02    5.500000E+07  0.00040  2.982E-03    0   0.7593   age110_m32            0.0000     1.2004E+01     3.0096   2.7708    95.3667
 36      0.0200     7.9863E-04    1.1056E-03    1.015200E+08  0.00040  2.188E-03    0   0.7143   age116_m32            0.0000     2.0954E+01     3.8794   2.4597   102.0337
 37      0.2839     1.4704E-02    1.9539E-02    1.609000E+08  0.00040  1.690E-03    0   0.6856   age120_m32            0.0000     4.1698E+01     5.2846   2.2254   106.1236
 38      0.0041     3.1212E-04    3.9374E-04    2.861200E+08  0.00040  1.152E-03    0   0.6509   age125_m32            0.0000     6.6254E+01     6.6851   2.0066   108.0980
 39      0.0000     0.0000E+00    0.0000E+00    5.088000E+08  0.00040  7.331E-04    0   0.6182   age130_m32            0.0000     7.8245E+01     7.2900   1.8440   108.9291
 40      0.0000     0.0000E+00    0.0000E+00    9.047900E+08  0.00040  3.960E-04    0   0.5890   age135_m32            0.0000     3.5697E+01     5.3496   1.4205   105.7198
 41      0.0000     0.0000E+00    0.0000E+00    1.278050E+09  0.00040  2.854E-04    0   0.5687   age138_m32            0.0000     2.4096E+01     4.2756   1.1286   107.2832
 42      0.0000     0.0000E+00    0.0000E+00    1.434000E+09  0.00040  2.531E-04    0   0.5632   age139_m32            0.0000     2.2971E+01     4.1288   1.0656   107.3014
 43     21.7551     1.2796E+01    1.3357E+01    2.500000E+09  0.00040  1.488E-04    0   0.5386   age150_m32            0.0000     1.3740E+01     3.2377   0.8175   104.9927
 44     56.3820     5.4334E+01    5.4748E+01    4.250000E+09  0.00040  9.082E-05    0   0.5199   age158_m32            0.0000     2.9495E+00     1.8028   0.7540    99.8310
 45      7.4389     1.0233E+01    1.0068E+01    6.250000E+09  0.00040  6.362E-05    0   0.5076   age166_m32            0.0000     8.0086E+00     2.3153   0.7427    94.9237
 46      0.0000     0.0000E+00    0.0000E+00    7.500000E+09  0.00040  5.289E-05    0   0.5027   age171_m32            0.0000     1.0466E+01     2.5259   0.7139    93.3802
 47      0.0000     0.0000E+00    0.0000E+00    1.000000E+10  0.00040  3.972E-05    0   0.4948   age181_m32            0.0000     1.2494E+01     2.6873   0.6580    91.8545
 48      0.0000     0.0000E+00    0.0000E+00    1.300000E+10  0.00040  3.283E-05    0   0.4870   age193_m32            0.0000     6.1386E+00     2.2317   0.5987    95.2760
 49      0.0000     0.0000E+00    0.0000E+00    1.500000E+10  0.00040  2.925E-05    0   0.4854   age201_m32            0.0000     4.1996E+00     2.0703   0.5708    97.3134
 50      0.0009     3.1868E-03    2.9764E-03    1.800000E+10  0.00040  2.469E-05    0   0.4819   age213_m32            0.0000     3.9799E+00     2.0761   0.5272    98.0028
 51      0.0000     0.0000E+00    0.0000E+00    1.000000E+06  0.00400  1.114E-02    0   1.0000   age020_m42            0.0000     1.7344E+02     9.4485   4.0000    74.9004
 52      0.0068     1.4630E-05    2.8352E-05    3.160000E+06  0.00400  4.073E-02    0   0.9999   age045_m42            0.0000     3.5173E+01     4.3527   3.1391    88.1073
 53      0.0000     0.0000E+00    0.0000E+00    5.010000E+06  0.00400  2.534E-02    0   0.9488   age055_m42            0.0000     8.5392E+01     7.1488   3.5898    80.1279
 54      0.0000     0.0000E+00    0.0000E+00    6.610000E+06  0.00400  2.583E-02    0   0.9220   age061_m42            0.0000     2.3025E+01     3.6062   2.9275    90.1372
 55      0.0000     0.0000E+00    0.0000E+00    8.710000E+06  0.00400  1.706E-02    0   0.8983   age067_m42            0.0000     4.8231E+01     5.6327   2.7804    87.0482
 56      0.0000     0.0000E+00    0.0000E+00    1.000000E+07  0.00400  1.271E-02    0   0.8862   age070_m42            0.0000     7.4319E+01     7.3740   2.7841    84.8230
 57      0.0000     0.0000E+00    0.0000E+00    1.445000E+07  0.00400  7.666E-03    0   0.8571   age078_m42            0.0000     9.8738E+01     8.2328   3.2143    80.6024
 58      0.0000     0.0000E+00    0.0000E+00    2.512000E+07  0.00400  5.070E-03    0   0.8174   age090_m42            0.0000     6.6891E+01     6.9280   2.6570    86.3020
 59      0.0000     0.0000E+00    0.0000E+00    4.000000E+07  0.00400  3.505E-03    0   0.7851   age104_m42            0.0000     4.4955E+01     5.3275   2.3364    89.5111
 60      0.0000     0.0000E+00    0.0000E+00    5.500000E+07  0.00400  3.059E-03    0   0.7629   age110_m42            0.0000     1.1101E+01     2.5736   2.3290    97.0075
 61      0.0000     0.0000E+00    0.0000E+00    1.015200E+08  0.00400  2.268E-03    0   0.7207   age116_m42            0.0000     3.4952E+01     5.0365   2.1605   106.0303
 62      0.0000     0.0000E+00    0.0000E+00    1.609000E+08  0.00400  1.720E-03    0   0.6930   age120_m42            0.0000     4.4666E+01     5.6799   2.0171   107.8117
 63      0.0000     0.0000E+00    0.0000E+00    2.861200E+08  0.00400  1.079E-03    0   0.6613   age125_m42            0.0000     4.4986E+01     5.6706   1.6791   107.6786
 64      0.0000     0.0000E+00    0.0000E+00    5.088000E+08  0.00400  6.261E-04    0   0.6313   age130_m42            0.0000     6.0224E+01     6.2765   1.4699   111.3288
 65      0.0000     0.0000E+00    0.0000E+00    9.047900E+08  0.00400  3.535E-04    0   0.6024   age135_m42            0.0000     3.3338E+01     4.9010   1.0967   110.1563
 66      0.0000     0.0000E+00    0.0000E+00    1.278050E+09  0.00400  2.677E-04    0   0.5837   age138_m42            0.0000     2.4285E+01     4.5971   0.4768   104.5812
 67      0.0000     0.0000E+00    0.0000E+00    1.434000E+09  0.00400  1.910E-04    0   0.5716   age139_m42            0.0000     2.3033E+01     4.4939   0.6289   106.2002
 68      0.0000     0.0000E+00    0.0000E+00    2.500000E+09  0.00400  9.818E-05    0   0.5463   age150_m42            0.0000     2.2026E+01     4.3673   0.4103    99.0231
 69      0.0000     0.0000E+00    0.0000E+00    4.250000E+09  0.00400  5.491E-05    0   0.5269   age158_m42            0.0000     2.8090E+01     4.6528   0.3052    95.3772
 70      0.0000     0.0000E+00    0.0000E+00    6.250000E+09  0.00400  3.857E-05    0   0.5151   age166_m42            0.0000     3.7014E+01     5.2323   0.1920    93.6077
 71      0.0000     0.0000E+00    0.0000E+00    7.500000E+09  0.00400  3.243E-05    0   0.5110   age171_m42            0.0000     4.2923E+01     5.5938   0.1203    92.8596
 72      0.0000     0.0000E+00    0.0000E+00    1.000000E+10  0.00400  2.424E-05    0   0.5028   age181_m42            0.0000     5.1115E+01     6.0475   0.0492    91.9725
 73      0.0000     0.0000E+00    0.0000E+00    1.300000E+10  0.00400  1.883E-05    0   0.4927   age193_m42            0.0000     5.7571E+01     6.3677   0.0174    91.3899
 74      0.0000     0.0000E+00    0.0000E+00    1.500000E+10  0.00400  1.685E-05    0   0.4919   age201_m42            0.0000     5.5934E+01     6.2882   0.0200    91.4672
 75      0.0000     0.0000E+00    0.0000E+00    1.800000E+10  0.00400  1.452E-05    0   0.4874   age213_m42            0.0000     5.2918E+01     6.1474   0.0321    91.8113
 76      0.0000     0.0000E+00    0.0000E+00    1.000000E+06  0.00800  1.286E-02    0   1.0000   age020_m52            0.0000     1.5490E+02     8.8123   4.0000    76.2339
 77      0.0000     0.0000E+00    0.0000E+00    3.160000E+06  0.00800  3.147E-02    0   0.9966   age045_m52            0.0000     1.3965E+02     8.8594   4.0000    75.9967
 78      0.0000     0.0000E+00    0.0000E+00    5.010000E+06  0.00800  2.664E-02    0   0.9443   age055_m52            0.0000     1.0256E+02     7.7209   3.7287    78.4367
 79      0.0000     0.0000E+00    0.0000E+00    6.610000E+06  0.00800  2.151E-02    0   0.9177   age061_m52            0.0000     7.2004E+01     6.6204   2.4095    85.3550
 80      0.0000     0.0000E+00    0.0000E+00    8.710000E+06  0.00800  1.628E-02    0   0.8948   age067_m52            0.0000     6.3300E+01     6.3922   2.7612    86.4951
 81      0.0000     0.0000E+00    0.0000E+00    1.000000E+07  0.00800  1.215E-02    0   0.8827   age070_m52            0.0000     7.6884E+01     7.0571   3.1113    84.2603
 82      0.0000     0.0000E+00    0.0000E+00    1.445000E+07  0.00800  8.739E-03    0   0.8552   age078_m52            0.0000     5.8798E+01     6.0348   3.1332    86.2880
 83      0.0012     1.9037E-05    3.0114E-05    2.512000E+07  0.00800  5.676E-03    0   0.8162   age090_m52            0.0000     2.8695E+01     4.4302   2.6822    93.1609
 84      0.0028     6.2391E-05    9.4814E-05    4.000000E+07  0.00800  3.939E-03    0   0.7841   age104_m52            0.0000     1.5769E+01     3.1171   2.5040    96.5660
 85      0.0000     0.0000E+00    0.0000E+00    5.500000E+07  0.00800  3.155E-03    0   0.7627   age110_m52            0.0000     1.1974E+01     2.6997   2.4552    99.2362
 86      0.0000     0.0000E+00    0.0000E+00    1.015200E+08  0.00800  2.206E-03    0   0.7226   age116_m52            0.0000     2.2697E+01     4.1221   2.2373   104.8522
 87      0.0000     0.0000E+00    0.0000E+00    1.609000E+08  0.00800  1.596E-03    0   0.6963   age120_m52            0.0000     3.3026E+01     4.9704   2.0171   106.9067
 88      0.0000     0.0000E+00    0.0000E+00    2.861200E+08  0.00800  1.002E-03    0   0.6665   age125_m52            0.0000     6.6948E+01     6.9628   1.7198   110.3521
 89      0.0000     0.0000E+00    0.0000E+00    5.088000E+08  0.00800  5.759E-04    0   0.6377   age130_m52            0.0000     8.3162E+01     7.7352   1.3853   114.0044
 90      0.0000     0.0000E+00    0.0000E+00    9.047900E+08  0.00800  2.972E-04    0   0.6086   age135_m52            0.0000     5.0173E+01     6.4743   0.8985   110.4737
 91      0.0000     0.0000E+00    0.0000E+00    1.278050E+09  0.00800  2.242E-04    0   0.5907   age138_m52            0.0000     3.7359E+01     5.6459   0.3267   106.7500
 92      0.0000     0.0000E+00    0.0000E+00    1.434000E+09  0.00800  1.645E-04    0   0.5787   age139_m52            0.0000     3.0706E+01     5.1848   0.4731   106.1264
 93      0.0000     0.0000E+00    0.0000E+00    2.500000E+09  0.00800  7.723E-05    0   0.5519   age150_m52            0.0000     4.0097E+01     5.7024   0.1675   100.8015
 94      0.0000     0.0000E+00    0.0000E+00    4.250000E+09  0.00800  4.151E-05    0   0.5320   age158_m52            0.0000     4.3434E+01     5.8078   0.1066    97.8752
 95      0.0000     0.0000E+00    0.0000E+00    6.250000E+09  0.00800  3.010E-05    0   0.5197   age166_m52            0.0000     5.8195E+01     6.5862  -0.0700    95.9062
 96      0.0000     0.0000E+00    0.0000E+00    7.500000E+09  0.00800  2.467E-05    0   0.5139   age171_m52            0.0000     6.2375E+01     6.7936  -0.1079    95.4117
 97      0.0000     0.0000E+00    0.0000E+00    1.000000E+10  0.00800  1.862E-05    0   0.5054   age181_m52            0.0000     7.5837E+01     7.4406  -0.2279    94.7710
