###################################################################
## OUTPUT of StarlightChains_v04.for    [Cid@UFSC - 01/Apr/2007] ##
###################################################################

## Some input info
NGC6218_a_1.cxt                          [arq_obs]
Base.BC03.S                              [arq_base]
NGC6218_a_1.msk                          [arq_masks]
StCv04.C99.config                        [arq_config]
  150                                    [N_base]
    0                                    [N_YAV_components = # of components with extra extinction!]
    0                                    [i_FitPowerLaw (1/0 = Yes/No)]
-9.99                                    [alpha_PowerLaw]
CCM                                      [red_law_option]
 1.458241                                [q_norm = A(l_norm)/A(V)]

## (Re)Sampling Parameters
 3359.00                                 [l_ini (A)]
 6428.00                                 [l_fin (A)]
    1.00                                 [dl    (A)]     (OBS: dl_cushion =    50.00 A)

## Normalization info
 4020.00                                 [l_norm (A) - for base]
 4010.00                                 [llow_norm (A) - window for f_obs]
 4060.00                                 [lupp_norm (A) - window for f_obs]
1.427242E-14                             [fobs_norm (in input units)]

## S/N
 4730.00                                 [llow_SN (A) - window for S/N]
 4780.00                                 [lupp_SN (A) - window for S/N]
  89.798                                 [S/N in S/N window]
  81.145                                 [S/N in norm. window]
  59.740                                 [S/N_err in S/N window]
  53.984                                 [S/N_err in norm. window]
  1.0000                                 [fscale_chi2]

## etc...
  2147483625                             [idum_orig]
  3066                                   [NOl_eff]
  2468                                   [Nl_eff]
   598    NSIGMA                         [Ntot_cliped & clip_method]
  4954810                                [Nglobal_steps]
   7                                     [N_chains]
  32                                     [NEX0s_base = N_base in EX0s-fits]
 0   0   1      282   2.0   8.250E+02    [Clip-Bug, RC-Crash & Burn-In warning-flags, n_censored_weights, wei_nsig_threshold & wei_limit]
   167    167.580    167.563      0.016  [idt_all, wdt_TotTime, wdt_UsrTime & wdt_SysTime (sec)]

## Synthesis Results - Best model ##

 1.48447E+00                             [chi2/Nl_eff]
     1.53529                             [adev (%)]

   100.07422                             [sum-of-x (%)]
 2.73403E-14                             [Flux_tot (units of input spectrum!)]
 4.17258E-10                             [Mini_tot (???)]
 2.13209E-10                             [Mcor_tot (???)]

 -12.59                                  [v0_min  (km/s)]
  59.21                                  [vd_min  (km/s)]
 0.4834                                  [AV_min  (mag)]
 0.0000                                  [YAV_min (mag)]

# j     x_j(%)      Mini_j(%)     Mcor_j(%)     age_j(yr)     Z_j      (L/M)_j    YAV?  Mstars   component_j        a/Fe...       SSP_chi2r SSP_adev(%)   SSP_AV   SSP_x(%)
  1      0.7564     6.0691E-03    1.1877E-02    1.000000E+06  0.00010  8.160E-03    0   1.0000   age020_m22            0.0000     1.1172E+02    10.8728   4.0000    69.0570
  2      8.5988     1.1830E-02    2.3152E-02    3.160000E+06  0.00010  4.759E-02    0   1.0000   age045_m22            0.0000     1.6423E+01     3.3586   1.8019    95.6908
  3     10.5561     3.5774E-02    6.7085E-02    5.010000E+06  0.00010  1.932E-02    0   0.9582   age055_m22            0.0000     9.1269E+01    11.2451   2.3533    74.8356
  4      0.0000     0.0000E+00    0.0000E+00    6.610000E+06  0.00010  9.973E-03    0   0.9297   age061_m22            0.0000     1.0518E+02    11.4251   4.0000    71.5219
  5      0.0000     0.0000E+00    0.0000E+00    8.710000E+06  0.00010  7.690E-03    0   0.9030   age067_m22            0.0000     9.9509E+01    11.2438   4.0000    72.0580
  6      0.0000     0.0000E+00    0.0000E+00    1.000000E+07  0.00010  6.375E-03    0   0.8902   age070_m22            0.0000     9.5376E+01    10.9054   4.0000    72.4200
  7      0.0000     0.0000E+00    0.0000E+00    1.445000E+07  0.00010  4.874E-03    0   0.8589   age078_m22            0.0000     6.8928E+01     9.3654   3.7894    76.2905
  8      0.0000     0.0000E+00    0.0000E+00    2.512000E+07  0.00010  4.103E-03    0   0.8174   age090_m22            0.0000     2.9916E+01     5.6426   3.2604    86.4088
  9      0.0103     1.8482E-04    2.8322E-04    4.000000E+07  0.00010  3.654E-03    0   0.7830   age104_m22            0.0000     3.8338E+01     3.9755   2.8307    95.6624
 10      0.0030     6.3513E-05    9.4428E-05    5.500000E+07  0.00010  3.093E-03    0   0.7597   age110_m22            0.0000     4.5038E+01     3.9704   2.6712    99.3686
 11      0.0000     0.0000E+00    0.0000E+00    1.015200E+08  0.00010  2.431E-03    0   0.7138   age116_m22            0.0000     7.3788E+01     5.1057   2.2336   105.9229
 12      0.0000     0.0000E+00    0.0000E+00    1.609000E+08  0.00010  1.319E-03    0   0.6775   age120_m22            0.0000     5.8515E+01     5.6894   1.7234   110.0487
 13      0.0000     0.0000E+00    0.0000E+00    2.861200E+08  0.00010  1.075E-03    0   0.6412   age125_m22            0.0000     1.9333E+02    12.0820   1.4973   125.3427
 14      0.0000     0.0000E+00    0.0000E+00    5.088000E+08  0.00010  7.183E-04    0   0.6083   age130_m22            0.0000     2.4003E+02    14.1747   1.1633   131.5377
 15      0.0000     0.0000E+00    0.0000E+00    9.047900E+08  0.00010  4.524E-04    0   0.5785   age135_m22            0.0000     2.4103E+02    14.5143   0.9491   133.6728
 16      0.0007     1.5352E-04    1.6789E-04    1.278050E+09  0.00010  3.018E-04    0   0.5588   age138_m22            0.0000     9.8902E+01     9.4688   0.6566   121.9153
 17      0.0000     0.0000E+00    0.0000E+00    1.434000E+09  0.00010  2.691E-04    0   0.5532   age139_m22            0.0000     7.8086E+01     8.4709   0.5462   119.4170
 18      0.0000     0.0000E+00    0.0000E+00    2.500000E+09  0.00010  1.582E-04    0   0.5296   age150_m22            0.0000     6.4264E+01     7.3437   0.4796   118.3659
 19      0.0000     0.0000E+00    0.0000E+00    4.250000E+09  0.00010  1.007E-04    0   0.5110   age158_m22            0.0000     3.0200E+01     5.0389   0.4293   112.3638
 20      0.0000     0.0000E+00    0.0000E+00    6.250000E+09  0.00010  6.869E-05    0   0.4985   age166_m22            0.0000     1.0833E+01     3.0580   0.4649   105.7074
 21      0.0078     8.6691E-03    8.3658E-03    7.500000E+09  0.00010  5.873E-05    0   0.4931   age171_m22            0.0000     8.8847E+00     2.7099   0.4728   104.3594
 22      0.0080     1.1624E-02    1.1042E-02    1.000000E+10  0.00010  4.481E-05    0   0.4854   age181_m22            0.0000     8.1211E+00     2.6547   0.4363   103.9209
 23      0.0854     1.6024E-01    1.5024E-01    1.300000E+10  0.00010  3.489E-05    0   0.4791   age193_m22            0.0000     6.6863E+00     2.5114   0.3852   103.1291
 24      0.0000     0.0000E+00    0.0000E+00    1.500000E+10  0.00010  3.035E-05    0   0.4766   age201_m22            0.0000     5.9051E+00     2.4078   0.3511   102.7380
 25      1.5334     4.0000E+00    3.7066E+00    1.800000E+10  0.00010  2.510E-05    0   0.4735   age213_m22            0.0000     4.3476E+00     2.1529   0.2972   101.5545
 26      0.0000     0.0000E+00    0.0000E+00    1.000000E+06  0.00040  8.458E-03    0   1.0000   age020_m32            0.0000     1.1055E+02    10.7760   4.0000    69.7525
 27      0.0000     0.0000E+00    0.0000E+00    3.160000E+06  0.00040  3.973E-02    0   1.0000   age045_m32            0.0000     3.4165E+01     6.0495   3.1675    85.9805
 28      0.0000     0.0000E+00    0.0000E+00    5.010000E+06  0.00040  1.935E-02    0   0.9532   age055_m32            0.0000     7.4128E+01     9.9900   3.5204    76.3550
 29      0.0000     0.0000E+00    0.0000E+00    6.610000E+06  0.00040  1.204E-02    0   0.9243   age061_m32            0.0000     8.5431E+01    10.4866   3.8493    74.0899
 30      0.0000     0.0000E+00    0.0000E+00    8.710000E+06  0.00040  9.433E-03    0   0.9001   age067_m32            0.0000     7.5852E+01     9.8822   3.8063    75.4070
 31      0.0000     0.0000E+00    0.0000E+00    1.000000E+07  0.00040  8.053E-03    0   0.8877   age070_m32            0.0000     7.2294E+01     9.6285   3.7643    76.0409
 32      0.0000     0.0000E+00    0.0000E+00    1.445000E+07  0.00040  7.027E-03    0   0.8578   age078_m32            0.0000     4.1497E+01     7.1445   3.1657    83.4766
 33      0.0000     0.0000E+00    0.0000E+00    2.512000E+07  0.00040  4.707E-03    0   0.8166   age090_m32            0.0000     2.6627E+01     5.1446   2.7959    89.9106
 34      0.0000     0.0000E+00    0.0000E+00    4.000000E+07  0.00040  3.714E-03    0   0.7827   age104_m32            0.0000     3.0726E+01     3.8854   2.4944    96.7234
 35      0.0000     0.0000E+00    0.0000E+00    5.500000E+07  0.00040  2.982E-03    0   0.7593   age110_m32            0.0000     3.8369E+01     3.8925   2.3835    99.7720
 36      0.0000     0.0000E+00    0.0000E+00    1.015200E+08  0.00040  2.188E-03    0   0.7143   age116_m32            0.0000     1.0741E+02     7.2981   1.9010   112.5954
 37      0.0000     0.0000E+00    0.0000E+00    1.609000E+08  0.00040  1.690E-03    0   0.6856   age120_m32            0.0000     1.6745E+02    10.0367   1.5653   120.7119
 38      0.0000     0.0000E+00    0.0000E+00    2.861200E+08  0.00040  1.152E-03    0   0.6509   age125_m32            0.0000     2.0393E+02    12.6360   1.2181   127.9092
 39      0.0000     0.0000E+00    0.0000E+00    5.088000E+08  0.00040  7.331E-04    0   0.6182   age130_m32            0.0000     2.2128E+02    13.7702   1.0016   130.9518
 40      0.0000     0.0000E+00    0.0000E+00    9.047900E+08  0.00040  3.960E-04    0   0.5890   age135_m32            0.0000     1.0321E+02    10.0939   0.7272   121.9035
 41      0.0000     0.0000E+00    0.0000E+00    1.278050E+09  0.00040  2.854E-04    0   0.5687   age138_m32            0.0000     7.6870E+01     8.2554   0.5087   120.9672
 42      0.0000     0.0000E+00    0.0000E+00    1.434000E+09  0.00040  2.531E-04    0   0.5632   age139_m32            0.0000     7.4608E+01     8.0357   0.4548   120.6106
 43     32.0307     1.4094E+01    1.4856E+01    2.500000E+09  0.00040  1.488E-04    0   0.5386   age150_m32            0.0000     4.8852E+01     6.4501   0.2653   115.7382
 44     11.0779     7.9865E+00    8.1259E+00    4.250000E+09  0.00040  9.082E-05    0   0.5199   age158_m32            0.0000     1.0977E+01     3.2093   0.3117   106.3988
 45      1.8709     1.9254E+00    1.9127E+00    6.250000E+09  0.00040  6.362E-05    0   0.5076   age166_m32            0.0000     2.9158E+00     1.7735   0.3784    98.7561
 46      6.5132     8.0631E+00    7.9325E+00    7.500000E+09  0.00040  5.289E-05    0   0.5027   age171_m32            0.0000     3.4109E+00     1.8434   0.3571    96.9460
 47      3.8899     6.4121E+00    6.2091E+00    1.000000E+10  0.00040  3.972E-05    0   0.4948   age181_m32            0.0000     4.3198E+00     1.9527   0.3002    95.4433
 48      0.0179     3.5693E-02    3.4018E-02    1.300000E+10  0.00040  3.283E-05    0   0.4870   age193_m32            0.0000     3.1720E+00     1.9959   0.2007   100.2759
 49      0.0000     0.0000E+00    0.0000E+00    1.500000E+10  0.00040  2.925E-05    0   0.4854   age201_m32            0.0000     5.0419E+00     2.5055   0.1480   103.2267
 50      0.0000     0.0000E+00    0.0000E+00    1.800000E+10  0.00040  2.469E-05    0   0.4819   age213_m32            0.0000     6.3353E+00     2.7912   0.0922   104.3485
 51      0.0000     0.0000E+00    0.0000E+00    1.000000E+06  0.00400  1.114E-02    0   1.0000   age020_m42            0.0000     1.0435E+02    11.1544   4.0000    70.0111
 52      0.0010     1.5797E-06    3.0912E-06    3.160000E+06  0.00400  4.073E-02    0   0.9999   age045_m42            0.0000     2.2159E+01     4.5300   2.8123    90.3878
 53      0.0000     0.0000E+00    0.0000E+00    5.010000E+06  0.00400  2.534E-02    0   0.9488   age055_m42            0.0000     4.9053E+01     7.8277   3.3422    80.2263
 54      0.0007     1.8735E-06    3.3805E-06    6.610000E+06  0.00400  2.583E-02    0   0.9220   age061_m42            0.0000     2.7046E+01     3.9662   2.5986    92.4181
 55      0.0000     0.0000E+00    0.0000E+00    8.710000E+06  0.00400  1.706E-02    0   0.8983   age067_m42            0.0000     3.0462E+01     5.8749   2.5122    87.5889
 56      0.0000     0.0000E+00    0.0000E+00    1.000000E+07  0.00400  1.271E-02    0   0.8862   age070_m42            0.0000     4.1682E+01     7.6377   2.5492    84.4252
 57      0.0000     0.0000E+00    0.0000E+00    1.445000E+07  0.00400  7.666E-03    0   0.8571   age078_m42            0.0000     5.7332E+01     8.8309   3.0015    79.8021
 58      0.0000     0.0000E+00    0.0000E+00    2.512000E+07  0.00400  5.070E-03    0   0.8174   age090_m42            0.0000     3.4776E+01     6.9630   2.3962    86.8224
 59      0.0000     0.0000E+00    0.0000E+00    4.000000E+07  0.00400  3.505E-03    0   0.7851   age104_m42            0.0000     2.1546E+01     4.8252   2.0038    92.4733
 60      0.0000     0.0000E+00    0.0000E+00    5.500000E+07  0.00400  3.059E-03    0   0.7629   age110_m42            0.0000     2.8748E+01     3.5668   1.8750   104.0600
 61      0.0000     0.0000E+00    0.0000E+00    1.015200E+08  0.00400  2.268E-03    0   0.7207   age116_m42            0.0000     1.3396E+02     9.6809   1.4987   120.8062
 62      0.0000     0.0000E+00    0.0000E+00    1.609000E+08  0.00400  1.720E-03    0   0.6930   age120_m42            0.0000     1.4318E+02    10.7647   1.3054   124.7422
 63      2.7316     1.6576E-01    2.1452E-01    2.861200E+08  0.00400  1.079E-03    0   0.6613   age125_m42            0.0000     1.3028E+02    10.9142   0.9454   125.7026
 64      0.0000     0.0000E+00    0.0000E+00    5.088000E+08  0.00400  6.261E-04    0   0.6313   age130_m42            0.0000     1.5782E+02    11.9610   0.6987   131.2778
 65      0.0000     0.0000E+00    0.0000E+00    9.047900E+08  0.00400  3.535E-04    0   0.6024   age135_m42            0.0000     8.2640E+01     9.0714   0.4398   125.5688
 66      0.0000     0.0000E+00    0.0000E+00    1.278050E+09  0.00400  2.677E-04    0   0.5837   age138_m42            0.0000     3.9747E+01     6.6682  -0.0905   116.1770
 67      0.0000     0.0000E+00    0.0000E+00    1.434000E+09  0.00400  1.910E-04    0   0.5716   age139_m42            0.0000     4.1631E+01     7.5992   0.0000   119.1397
 68      1.9140     1.2764E+00    1.3646E+00    2.500000E+09  0.00400  9.818E-05    0   0.5463   age150_m42            0.0000     2.1205E+01     4.7579  -0.0774   107.3211
 69      0.3665     4.3699E-01    4.5060E-01    4.250000E+09  0.00400  5.491E-05    0   0.5269   age158_m42            0.0000     2.6498E+01     4.2117  -0.1341   101.8400
 70      0.0000     0.0000E+00    0.0000E+00    6.250000E+09  0.00400  3.857E-05    0   0.5151   age166_m42            0.0000     3.4419E+01     4.6740  -0.2396    99.7330
 71      5.9375     1.1988E+01    1.1988E+01    7.500000E+09  0.00400  3.243E-05    0   0.5110   age171_m42            0.0000     4.0887E+01     5.0400  -0.3114    98.9478
 72      7.5841     2.0486E+01    2.0158E+01    1.000000E+10  0.00400  2.424E-05    0   0.5028   age181_m42            0.0000     5.3044E+01     5.5066  -0.3808    97.9609
 73      0.0072     2.5066E-02    2.4169E-02    1.300000E+10  0.00400  1.883E-05    0   0.4927   age193_m42            0.0000     6.6413E+01     5.8134  -0.4102    97.2977
 74      0.0000     0.0000E+00    0.0000E+00    1.500000E+10  0.00400  1.685E-05    0   0.4919   age201_m42            0.0000     6.2825E+01     5.7048  -0.4055    97.3146
 75      0.0000     0.0000E+00    0.0000E+00    1.800000E+10  0.00400  1.452E-05    0   0.4874   age213_m42            0.0000     5.7251E+01     5.5243  -0.3932    97.6464
 76      0.0000     0.0000E+00    0.0000E+00    1.000000E+06  0.00800  1.286E-02    0   1.0000   age020_m52            0.0000     9.1848E+01    10.4428   3.9521    72.2846
 77      0.0000     0.0000E+00    0.0000E+00    3.160000E+06  0.00800  3.147E-02    0   0.9966   age045_m52            0.0000     8.5240E+01    10.1944   3.8566    73.9471
 78      0.0000     0.0000E+00    0.0000E+00    5.010000E+06  0.00800  2.664E-02    0   0.9443   age055_m52            0.0000     6.0500E+01     8.4257   3.4811    78.7660
 79      0.0000     0.0000E+00    0.0000E+00    6.610000E+06  0.00800  2.151E-02    0   0.9177   age061_m52            0.0000     3.4846E+01     6.6762   2.1322    86.4596
 80      0.0000     0.0000E+00    0.0000E+00    8.710000E+06  0.00800  1.628E-02    0   0.8948   age067_m52            0.0000     3.3271E+01     6.3142   2.4775    87.7979
 81      0.0000     0.0000E+00    0.0000E+00    1.000000E+07  0.00800  1.215E-02    0   0.8827   age070_m52            0.0000     4.2138E+01     7.1140   2.8425    85.1856
 82      0.0000     0.0000E+00    0.0000E+00    1.445000E+07  0.00800  8.739E-03    0   0.8552   age078_m52            0.0000     3.6591E+01     6.0485   2.8411    87.8611
 83      0.0000     0.0000E+00    0.0000E+00    2.512000E+07  0.00800  5.676E-03    0   0.8162   age090_m52            0.0000     3.7298E+01     4.4898   2.3364    96.3170
 84      0.0000     0.0000E+00    0.0000E+00    4.000000E+07  0.00800  3.939E-03    0   0.7841   age104_m52            0.0000     4.0086E+01     3.8252   2.0842   102.2941
 85      0.0000     0.0000E+00    0.0000E+00    5.500000E+07  0.00800  3.155E-03    0   0.7627   age110_m52            0.0000     5.2542E+01     4.5531   1.9755   107.1676
 86      0.0000     0.0000E+00    0.0000E+00    1.015200E+08  0.00800  2.206E-03    0   0.7226   age116_m52            0.0000     9.4565E+01     7.9983   1.6348   117.5695
 87      0.0000     0.0000E+00    0.0000E+00    1.609000E+08  0.00800  1.596E-03    0   0.6963   age120_m52            0.0000     1.1154E+02     9.4805   1.3561   122.1094
 88      0.0000     0.0000E+00    0.0000E+00    2.861200E+08  0.00800  1.002E-03    0   0.6665   age125_m52            0.0000     1.7350E+02    13.0665   0.8994   132.1054
 89      0.0000     0.0000E+00    0.0000E+00    5.088000E+08  0.00800  5.759E-04    0   0.6377   age130_m52            0.0000     1.7962E+02    14.1268   0.5033   138.8983
 90      0.0000     0.0000E+00    0.0000E+00    9.047900E+08  0.00800  2.972E-04    0   0.6086   age135_m52            0.0000     8.3750E+01    10.6076   0.1617   129.0057
 91      0.0000     0.0000E+00    0.0000E+00    1.278050E+09  0.00800  2.242E-04    0   0.5907   age138_m52            0.0000     5.0340E+01     7.4726  -0.2615   119.3075
 92      0.0000     0.0000E+00    0.0000E+00    1.434000E+09  0.00800  1.645E-04    0   0.5787   age139_m52            0.0000     4.1422E+01     6.7404  -0.0963   117.9426
 93      0.0000     0.0000E+00    0.0000E+00    2.500000E+09  0.00800  7.723E-05    0   0.5519   age150_m52            0.0000     4.7544E+01     5.8784  -0.3265   109.4258
 94      0.0000     0.0000E+00    0.0000E+00    4.250000E+09  0.00800  4.151E-05    0   0.5320   age158_m52            0.0000     4.5632E+01     5.5799  -0.3514   104.9846
 95      0.0000     0.0000E+00    0.0000E+00    6.250000E+09  0.00800  3.010E-05    0   0.5197   age166_m52            0.0000     6.5840E+01     6.2719  -0.5248   102.7966
 96      0.0000     0.0000E+00    0.0000E+00    7.500000E+09  0.00800  2.467E-05    0   0.5139   age171_m52            0.0000     7.2208E+01     6.4935  -0.5642   102.3318
 97      1.0706     3.7648E+00    3.7237E+00    1.000000E+10  0.00800  1.862E-05    0   0.5054   age181_m52            0.0000     9.2479E+01     7.2532  -0.6974   102.0912
