###################################################################
## OUTPUT of StarlightChains_v04.for    [Cid@UFSC - 01/Apr/2007] ##
###################################################################

## Some input info
NGC6171_b_1.cxt                          [arq_obs]
Base.BC03.S                              [arq_base]
NGC6171_b_1.msk                          [arq_masks]
StCv04.C99.config                        [arq_config]
  150                                    [N_base]
    0                                    [N_YAV_components = # of components with extra extinction!]
    0                                    [i_FitPowerLaw (1/0 = Yes/No)]
-9.99                                    [alpha_PowerLaw]
CCM                                      [red_law_option]
 1.458241                                [q_norm = A(l_norm)/A(V)]

## (Re)Sampling Parameters
 3359.00                                 [l_ini (A)]
 6428.00                                 [l_fin (A)]
    1.00                                 [dl    (A)]     (OBS: dl_cushion =    50.00 A)

## Normalization info
 4020.00                                 [l_norm (A) - for base]
 4010.00                                 [llow_norm (A) - window for f_obs]
 4060.00                                 [lupp_norm (A) - window for f_obs]
4.350830E-15                             [fobs_norm (in input units)]

## S/N
 4730.00                                 [llow_SN (A) - window for S/N]
 4780.00                                 [lupp_SN (A) - window for S/N]
  48.767                                 [S/N in S/N window]
  32.704                                 [S/N in norm. window]
 245.356                                 [S/N_err in S/N window]
 164.540                                 [S/N_err in norm. window]
  1.0000                                 [fscale_chi2]

## etc...
  2147483626                             [idum_orig]
  3066                                   [NOl_eff]
   906                                   [Nl_eff]
  2160    NSIGMA                         [Ntot_cliped & clip_method]
  4045580                                [Nglobal_steps]
   7                                     [N_chains]
  22                                     [NEX0s_base = N_base in EX0s-fits]
 0   0   1      191   2.0   3.637E+02    [Clip-Bug, RC-Crash & Burn-In warning-flags, n_censored_weights, wei_nsig_threshold & wei_limit]
   168    168.197    168.189      0.008  [idt_all, wdt_TotTime, wdt_UsrTime & wdt_SysTime (sec)]

## Synthesis Results - Best model ##

 2.87721E+00                             [chi2/Nl_eff]
     1.14219                             [adev (%)]

    98.35687                             [sum-of-x (%)]
 2.81811E-14                             [Flux_tot (units of input spectrum!)]
 9.42167E-10                             [Mini_tot (???)]
 4.68948E-10                             [Mcor_tot (???)]

 -22.71                                  [v0_min  (km/s)]
   3.69                                  [vd_min  (km/s)]
 1.4034                                  [AV_min  (mag)]
 0.0000                                  [YAV_min (mag)]

# j     x_j(%)      Mini_j(%)     Mcor_j(%)     age_j(yr)     Z_j      (L/M)_j    YAV?  Mstars   component_j        a/Fe...       SSP_chi2r SSP_adev(%)   SSP_AV   SSP_x(%)
  1      0.0000     9.0954E-08    1.8274E-07    1.000000E+06  0.00010  8.160E-03    0   1.0000   age020_m22            0.0000     2.2960E+03    23.9785   4.0000    99.7575
  2      2.5581     1.6346E-03    3.2842E-03    3.160000E+06  0.00010  4.759E-02    0   1.0000   age045_m22            0.0000     1.6436E+02     5.0174   2.9357    99.2048
  3     17.6021     2.7707E-02    5.3339E-02    5.010000E+06  0.00010  1.932E-02    0   0.9582   age055_m22            0.0000     3.9217E+02    10.5798   3.1391    89.0707
  4      0.0000     0.0000E+00    0.0000E+00    6.610000E+06  0.00010  9.973E-03    0   0.9297   age061_m22            0.0000     2.1639E+03    23.2074   4.0000   102.4043
  5      0.0000     0.0000E+00    0.0000E+00    8.710000E+06  0.00010  7.690E-03    0   0.9030   age067_m22            0.0000     2.1095E+03    22.8843   4.0000   102.7290
  6      0.0000     0.0000E+00    0.0000E+00    1.000000E+07  0.00010  6.375E-03    0   0.8902   age070_m22            0.0000     2.1461E+03    22.9415   4.0000   103.0961
  7      0.0000     0.0000E+00    0.0000E+00    1.445000E+07  0.00010  4.874E-03    0   0.8589   age078_m22            0.0000     1.4013E+03    18.8045   4.0000   102.8949
  8      0.0000     0.0000E+00    0.0000E+00    2.512000E+07  0.00010  4.103E-03    0   0.8174   age090_m22            0.0000     4.5186E+02    10.3820   4.0000   100.5604
  9      0.0000     0.0000E+00    0.0000E+00    4.000000E+07  0.00010  3.654E-03    0   0.7830   age104_m22            0.0000     3.2387E+02     7.3995   4.0000    97.6326
 10      0.0000     0.0000E+00    0.0000E+00    5.500000E+07  0.00010  3.093E-03    0   0.7597   age110_m22            0.0000     3.4625E+02     7.7021   3.9438    97.9119
 11      0.0000     0.0000E+00    0.0000E+00    1.015200E+08  0.00010  2.431E-03    0   0.7138   age116_m22            0.0000     4.2158E+02     8.5484   3.6231   100.1822
 12      0.0000     0.0000E+00    0.0000E+00    1.609000E+08  0.00010  1.319E-03    0   0.6775   age120_m22            0.0000     4.0379E+02     8.1070   3.1515   102.4373
 13      0.0000     0.0000E+00    0.0000E+00    2.861200E+08  0.00010  1.075E-03    0   0.6412   age125_m22            0.0000     7.8372E+02    11.3525   3.2705   104.1090
 14      0.0000     0.0000E+00    0.0000E+00    5.088000E+08  0.00010  7.183E-04    0   0.6083   age130_m22            0.0000     9.1456E+02    12.3630   3.0557   105.3096
 15      0.0000     0.0000E+00    0.0000E+00    9.047900E+08  0.00010  4.524E-04    0   0.5785   age135_m22            0.0000     9.2796E+02    12.5300   2.8594   106.4323
 16      0.0000     0.0000E+00    0.0000E+00    1.278050E+09  0.00010  3.018E-04    0   0.5588   age138_m22            0.0000     5.3892E+02     9.4845   2.2994   105.7125
 17      0.0000     0.0000E+00    0.0000E+00    1.434000E+09  0.00010  2.691E-04    0   0.5532   age139_m22            0.0000     4.6958E+02     8.8509   2.1368   105.3867
 18      0.0000     0.0000E+00    0.0000E+00    2.500000E+09  0.00010  1.582E-04    0   0.5296   age150_m22            0.0000     4.2248E+02     8.5061   2.0125   106.5219
 19      0.0000     0.0000E+00    0.0000E+00    4.250000E+09  0.00010  1.007E-04    0   0.5110   age158_m22            0.0000     2.8600E+02     7.0629   1.8412   105.4114
 20      0.0000     0.0000E+00    0.0000E+00    6.250000E+09  0.00010  6.869E-05    0   0.4985   age166_m22            0.0000     1.8031E+02     5.5996   1.7613   103.2715
 21      0.0000     0.0000E+00    0.0000E+00    7.500000E+09  0.00010  5.873E-05    0   0.4931   age171_m22            0.0000     1.6611E+02     5.4189   1.7426   102.9497
 22      0.0000     0.0000E+00    0.0000E+00    1.000000E+10  0.00010  4.481E-05    0   0.4854   age181_m22            0.0000     1.6066E+02     5.3268   1.7042   102.5924
 23      0.0000     0.0000E+00    0.0000E+00    1.300000E+10  0.00010  3.489E-05    0   0.4791   age193_m22            0.0000     1.4859E+02     5.1041   1.6467   102.0637
 24      0.0000     0.0000E+00    0.0000E+00    1.500000E+10  0.00010  3.035E-05    0   0.4766   age201_m22            0.0000     1.4033E+02     4.9616   1.6069   101.9101
 25      0.0064     7.7451E-03    7.3680E-03    1.800000E+10  0.00010  2.510E-05    0   0.4735   age213_m22            0.0000     1.2204E+02     4.6230   1.5352   101.4112
 26      0.0000     0.0000E+00    0.0000E+00    1.000000E+06  0.00040  8.458E-03    0   1.0000   age020_m32            0.0000     2.3584E+03    24.1403   4.0000   100.7586
 27      0.0000     0.0000E+00    0.0000E+00    3.160000E+06  0.00040  3.973E-02    0   1.0000   age045_m32            0.0000     3.3025E+02     9.0285   4.0000    97.9754
 28      0.0000     0.0000E+00    0.0000E+00    5.010000E+06  0.00040  1.935E-02    0   0.9532   age055_m32            0.0000     7.1862E+02    14.3651   4.0000    97.5233
 29      0.0000     0.0000E+00    0.0000E+00    6.610000E+06  0.00040  1.204E-02    0   0.9243   age061_m32            0.0000     1.5747E+03    20.1134   4.0000   102.0332
 30      0.0000     0.0000E+00    0.0000E+00    8.710000E+06  0.00040  9.433E-03    0   0.9001   age067_m32            0.0000     1.4542E+03    19.2980   4.0000   102.4506
 31      0.0000     0.0000E+00    0.0000E+00    1.000000E+07  0.00040  8.053E-03    0   0.8877   age070_m32            0.0000     1.3288E+03    18.5190   4.0000   102.2437
 32      0.0000     0.0000E+00    0.0000E+00    1.445000E+07  0.00040  7.027E-03    0   0.8578   age078_m32            0.0000     3.2586E+02     9.2847   4.0000    95.7500
 33      0.0000     0.0000E+00    0.0000E+00    2.512000E+07  0.00040  4.707E-03    0   0.8166   age090_m32            0.0000     2.5583E+02     7.0647   3.8493    95.9685
 34      0.0000     0.0000E+00    0.0000E+00    4.000000E+07  0.00040  3.714E-03    0   0.7827   age104_m32            0.0000     2.8814E+02     6.9782   3.6813    98.3251
 35      0.0000     0.0000E+00    0.0000E+00    5.500000E+07  0.00040  2.982E-03    0   0.7593   age110_m32            0.0000     3.1949E+02     7.3463   3.6346    99.0678
 36      0.0000     0.0000E+00    0.0000E+00    1.015200E+08  0.00040  2.188E-03    0   0.7143   age116_m32            0.0000     5.1779E+02     9.3218   3.4199   101.8054
 37      0.0000     0.0000E+00    0.0000E+00    1.609000E+08  0.00040  1.690E-03    0   0.6856   age120_m32            0.0000     6.6411E+02    10.4781   3.2372   103.7556
 38      0.0000     0.0000E+00    0.0000E+00    2.861200E+08  0.00040  1.152E-03    0   0.6509   age125_m32            0.0000     8.0917E+02    11.5995   3.0298   105.0055
 39      0.0000     0.0000E+00    0.0000E+00    5.088000E+08  0.00040  7.331E-04    0   0.6182   age130_m32            0.0000     8.6678E+02    12.0576   2.8758   105.4485
 40      0.0000     0.0000E+00    0.0000E+00    9.047900E+08  0.00040  3.960E-04    0   0.5890   age135_m32            0.0000     5.7002E+02     9.8402   2.3939   104.8657
 41      0.0000     0.0000E+00    0.0000E+00    1.278050E+09  0.00040  2.854E-04    0   0.5687   age138_m32            0.0000     4.7221E+02     9.0546   2.0865   107.2236
 42      0.0000     0.0000E+00    0.0000E+00    1.434000E+09  0.00040  2.531E-04    0   0.5632   age139_m32            0.0000     4.5871E+02     8.9220   2.0244   107.2288
 43      0.0000     0.0000E+00    0.0000E+00    2.500000E+09  0.00040  1.488E-04    0   0.5386   age150_m32            0.0000     3.5386E+02     7.8578   1.7581   105.6487
 44      0.0000     0.0000E+00    0.0000E+00    4.250000E+09  0.00040  9.082E-05    0   0.5199   age158_m32            0.0000     1.7266E+02     5.4596   1.6283   103.2861
 45     10.9244     5.2219E+00    5.3254E+00    6.250000E+09  0.00040  6.362E-05    0   0.5076   age166_m32            0.0000     7.8514E+01     3.7221   1.5543   100.9150
 46     18.0947     1.0404E+01    1.0508E+01    7.500000E+09  0.00040  5.289E-05    0   0.5027   age171_m32            0.0000     6.4365E+01     3.3617   1.5137    99.7787
 47     16.7197     1.2801E+01    1.2726E+01    1.000000E+10  0.00040  3.972E-05    0   0.4948   age181_m32            0.0000     5.6303E+01     3.1153   1.4510    98.4359
 48      0.0017     1.5768E-03    1.5428E-03    1.300000E+10  0.00040  3.283E-05    0   0.4870   age193_m32            0.0000     8.7610E+01     3.8975   1.4242   100.7241
 49      0.0000     0.0000E+00    0.0000E+00    1.500000E+10  0.00040  2.925E-05    0   0.4854   age201_m32            0.0000     1.1484E+02     4.4898   1.4169   102.0190
 50      0.0079     9.6840E-03    9.3759E-03    1.800000E+10  0.00040  2.469E-05    0   0.4819   age213_m32            0.0000     1.2504E+02     4.6953   1.3807   102.4345
 51      0.0000     0.0000E+00    0.0000E+00    1.000000E+06  0.00400  1.114E-02    0   1.0000   age020_m42            0.0000     2.0376E+03    22.6258   4.0000   100.1010
 52      0.0000     0.0000E+00    0.0000E+00    3.160000E+06  0.00400  4.073E-02    0   0.9999   age045_m42            0.0000     2.0218E+02     6.1878   3.8922    95.5164
 53      0.0000     0.0000E+00    0.0000E+00    5.010000E+06  0.00400  2.534E-02    0   0.9488   age055_m42            0.0000     4.4124E+02    11.2913   4.0000    96.9060
 54      0.0000     0.0000E+00    0.0000E+00    6.610000E+06  0.00400  2.583E-02    0   0.9220   age061_m42            0.0000     2.2283E+02     6.2953   3.7273    96.0577
 55      0.0000     0.0000E+00    0.0000E+00    8.710000E+06  0.00400  1.706E-02    0   0.8983   age067_m42            0.0000     2.0889E+02     6.8399   3.5254    95.3160
 56      0.0000     0.0000E+00    0.0000E+00    1.000000E+07  0.00400  1.271E-02    0   0.8862   age070_m42            0.0000     2.5050E+02     8.0734   3.4952    94.5033
 57      0.0000     0.0000E+00    0.0000E+00    1.445000E+07  0.00400  7.666E-03    0   0.8571   age078_m42            0.0000     2.9244E+02     9.2655   3.8699    91.8162
 58      0.0000     0.0000E+00    0.0000E+00    2.512000E+07  0.00400  5.070E-03    0   0.8174   age090_m42            0.0000     2.0791E+02     7.3987   3.3673    96.1554
 59      0.0000     0.0000E+00    0.0000E+00    4.000000E+07  0.00400  3.505E-03    0   0.7851   age104_m42            0.0000     1.3855E+02     5.7446   3.0711    98.5986
 60      0.0000     0.0000E+00    0.0000E+00    5.500000E+07  0.00400  3.059E-03    0   0.7629   age110_m42            0.0000     2.3068E+02     5.7921   3.1829   101.4053
 61      0.0000     0.0000E+00    0.0000E+00    1.015200E+08  0.00400  2.268E-03    0   0.7207   age116_m42            0.0000     5.7465E+02     9.5910   3.1551   104.5124
 62      0.0000     0.0000E+00    0.0000E+00    1.609000E+08  0.00400  1.720E-03    0   0.6930   age120_m42            0.0000     6.2892E+02    10.0936   3.0232   105.6613
 63      0.0000     0.0000E+00    0.0000E+00    2.861200E+08  0.00400  1.079E-03    0   0.6613   age125_m42            0.0000     6.1723E+02    10.1659   2.6712   106.1252
 64      0.0000     0.0000E+00    0.0000E+00    5.088000E+08  0.00400  6.261E-04    0   0.6313   age130_m42            0.0000     6.9205E+02    10.8321   2.4826   108.8637
 65      0.0000     0.0000E+00    0.0000E+00    9.047900E+08  0.00400  3.535E-04    0   0.6024   age135_m42            0.0000     4.6256E+02     8.9748   2.0664   109.6683
 66      0.0029     3.3191E-04    3.8924E-04    1.278050E+09  0.00400  2.677E-04    0   0.5837   age138_m42            0.0000     2.5094E+02     7.3714   1.3793   107.2929
 67      0.0000     0.0000E+00    0.0000E+00    1.434000E+09  0.00400  1.910E-04    0   0.5716   age139_m42            0.0000     2.8860E+02     7.5504   1.5507   107.9963
 68      0.0000     0.0000E+00    0.0000E+00    2.500000E+09  0.00400  9.818E-05    0   0.5463   age150_m42            0.0000     1.4837E+02     5.8112   1.2574   103.8044
 69      1.8015     9.9772E-01    1.0562E+00    4.250000E+09  0.00400  5.491E-05    0   0.5269   age158_m42            0.0000     1.1110E+02     5.1062   1.1182   101.5213
 70      0.0000     0.0000E+00    0.0000E+00    6.250000E+09  0.00400  3.857E-05    0   0.5151   age166_m42            0.0000     1.3434E+02     5.4957   0.9948   100.1009
 71      2.5436     2.3853E+00    2.4488E+00    7.500000E+09  0.00400  3.243E-05    0   0.5110   age171_m42            0.0000     1.5979E+02     5.8867   0.9203    99.4386
 72      4.9047     6.1533E+00    6.2159E+00    1.000000E+10  0.00400  2.424E-05    0   0.5028   age181_m42            0.0000     1.9900E+02     6.4258   0.8449    98.6989
 73      3.8940     6.2889E+00    6.2253E+00    1.300000E+10  0.00400  1.883E-05    0   0.4927   age193_m42            0.0000     2.3263E+02     6.8098   0.8057    98.3928
 74      6.7578     1.2196E+01    1.2053E+01    1.500000E+10  0.00400  1.685E-05    0   0.4919   age201_m42            0.0000     2.2277E+02     6.6580   0.8088    98.4540
 75      3.7746     7.9054E+00    7.7413E+00    1.800000E+10  0.00400  1.452E-05    0   0.4874   age213_m42            0.0000     2.0606E+02     6.3988   0.8212    98.8126
 76      0.0000     0.0000E+00    0.0000E+00    1.000000E+06  0.00800  1.286E-02    0   1.0000   age020_m52            0.0000     1.9069E+03    21.7607   4.0000   101.6052
 77      0.0000     0.0000E+00    0.0000E+00    3.160000E+06  0.00800  3.147E-02    0   0.9966   age045_m52            0.0000     1.5950E+03    20.1837   4.0000   101.8458
 78      0.0000     0.0000E+00    0.0000E+00    5.010000E+06  0.00800  2.664E-02    0   0.9443   age055_m52            0.0000     6.6081E+02    13.6726   4.0000    98.7477
 79      0.0000     0.0000E+00    0.0000E+00    6.610000E+06  0.00800  2.151E-02    0   0.9177   age061_m52            0.0000     1.5446E+02     6.7999   3.0864    96.2119
 80      0.0000     0.0000E+00    0.0000E+00    8.710000E+06  0.00800  1.628E-02    0   0.8948   age067_m52            0.0000     2.0931E+02     7.2869   3.4715    96.2336
 81      0.0000     0.0000E+00    0.0000E+00    1.000000E+07  0.00800  1.215E-02    0   0.8827   age070_m52            0.0000     2.5528E+02     8.2404   3.8004    94.6154
 82      0.0000     0.0000E+00    0.0000E+00    1.445000E+07  0.00800  8.739E-03    0   0.8552   age078_m52            0.0000     2.5511E+02     7.6860   3.8529    95.4938
 83      0.0000     0.0000E+00    0.0000E+00    2.512000E+07  0.00800  5.676E-03    0   0.8162   age090_m52            0.0000     2.6298E+02     6.7486   3.4952    99.2316
 84      0.0000     0.0000E+00    0.0000E+00    4.000000E+07  0.00800  3.939E-03    0   0.7841   age104_m52            0.0000     2.8147E+02     6.5232   3.3577   100.9171
 85      0.0000     0.0000E+00    0.0000E+00    5.500000E+07  0.00800  3.155E-03    0   0.7627   age110_m52            0.0000     3.3864E+02     7.1885   3.3445   102.0842
 86      0.0000     0.0000E+00    0.0000E+00    1.015200E+08  0.00800  2.206E-03    0   0.7226   age116_m52            0.0000     4.8146E+02     8.7539   3.1935   104.9295
 87      0.0000     0.0000E+00    0.0000E+00    1.609000E+08  0.00800  1.596E-03    0   0.6963   age120_m52            0.0000     5.4629E+02     9.3971   2.9919   106.2061
 88      0.0000     0.0000E+00    0.0000E+00    2.861200E+08  0.00800  1.002E-03    0   0.6665   age125_m52            0.0000     7.4174E+02    11.3343   2.7324   107.9193
 89      0.0000     0.0000E+00    0.0000E+00    5.088000E+08  0.00800  5.759E-04    0   0.6377   age130_m52            0.0000     8.0027E+02    12.0375   2.3990   111.3874
 90      0.0000     0.0000E+00    0.0000E+00    9.047900E+08  0.00800  2.972E-04    0   0.6086   age135_m52            0.0000     5.5165E+02    10.2876   1.8581   110.2052
 91      0.0000     0.0000E+00    0.0000E+00    1.278050E+09  0.00800  2.242E-04    0   0.5907   age138_m52            0.0000     3.1115E+02     8.0957   1.2218   109.7384
 92      0.0000     0.0000E+00    0.0000E+00    1.434000E+09  0.00800  1.645E-04    0   0.5787   age139_m52            0.0000     2.6640E+02     7.4421   1.3584   109.4493
 93      0.0000     0.0000E+00    0.0000E+00    2.500000E+09  0.00800  7.723E-05    0   0.5519   age150_m52            0.0000     2.1581E+02     6.9116   1.0061   106.0797
 94      0.0000     0.0000E+00    0.0000E+00    4.250000E+09  0.00800  4.151E-05    0   0.5320   age158_m52            0.0000     2.0011E+02     6.7370   0.9304   103.6086
 95      0.0000     0.0000E+00    0.0000E+00    6.250000E+09  0.00800  3.010E-05    0   0.5197   age166_m52            0.0000     2.6056E+02     7.4752   0.7418   102.0920
 96      0.0000     0.0000E+00    0.0000E+00    7.500000E+09  0.00800  2.467E-05    0   0.5139   age171_m52            0.0000     2.8151E+02     7.7333   0.7029   101.6317
 97      0.0000     0.0000E+00    0.0000E+00    1.000000E+10  0.00800  1.862E-05    0   0.5054   age181_m52            0.0000     3.5861E+02     8.5978   0.5818   101.0230
