###################################################################
## OUTPUT of StarlightChains_v04.for    [Cid@UFSC - 01/Apr/2007] ##
###################################################################

## Some input info
NGC6626_a_1.cxt                          [arq_obs]
Base.BC03.S                              [arq_base]
NGC6626_a_1.msk                          [arq_masks]
StCv04.C99.config                        [arq_config]
  150                                    [N_base]
    0                                    [N_YAV_components = # of components with extra extinction!]
    0                                    [i_FitPowerLaw (1/0 = Yes/No)]
-9.99                                    [alpha_PowerLaw]
CCM                                      [red_law_option]
 1.458241                                [q_norm = A(l_norm)/A(V)]

## (Re)Sampling Parameters
 3359.00                                 [l_ini (A)]
 6428.00                                 [l_fin (A)]
    1.00                                 [dl    (A)]     (OBS: dl_cushion =    50.00 A)

## Normalization info
 4020.00                                 [l_norm (A) - for base]
 4010.00                                 [llow_norm (A) - window for f_obs]
 4060.00                                 [lupp_norm (A) - window for f_obs]
2.684846E-14                             [fobs_norm (in input units)]

## S/N
 4730.00                                 [llow_SN (A) - window for S/N]
 4780.00                                 [lupp_SN (A) - window for S/N]
  76.546                                 [S/N in S/N window]
  58.380                                 [S/N in norm. window]
 133.097                                 [S/N_err in S/N window]
 101.509                                 [S/N_err in norm. window]
  1.0000                                 [fscale_chi2]

## etc...
  2147483595                             [idum_orig]
  3066                                   [NOl_eff]
  1296                                   [Nl_eff]
  1770    NSIGMA                         [Ntot_cliped & clip_method]
  3048080                                [Nglobal_steps]
   7                                     [N_chains]
  16                                     [NEX0s_base = N_base in EX0s-fits]
 0   0   1      122   2.0   2.431E+02    [Clip-Bug, RC-Crash & Burn-In warning-flags, n_censored_weights, wei_nsig_threshold & wei_limit]
   138    137.975    137.963      0.012  [idt_all, wdt_TotTime, wdt_UsrTime & wdt_SysTime (sec)]

## Synthesis Results - Best model ##

 2.45826E+00                             [chi2/Nl_eff]
     1.33727                             [adev (%)]

    97.34528                             [sum-of-x (%)]
 1.31417E-13                             [Flux_tot (units of input spectrum!)]
 2.95143E-09                             [Mini_tot (???)]
 1.48507E-09                             [Mcor_tot (???)]

 -10.14                                  [v0_min  (km/s)]
  23.91                                  [vd_min  (km/s)]
 1.2025                                  [AV_min  (mag)]
 0.0000                                  [YAV_min (mag)]

# j     x_j(%)      Mini_j(%)     Mcor_j(%)     age_j(yr)     Z_j      (L/M)_j    YAV?  Mstars   component_j        a/Fe...       SSP_chi2r SSP_adev(%)   SSP_AV   SSP_x(%)
  1      0.0000     0.0000E+00    0.0000E+00    1.000000E+06  0.00010  8.160E-03    0   1.0000   age020_m22            0.0000     5.2964E+02    18.8562   4.0000    88.4476
  2      6.1410     5.9023E-03    1.1730E-02    3.160000E+06  0.00010  4.759E-02    0   1.0000   age045_m22            0.0000     2.6107E+01     4.2519   2.6113    95.2689
  3      0.9356     2.2152E-03    4.2184E-03    5.010000E+06  0.00010  1.932E-02    0   0.9582   age055_m22            0.0000     1.9439E+02    11.8977   2.8676    82.7670
  4      0.0000     0.0000E+00    0.0000E+00    6.610000E+06  0.00010  9.973E-03    0   0.9297   age061_m22            0.0000     4.8977E+02    17.9826   4.0000    90.8314
  5      0.0000     0.0000E+00    0.0000E+00    8.710000E+06  0.00010  7.690E-03    0   0.9030   age067_m22            0.0000     4.6959E+02    17.5653   4.0000    91.1647
  6      0.0000     0.0000E+00    0.0000E+00    1.000000E+07  0.00010  6.375E-03    0   0.8902   age070_m22            0.0000     4.7439E+02    17.5102   4.0000    91.6200
  7      0.0000     0.0000E+00    0.0000E+00    1.445000E+07  0.00010  4.874E-03    0   0.8589   age078_m22            0.0000     2.6341E+02    13.4642   4.0000    91.0580
  8      0.0000     0.0000E+00    0.0000E+00    2.512000E+07  0.00010  4.103E-03    0   0.8174   age090_m22            0.0000     6.0120E+01     6.8976   3.9689    88.8438
  9      0.0000     0.0000E+00    0.0000E+00    4.000000E+07  0.00010  3.654E-03    0   0.7830   age104_m22            0.0000     4.3110E+01     4.9375   3.6795    93.8493
 10      0.0000     0.0000E+00    0.0000E+00    5.500000E+07  0.00010  3.093E-03    0   0.7597   age110_m22            0.0000     4.4314E+01     4.5350   3.5861    95.2902
 11      0.0000     0.0000E+00    0.0000E+00    1.015200E+08  0.00010  2.431E-03    0   0.7138   age116_m22            0.0000     5.8706E+01     4.6494   3.2358    98.5158
 12      0.0000     0.0000E+00    0.0000E+00    1.609000E+08  0.00010  1.319E-03    0   0.6775   age120_m22            0.0000     5.5689E+01     4.3626   2.7598   100.6643
 13      0.0000     0.0000E+00    0.0000E+00    2.861200E+08  0.00010  1.075E-03    0   0.6412   age125_m22            0.0000     1.7903E+02     8.3243   2.8580   103.5352
 14      0.0000     0.0000E+00    0.0000E+00    5.088000E+08  0.00010  7.183E-04    0   0.6083   age130_m22            0.0000     2.2784E+02     9.7173   2.6438   104.7375
 15      0.0000     0.0000E+00    0.0000E+00    9.047900E+08  0.00010  4.524E-04    0   0.5785   age135_m22            0.0000     2.3054E+02     9.8953   2.4456   105.8335
 16      0.0000     0.0000E+00    0.0000E+00    1.278050E+09  0.00010  3.018E-04    0   0.5588   age138_m22            0.0000     1.0126E+02     6.4940   1.9010   104.2202
 17      0.0000     0.0000E+00    0.0000E+00    1.434000E+09  0.00010  2.691E-04    0   0.5532   age139_m22            0.0000     8.0247E+01     5.7965   1.7463   103.5479
 18      0.0000     0.0000E+00    0.0000E+00    2.500000E+09  0.00010  1.582E-04    0   0.5296   age150_m22            0.0000     6.3454E+01     5.0307   1.6201   104.6271
 19      0.0000     0.0000E+00    0.0000E+00    4.250000E+09  0.00010  1.007E-04    0   0.5110   age158_m22            0.0000     3.0203E+01     3.5009   1.4694   102.6965
 20      0.0013     8.6866E-04    8.6060E-04    6.250000E+09  0.00010  6.869E-05    0   0.4985   age166_m22            0.0000     1.0721E+01     2.2104   1.4132    99.6273
 21      0.0061     4.7185E-03    4.6241E-03    7.500000E+09  0.00010  5.873E-05    0   0.4931   age171_m22            0.0000     9.0753E+00     2.0535   1.3968    99.1770
 22      0.0000     0.0000E+00    0.0000E+00    1.000000E+10  0.00010  4.481E-05    0   0.4854   age181_m22            0.0000     8.5336E+00     2.0035   1.3593    98.7881
 23      0.0000     1.4624E-05    1.3924E-05    1.300000E+10  0.00010  3.489E-05    0   0.4791   age193_m22            0.0000     7.3299E+00     1.8887   1.3054    98.1406
 24      0.0013     1.9510E-03    1.8480E-03    1.500000E+10  0.00010  3.035E-05    0   0.4766   age201_m22            0.0000     6.5905E+00     1.8122   1.2670    97.9268
 25      0.0560     1.0204E-01    9.6023E-02    1.800000E+10  0.00010  2.510E-05    0   0.4735   age213_m22            0.0000     5.1768E+00     1.6398   1.1995    97.2668
 26      0.0000     0.0000E+00    0.0000E+00    1.000000E+06  0.00040  8.458E-03    0   1.0000   age020_m32            0.0000     5.4508E+02    18.9489   4.0000    89.4461
 27      0.0000     0.0000E+00    0.0000E+00    3.160000E+06  0.00040  3.973E-02    0   1.0000   age045_m32            0.0000     6.5727E+01     7.2828   3.8622    88.9564
 28      0.0000     0.0000E+00    0.0000E+00    5.010000E+06  0.00040  1.935E-02    0   0.9532   age055_m32            0.0000     1.6326E+02    11.2724   4.0000    84.9424
 29      0.0000     0.0000E+00    0.0000E+00    6.610000E+06  0.00040  1.204E-02    0   0.9243   age061_m32            0.0000     3.2228E+02    14.9536   4.0000    90.1847
 30      0.0000     0.0000E+00    0.0000E+00    8.710000E+06  0.00040  9.433E-03    0   0.9001   age067_m32            0.0000     2.8246E+02    14.0621   4.0000    90.5753
 31      0.0000     0.0000E+00    0.0000E+00    1.000000E+07  0.00040  8.053E-03    0   0.8877   age070_m32            0.0000     2.5101E+02    13.3535   4.0000    90.2786
 32      0.0000     0.0000E+00    0.0000E+00    1.445000E+07  0.00040  7.027E-03    0   0.8578   age078_m32            0.0000     8.9733E+01     8.5013   3.8041    87.8868
 33      0.0000     0.0000E+00    0.0000E+00    2.512000E+07  0.00040  4.707E-03    0   0.8166   age090_m32            0.0000     5.3372E+01     6.4993   3.5158    91.8606
 34      0.0000     0.0000E+00    0.0000E+00    4.000000E+07  0.00040  3.714E-03    0   0.7827   age104_m32            0.0000     3.7948E+01     4.8022   3.3230    95.2869
 35      0.0000     0.0000E+00    0.0000E+00    5.500000E+07  0.00040  2.982E-03    0   0.7593   age110_m32            0.0000     3.9150E+01     4.4470   3.2646    96.5112
 36      0.0000     0.0000E+00    0.0000E+00    1.015200E+08  0.00040  2.188E-03    0   0.7143   age116_m32            0.0000     8.7286E+01     5.3935   3.0203   100.6454
 37      0.0000     0.0000E+00    0.0000E+00    1.609000E+08  0.00040  1.690E-03    0   0.6856   age120_m32            0.0000     1.3606E+02     6.9234   2.8197   103.3120
 38      0.0000     0.0000E+00    0.0000E+00    2.861200E+08  0.00040  1.152E-03    0   0.6509   age125_m32            0.0000     1.9130E+02     8.7658   2.6201   104.3852
 39      0.0000     0.0000E+00    0.0000E+00    5.088000E+08  0.00040  7.331E-04    0   0.6182   age130_m32            0.0000     2.1404E+02     9.4901   2.4679   104.7239
 40      0.0000     0.0000E+00    0.0000E+00    9.047900E+08  0.00040  3.960E-04    0   0.5890   age135_m32            0.0000     1.1125E+02     7.0402   2.0075   103.0562
 41      0.0000     0.0000E+00    0.0000E+00    1.278050E+09  0.00040  2.854E-04    0   0.5687   age138_m32            0.0000     7.8263E+01     5.7207   1.6941   105.4290
 42      0.0000     0.0000E+00    0.0000E+00    1.434000E+09  0.00040  2.531E-04    0   0.5632   age139_m32            0.0000     7.4772E+01     5.5788   1.6311   105.4597
 43      3.8640     1.1878E+00    1.2714E+00    2.500000E+09  0.00040  1.488E-04    0   0.5386   age150_m32            0.0000     4.8749E+01     4.6109   1.3821   103.3496
 44     29.1618     1.4687E+01    1.5175E+01    4.250000E+09  0.00040  9.082E-05    0   0.5199   age158_m32            0.0000     1.0883E+01     2.2840   1.2862    99.5981
 45     45.8367     3.2955E+01    3.3245E+01    6.250000E+09  0.00040  6.362E-05    0   0.5076   age166_m32            0.0000     4.1928E+00     1.5938   1.2396    96.0878
 46      7.4557     6.4479E+00    6.4419E+00    7.500000E+09  0.00040  5.289E-05    0   0.5027   age171_m32            0.0000     5.1060E+00     1.7707   1.2063    94.7132
 47      0.0799     9.1993E-02    9.0463E-02    1.000000E+10  0.00040  3.972E-05    0   0.4948   age181_m32            0.0000     6.1139E+00     1.8856   1.1492    93.2131
 48      0.0000     0.0000E+00    0.0000E+00    1.300000E+10  0.00040  3.283E-05    0   0.4870   age193_m32            0.0000     3.5776E+00     1.5230   1.1058    96.0707
 49      0.0000     0.0000E+00    0.0000E+00    1.500000E+10  0.00040  2.925E-05    0   0.4854   age201_m32            0.0000     5.3872E+00     1.8440   1.0871    97.7600
 50      0.0000     0.0000E+00    0.0000E+00    1.800000E+10  0.00040  2.469E-05    0   0.4819   age213_m32            0.0000     6.9542E+00     2.0633   1.0479    98.2971
 51      0.0000     0.0000E+00    0.0000E+00    1.000000E+06  0.00400  1.114E-02    0   1.0000   age020_m42            0.0000     4.6067E+02    17.5625   4.0000    88.5916
 52      0.0000     0.0000E+00    0.0000E+00    3.160000E+06  0.00400  4.073E-02    0   0.9999   age045_m42            0.0000     4.0847E+01     5.6083   3.5861    91.2030
 53      0.0000     0.0000E+00    0.0000E+00    5.010000E+06  0.00400  2.534E-02    0   0.9488   age055_m42            0.0000     9.8865E+01     8.8265   3.9689    85.1361
 54      0.0000     8.7777E-09    1.6084E-08    6.610000E+06  0.00400  2.583E-02    0   0.9220   age061_m42            0.0000     3.4914E+01     5.0595   3.3961    92.3887
 55      0.0000     0.0000E+00    0.0000E+00    8.710000E+06  0.00400  1.706E-02    0   0.8983   age067_m42            0.0000     5.9135E+01     7.0064   3.1964    90.9576
 56      0.0000     2.0490E-08    3.6088E-08    1.000000E+07  0.00400  1.271E-02    0   0.8862   age070_m42            0.0000     9.6545E+01     8.9751   3.1705    89.6560
 57      0.0000     0.0000E+00    0.0000E+00    1.445000E+07  0.00400  7.666E-03    0   0.8571   age078_m42            0.0000     1.2568E+02     9.9442   3.5765    86.0140
 58      0.0000     0.0000E+00    0.0000E+00    2.512000E+07  0.00400  5.070E-03    0   0.8174   age090_m42            0.0000     8.0965E+01     8.3048   3.0433    91.2381
 59      0.0000     0.0000E+00    0.0000E+00    4.000000E+07  0.00400  3.505E-03    0   0.7851   age104_m42            0.0000     4.3299E+01     6.1644   2.7398    94.0505
 60      0.0000     0.0000E+00    0.0000E+00    5.500000E+07  0.00400  3.059E-03    0   0.7629   age110_m42            0.0000     2.6853E+01     3.5789   2.8146    98.6373
 61      0.0000     0.0000E+00    0.0000E+00    1.015200E+08  0.00400  2.268E-03    0   0.7207   age116_m42            0.0000     1.1565E+02     6.5249   2.7457   103.7032
 62      0.0000     0.0000E+00    0.0000E+00    1.609000E+08  0.00400  1.720E-03    0   0.6930   age120_m42            0.0000     1.3638E+02     7.4242   2.6201   104.7934
 63      0.0000     0.0000E+00    0.0000E+00    2.861200E+08  0.00400  1.079E-03    0   0.6613   age125_m42            0.0000     1.3712E+02     7.5432   2.2674   105.0636
 64      0.0000     0.0000E+00    0.0000E+00    5.088000E+08  0.00400  6.261E-04    0   0.6313   age130_m42            0.0000     1.5692E+02     8.1851   2.0673   108.2172
 65      0.0000     0.0000E+00    0.0000E+00    9.047900E+08  0.00400  3.535E-04    0   0.6024   age135_m42            0.0000     8.7484E+01     6.3634   1.6749   107.9639
 66      0.0000     0.0000E+00    0.0000E+00    1.278050E+09  0.00400  2.677E-04    0   0.5837   age138_m42            0.0000     5.6655E+01     5.6752   1.0400   103.3995
 67      0.0000     0.0000E+00    0.0000E+00    1.434000E+09  0.00400  1.910E-04    0   0.5716   age139_m42            0.0000     5.7462E+01     5.6035   1.2003   104.6511
 68      0.0000     0.0000E+00    0.0000E+00    2.500000E+09  0.00400  9.818E-05    0   0.5463   age150_m42            0.0000     4.2671E+01     4.8519   0.9615    98.5379
 69      0.0000     0.0000E+00    0.0000E+00    4.250000E+09  0.00400  5.491E-05    0   0.5269   age158_m42            0.0000     4.7819E+01     4.8563   0.8432    95.4953
 70      0.0000     0.0000E+00    0.0000E+00    6.250000E+09  0.00400  3.857E-05    0   0.5151   age166_m42            0.0000     6.5363E+01     5.5098   0.7334    93.6671
 71      0.0000     0.0000E+00    0.0000E+00    7.500000E+09  0.00400  3.243E-05    0   0.5110   age171_m42            0.0000     7.8647E+01     5.9501   0.6664    92.7942
 72      0.0000     0.0000E+00    0.0000E+00    1.000000E+10  0.00400  2.424E-05    0   0.5028   age181_m42            0.0000     9.7228E+01     6.5373   0.6007    91.7693
 73      0.0000     0.0000E+00    0.0000E+00    1.300000E+10  0.00400  1.883E-05    0   0.4927   age193_m42            0.0000     1.1221E+02     7.0081   0.5694    91.1943
 74      0.0000     0.0000E+00    0.0000E+00    1.500000E+10  0.00400  1.685E-05    0   0.4919   age201_m42            0.0000     1.0862E+02     6.9138   0.5713    91.3046
 75      0.0000     0.0000E+00    0.0000E+00    1.800000E+10  0.00400  1.452E-05    0   0.4874   age213_m42            0.0000     1.0215E+02     6.7400   0.5806    91.7503
 76      0.0000     0.0000E+00    0.0000E+00    1.000000E+06  0.00800  1.286E-02    0   1.0000   age020_m52            0.0000     4.1084E+02    16.4647   4.0000    90.1599
 77      0.0000     0.0000E+00    0.0000E+00    3.160000E+06  0.00800  3.147E-02    0   0.9966   age045_m52            0.0000     3.2806E+02    15.0259   4.0000    90.0781
 78      0.0000     0.0000E+00    0.0000E+00    5.010000E+06  0.00800  2.664E-02    0   0.9443   age055_m52            0.0000     1.2486E+02     9.8712   4.0000    86.2320
 79      0.0000     0.0000E+00    0.0000E+00    6.610000E+06  0.00800  2.151E-02    0   0.9177   age061_m52            0.0000     7.2455E+01     7.6606   2.7804    90.8589
 80      0.0000     0.0000E+00    0.0000E+00    8.710000E+06  0.00800  1.628E-02    0   0.8948   age067_m52            0.0000     6.9503E+01     7.7193   3.1438    91.6044
 81      0.0000     0.0000E+00    0.0000E+00    1.000000E+07  0.00800  1.215E-02    0   0.8827   age070_m52            0.0000     8.7399E+01     8.5857   3.4834    89.6600
 82      0.0000     0.0000E+00    0.0000E+00    1.445000E+07  0.00800  8.739E-03    0   0.8552   age078_m52            0.0000     6.7925E+01     7.5535   3.5254    91.0524
 83      0.0000     0.0000E+00    0.0000E+00    2.512000E+07  0.00800  5.676E-03    0   0.8162   age090_m52            0.0000     4.5719E+01     5.7178   3.1255    96.2912
 84      0.0000     0.0000E+00    0.0000E+00    4.000000E+07  0.00800  3.939E-03    0   0.7841   age104_m52            0.0000     3.8133E+01     4.4896   2.9786    98.5642
 85      0.0000     0.0000E+00    0.0000E+00    5.500000E+07  0.00800  3.155E-03    0   0.7627   age110_m52            0.0000     4.6097E+01     4.2283   2.9571   100.1562
 86      0.0000     0.0000E+00    0.0000E+00    1.015200E+08  0.00800  2.206E-03    0   0.7226   age116_m52            0.0000     8.4543E+01     5.3972   2.7945   103.6056
 87      0.0000     0.0000E+00    0.0000E+00    1.609000E+08  0.00800  1.596E-03    0   0.6963   age120_m52            0.0000     1.0633E+02     6.3558   2.5899   104.9975
 88      0.0000     0.0000E+00    0.0000E+00    2.861200E+08  0.00800  1.002E-03    0   0.6665   age125_m52            0.0000     1.7826E+02     8.9402   2.3268   106.9568
 89      0.0000     0.0000E+00    0.0000E+00    5.088000E+08  0.00800  5.759E-04    0   0.6377   age130_m52            0.0000     2.0092E+02     9.9240   2.0075   109.9805
 90      0.0000     0.0000E+00    0.0000E+00    9.047900E+08  0.00800  2.972E-04    0   0.6086   age135_m52            0.0000     1.2976E+02     8.2403   1.5046   107.2404
 91      0.0000     0.0000E+00    0.0000E+00    1.278050E+09  0.00800  2.242E-04    0   0.5907   age138_m52            0.0000     8.4673E+01     6.7558   0.9022   105.0970
 92      0.0000     0.0000E+00    0.0000E+00    1.434000E+09  0.00800  1.645E-04    0   0.5787   age139_m52            0.0000     6.8908E+01     6.1516   1.0445   104.6880
 93      0.0000     0.0000E+00    0.0000E+00    2.500000E+09  0.00800  7.723E-05    0   0.5519   age150_m52            0.0000     7.9960E+01     6.3069   0.7312    99.9671
 94      0.0000     0.0000E+00    0.0000E+00    4.250000E+09  0.00800  4.151E-05    0   0.5320   age158_m52            0.0000     8.3146E+01     6.3069   0.6682    97.1543
 95      0.0000     0.0000E+00    0.0000E+00    6.250000E+09  0.00800  3.010E-05    0   0.5197   age166_m52            0.0000     1.1545E+02     7.2147   0.4984    95.0621
 96      0.0000     0.0000E+00    0.0000E+00    7.500000E+09  0.00800  2.467E-05    0   0.5139   age171_m52            0.0000     1.2474E+02     7.4570   0.4635    94.4882
 97      0.0000     0.0000E+00    0.0000E+00    1.000000E+10  0.00800  1.862E-05    0   0.5054   age181_m52            0.0000     1.5658E+02     8.2617   0.3531    93.5784
