###################################################################
## OUTPUT of StarlightChains_v04.for    [Cid@UFSC - 01/Apr/2007] ##
###################################################################

## Some input info
NGC6528_b_2.cxt                          [arq_obs]
Base.BC03.S                              [arq_base]
NGC6528_b_2.msk                          [arq_masks]
StCv04.C99.config                        [arq_config]
  150                                    [N_base]
    0                                    [N_YAV_components = # of components with extra extinction!]
    0                                    [i_FitPowerLaw (1/0 = Yes/No)]
-9.99                                    [alpha_PowerLaw]
CCM                                      [red_law_option]
 1.458241                                [q_norm = A(l_norm)/A(V)]

## (Re)Sampling Parameters
 3359.00                                 [l_ini (A)]
 6428.00                                 [l_fin (A)]
    1.00                                 [dl    (A)]     (OBS: dl_cushion =    50.00 A)

## Normalization info
 4020.00                                 [l_norm (A) - for base]
 4010.00                                 [llow_norm (A) - window for f_obs]
 4060.00                                 [lupp_norm (A) - window for f_obs]
4.330667E-15                             [fobs_norm (in input units)]

## S/N
 4730.00                                 [llow_SN (A) - window for S/N]
 4780.00                                 [lupp_SN (A) - window for S/N]
  27.791                                 [S/N in S/N window]
  14.946                                 [S/N in norm. window]
 304.113                                 [S/N_err in S/N window]
 163.548                                 [S/N_err in norm. window]
  1.0000                                 [fscale_chi2]

## etc...
  2147483603                             [idum_orig]
  3066                                   [NOl_eff]
   825                                   [Nl_eff]
  2241    NSIGMA                         [Ntot_cliped & clip_method]
  4869690                                [Nglobal_steps]
   7                                     [N_chains]
  27                                     [NEX0s_base = N_base in EX0s-fits]
 0   0   1      139   2.0   3.772E+02    [Clip-Bug, RC-Crash & Burn-In warning-flags, n_censored_weights, wei_nsig_threshold & wei_limit]
   186    186.818    186.813      0.004  [idt_all, wdt_TotTime, wdt_UsrTime & wdt_SysTime (sec)]

## Synthesis Results - Best model ##

 3.21577E+00                             [chi2/Nl_eff]
     2.35780                             [adev (%)]

    96.70869                             [sum-of-x (%)]
 3.36771E-14                             [Flux_tot (units of input spectrum!)]
 2.50591E-09                             [Mini_tot (???)]
 1.25239E-09                             [Mcor_tot (???)]

  -8.13                                  [v0_min  (km/s)]
  58.41                                  [vd_min  (km/s)]
 1.5521                                  [AV_min  (mag)]
 0.0000                                  [YAV_min (mag)]

# j     x_j(%)      Mini_j(%)     Mcor_j(%)     age_j(yr)     Z_j      (L/M)_j    YAV?  Mstars   component_j        a/Fe...       SSP_chi2r SSP_adev(%)   SSP_AV   SSP_x(%)
  1      1.0101     1.7203E-03    3.4421E-03    1.000000E+06  0.00010  8.160E-03    0   1.0000   age020_m22            0.0000     4.7514E+03    47.2543   4.0000    98.7930
  2      5.6647     1.6541E-03    3.3097E-03    3.160000E+06  0.00010  4.759E-02    0   1.0000   age045_m22            0.0000     4.0084E+02    10.3636   3.8853    95.2946
  3      6.0553     4.3555E-03    8.3505E-03    5.010000E+06  0.00010  1.932E-02    0   0.9582   age055_m22            0.0000     7.4296E+02    17.5161   4.0000    88.9265
  4      0.0000     0.0000E+00    0.0000E+00    6.610000E+06  0.00010  9.973E-03    0   0.9297   age061_m22            0.0000     4.8188E+03    46.6236   4.0000   101.7626
  5      0.0000     0.0000E+00    0.0000E+00    8.710000E+06  0.00010  7.690E-03    0   0.9030   age067_m22            0.0000     4.7139E+03    46.2374   4.0000   102.2422
  6      0.8834     1.9258E-03    3.4302E-03    1.000000E+07  0.00010  6.375E-03    0   0.8902   age070_m22            0.0000     4.7025E+03    46.2127   4.0000   102.4735
  7      0.0000     0.0000E+00    0.0000E+00    1.445000E+07  0.00010  4.874E-03    0   0.8589   age078_m22            0.0000     3.7225E+03    41.8985   4.0000   104.9342
  8      0.2182     7.3893E-04    1.2085E-03    2.512000E+07  0.00010  4.103E-03    0   0.8174   age090_m22            0.0000     2.0995E+03    32.0048   4.0000   108.4113
  9      1.3974     5.3144E-03    8.3261E-03    4.000000E+07  0.00010  3.654E-03    0   0.7830   age104_m22            0.0000     1.3463E+03    24.3130   4.0000   109.3508
 10      0.0000     0.0000E+00    0.0000E+00    5.500000E+07  0.00010  3.093E-03    0   0.7597   age110_m22            0.0000     1.1612E+03    21.7179   4.0000   109.1811
 11      0.0000     0.0000E+00    0.0000E+00    1.015200E+08  0.00010  2.431E-03    0   0.7138   age116_m22            0.0000     8.3017E+02    15.6649   4.0000   106.2216
 12      0.0000     0.0000E+00    0.0000E+00    1.609000E+08  0.00010  1.319E-03    0   0.6775   age120_m22            0.0000     6.4353E+02    11.7676   4.0000    99.4105
 13      0.0000     0.0000E+00    0.0000E+00    2.861200E+08  0.00010  1.075E-03    0   0.6412   age125_m22            0.0000     9.7129E+02    14.5286   4.0000   102.6288
 14      0.0000     0.0000E+00    0.0000E+00    5.088000E+08  0.00010  7.183E-04    0   0.6083   age130_m22            0.0000     1.0719E+03    15.2789   3.7931   103.3101
 15      0.0000     0.0000E+00    0.0000E+00    9.047900E+08  0.00010  4.524E-04    0   0.5785   age135_m22            0.0000     1.0623E+03    15.3407   3.5861   104.4569
 16      0.0000     0.0000E+00    0.0000E+00    1.278050E+09  0.00010  3.018E-04    0   0.5588   age138_m22            0.0000     6.8472E+02    12.1724   3.0883   102.9022
 17      0.0000     0.0000E+00    0.0000E+00    1.434000E+09  0.00010  2.691E-04    0   0.5532   age139_m22            0.0000     6.1254E+02    11.5588   2.9380   102.3601
 18      0.0000     0.0000E+00    0.0000E+00    2.500000E+09  0.00010  1.582E-04    0   0.5296   age150_m22            0.0000     5.8216E+02    11.3646   2.8366   103.2564
 19      0.0000     0.0000E+00    0.0000E+00    4.250000E+09  0.00010  1.007E-04    0   0.5110   age158_m22            0.0000     4.5045E+02    10.0108   2.6808   101.9787
 20      0.0000     0.0000E+00    0.0000E+00    6.250000E+09  0.00010  6.869E-05    0   0.4985   age166_m22            0.0000     3.5652E+02     8.9336   2.6260    99.5224
 21      0.0000     0.0000E+00    0.0000E+00    7.500000E+09  0.00010  5.873E-05    0   0.4931   age171_m22            0.0000     3.5215E+02     8.9709   2.6246    99.0139
 22      0.0000     0.0000E+00    0.0000E+00    1.000000E+10  0.00010  4.481E-05    0   0.4854   age181_m22            0.0000     3.4438E+02     8.8813   2.5867    98.6288
 23      0.0000     0.0000E+00    0.0000E+00    1.300000E+10  0.00010  3.489E-05    0   0.4791   age193_m22            0.0000     3.2605E+02     8.6570   2.5278    98.0982
 24      0.0061     2.7853E-03    2.6561E-03    1.500000E+10  0.00010  3.035E-05    0   0.4766   age201_m22            0.0000     3.1441E+02     8.5373   2.4885    97.9460
 25      0.0000     0.0000E+00    0.0000E+00    1.800000E+10  0.00010  2.510E-05    0   0.4735   age213_m22            0.0000     2.9086E+02     8.2768   2.4199    97.4162
 26      0.5399     8.8703E-04    1.7749E-03    1.000000E+06  0.00040  8.458E-03    0   1.0000   age020_m32            0.0000     4.8523E+03    47.4323   4.0000    99.5528
 27      0.0000     0.0000E+00    0.0000E+00    3.160000E+06  0.00040  3.973E-02    0   1.0000   age045_m32            0.0000     1.8952E+03    30.1869   4.0000   107.3774
 28      0.0000     0.0000E+00    0.0000E+00    5.010000E+06  0.00040  1.935E-02    0   0.9532   age055_m32            0.0000     3.0041E+03    37.2883   4.0000   103.5625
 29      0.0000     0.0000E+00    0.0000E+00    6.610000E+06  0.00040  1.204E-02    0   0.9243   age061_m32            0.0000     4.0824E+03    43.4654   4.0000   103.4911
 30      0.0000     0.0000E+00    0.0000E+00    8.710000E+06  0.00040  9.433E-03    0   0.9001   age067_m32            0.0000     3.8714E+03    42.5378   4.0000   104.3835
 31      0.0000     0.0000E+00    0.0000E+00    1.000000E+07  0.00040  8.053E-03    0   0.8877   age070_m32            0.0000     3.7040E+03    41.7189   4.0000   104.6875
 32      0.0000     0.0000E+00    0.0000E+00    1.445000E+07  0.00040  7.027E-03    0   0.8578   age078_m32            0.0000     1.9498E+03    30.2647   4.0000   105.7292
 33      0.0000     0.0000E+00    0.0000E+00    2.512000E+07  0.00040  4.707E-03    0   0.8166   age090_m32            0.0000     1.2306E+03    23.1426   4.0000   105.6781
 34      0.0000     0.0000E+00    0.0000E+00    4.000000E+07  0.00040  3.714E-03    0   0.7827   age104_m32            0.0000     8.9583E+02    18.0955   4.0000   105.5063
 35      0.0000     0.0000E+00    0.0000E+00    5.500000E+07  0.00040  2.982E-03    0   0.7593   age110_m32            0.0000     8.3418E+02    16.6799   4.0000   105.3848
 36      0.0000     0.0000E+00    0.0000E+00    1.015200E+08  0.00040  2.188E-03    0   0.7143   age116_m32            0.0000     7.6825E+02    13.6310   4.0000   103.8052
 37      0.2958     2.4327E-03    3.3372E-03    1.609000E+08  0.00040  1.690E-03    0   0.6856   age120_m32            0.0000     8.5365E+02    13.7279   4.0000   102.0658
 38      0.0000     0.0000E+00    0.0000E+00    2.861200E+08  0.00040  1.152E-03    0   0.6509   age125_m32            0.0000     9.8199E+02    14.5968   3.7812   102.9990
 39      0.0000     0.0000E+00    0.0000E+00    5.088000E+08  0.00040  7.331E-04    0   0.6182   age130_m32            0.0000     1.0102E+03    14.9358   3.6076   103.5380
 40      0.0000     0.0000E+00    0.0000E+00    9.047900E+08  0.00040  3.960E-04    0   0.5890   age135_m32            0.0000     6.9518E+02    12.4114   3.1467   102.3630
 41      0.0000     0.0000E+00    0.0000E+00    1.278050E+09  0.00040  2.854E-04    0   0.5687   age138_m32            0.0000     6.1350E+02    11.6645   2.8758   104.4366
 42      0.0000     0.0000E+00    0.0000E+00    1.434000E+09  0.00040  2.531E-04    0   0.5632   age139_m32            0.0000     6.0124E+02    11.5841   2.8247   104.3093
 43      0.3919     3.6602E-02    3.9446E-02    2.500000E+09  0.00040  1.488E-04    0   0.5386   age150_m32            0.0000     4.8659E+02    10.5758   2.5707   102.6087
 44      0.0000     0.0000E+00    0.0000E+00    4.250000E+09  0.00040  9.082E-05    0   0.5199   age158_m32            0.0000     3.1998E+02     8.5522   2.4798    99.6808
 45      0.0000     0.0000E+00    0.0000E+00    6.250000E+09  0.00040  6.362E-05    0   0.5076   age166_m32            0.0000     2.4514E+02     7.6511   2.4538    96.7140
 46      0.0000     0.0000E+00    0.0000E+00    7.500000E+09  0.00040  5.289E-05    0   0.5027   age171_m32            0.0000     2.2745E+02     7.3984   2.4154    95.5039
 47      0.0000     0.0000E+00    0.0000E+00    1.000000E+10  0.00040  3.972E-05    0   0.4948   age181_m32            0.0000     2.0951E+02     7.1281   2.3482    94.1353
 48      0.0000     0.0000E+00    0.0000E+00    1.300000E+10  0.00040  3.283E-05    0   0.4870   age193_m32            0.0000     2.3156E+02     7.3345   2.2994    96.6719
 49      0.0000     0.0000E+00    0.0000E+00    1.500000E+10  0.00040  2.925E-05    0   0.4854   age201_m32            0.0000     2.5279E+02     7.6321   2.2793    98.1435
 50      0.0000     0.0000E+00    0.0000E+00    1.800000E+10  0.00040  2.469E-05    0   0.4819   age213_m32            0.0000     2.5699E+02     7.7170   2.2395    98.6098
 51      0.6420     8.0084E-04    1.6024E-03    1.000000E+06  0.00400  1.114E-02    0   1.0000   age020_m42            0.0000     4.5028E+03    45.9597   4.0000    99.7887
 52      0.0000     0.0000E+00    0.0000E+00    3.160000E+06  0.00400  4.073E-02    0   0.9999   age045_m42            0.0000     1.1430E+03    22.9100   4.0000   105.7910
 53      0.0000     0.0000E+00    0.0000E+00    5.010000E+06  0.00400  2.534E-02    0   0.9488   age055_m42            0.0000     2.2704E+03    33.3015   4.0000   104.5802
 54      1.3447     7.2342E-04    1.3346E-03    6.610000E+06  0.00400  2.583E-02    0   0.9220   age061_m42            0.0000     8.8113E+02    19.0876   4.0000   103.7961
 55      1.3785     1.1229E-03    2.0182E-03    8.710000E+06  0.00400  1.706E-02    0   0.8983   age067_m42            0.0000     7.7113E+02    17.1533   4.0000   100.1417
 56      0.6073     6.6399E-04    1.1774E-03    1.000000E+07  0.00400  1.271E-02    0   0.8862   age070_m42            0.0000     8.4783E+02    18.0366   4.0000    99.1942
 57      0.0000     0.0000E+00    0.0000E+00    1.445000E+07  0.00400  7.666E-03    0   0.8571   age078_m42            0.0000     1.5365E+03    26.5161   4.0000   101.3277
 58      0.0000     0.0000E+00    0.0000E+00    2.512000E+07  0.00400  5.070E-03    0   0.8174   age090_m42            0.0000     6.6411E+02    15.8699   4.0000    98.6230
 59      0.0000     0.0000E+00    0.0000E+00    4.000000E+07  0.00400  3.505E-03    0   0.7851   age104_m42            0.0000     4.0003E+02    12.0862   4.0000    95.3347
 60      0.0000     0.0000E+00    0.0000E+00    5.500000E+07  0.00400  3.059E-03    0   0.7629   age110_m42            0.0000     4.7832E+02    10.5631   4.0000    99.2698
 61      0.0000     0.0000E+00    0.0000E+00    1.015200E+08  0.00400  2.268E-03    0   0.7207   age116_m42            0.0000     7.3211E+02    12.6495   3.9365   102.2427
 62      0.0000     0.0000E+00    0.0000E+00    1.609000E+08  0.00400  1.720E-03    0   0.6930   age120_m42            0.0000     7.6004E+02    12.9745   3.7657   103.9720
 63      0.0000     0.0000E+00    0.0000E+00    2.861200E+08  0.00400  1.079E-03    0   0.6613   age125_m42            0.0000     7.5729E+02    12.6542   3.4354   104.0272
 64      0.0000     0.0000E+00    0.0000E+00    5.088000E+08  0.00400  6.261E-04    0   0.6313   age130_m42            0.0000     8.0533E+02    13.2710   3.2358   106.9159
 65      0.0000     0.0000E+00    0.0000E+00    9.047900E+08  0.00400  3.535E-04    0   0.6024   age135_m42            0.0000     5.4616E+02    11.0141   2.8338   107.3568
 66      0.0000     0.0000E+00    0.0000E+00    1.278050E+09  0.00400  2.677E-04    0   0.5837   age138_m42            0.0000     2.0571E+02     7.4425   2.1605   104.1251
 67      0.0000     0.0000E+00    0.0000E+00    1.434000E+09  0.00400  1.910E-04    0   0.5716   age139_m42            0.0000     2.7947E+02     8.3199   2.3090   105.3164
 68      0.0000     0.0000E+00    0.0000E+00    2.500000E+09  0.00400  9.818E-05    0   0.5463   age150_m42            0.0000     1.0713E+02     5.5343   2.0326   100.5784
 69      0.0000     0.0000E+00    0.0000E+00    4.250000E+09  0.00400  5.491E-05    0   0.5269   age158_m42            0.0000     5.7930E+01     4.2569   1.9284    97.7486
 70      0.0000     0.0000E+00    0.0000E+00    6.250000E+09  0.00400  3.857E-05    0   0.5151   age166_m42            0.0000     3.9111E+01     3.9284   1.7946    96.3711
 71      0.0000     0.0000E+00    0.0000E+00    7.500000E+09  0.00400  3.243E-05    0   0.5110   age171_m42            0.0000     3.4004E+01     3.8781   1.7147    95.7268
 72      0.0000     0.0000E+00    0.0000E+00    1.000000E+10  0.00400  2.424E-05    0   0.5028   age181_m42            0.0000     3.1061E+01     3.9210   1.6362    94.9608
 73      1.6877     1.2455E+00    1.2279E+00    1.300000E+10  0.00400  1.883E-05    0   0.4927   age193_m42            0.0000     3.0716E+01     3.9916   1.6032    94.5276
 74      1.2638     1.0422E+00    1.0258E+00    1.500000E+10  0.00400  1.685E-05    0   0.4919   age201_m42            0.0000     3.0321E+01     3.8840   1.6119    94.5501
 75      1.1647     1.1147E+00    1.0871E+00    1.800000E+10  0.00400  1.452E-05    0   0.4874   age213_m42            0.0000     2.9927E+01     3.7308   1.6343    94.8168
 76      0.0000     0.0000E+00    0.0000E+00    1.000000E+06  0.00800  1.286E-02    0   1.0000   age020_m52            0.0000     4.3167E+03    45.0713   4.0000   101.6677
 77      0.0000     0.0000E+00    0.0000E+00    3.160000E+06  0.00800  3.147E-02    0   0.9966   age045_m52            0.0000     4.0133E+03    43.4784   4.0000   103.0766
 78      0.0000     0.0000E+00    0.0000E+00    5.010000E+06  0.00800  2.664E-02    0   0.9443   age055_m52            0.0000     2.6765E+03    36.2207   4.0000   104.6797
 79      0.0000     0.0000E+00    0.0000E+00    6.610000E+06  0.00800  2.151E-02    0   0.9177   age061_m52            0.0000     4.2517E+02    13.1437   4.0000    93.3795
 80      0.0065     5.5752E-06    9.9818E-06    8.710000E+06  0.00800  1.628E-02    0   0.8948   age067_m52            0.0000     7.5690E+02    16.9461   4.0000   100.1638
 81      0.0000     0.0000E+00    0.0000E+00    1.000000E+07  0.00800  1.215E-02    0   0.8827   age070_m52            0.0000     1.3017E+03    24.1702   4.0000   103.4804
 82      0.0000     0.0000E+00    0.0000E+00    1.445000E+07  0.00800  8.739E-03    0   0.8552   age078_m52            0.0000     1.3115E+03    24.3692   4.0000   105.1819
 83      0.0000     0.0000E+00    0.0000E+00    2.512000E+07  0.00800  5.676E-03    0   0.8162   age090_m52            0.0000     7.5916E+02    15.7600   4.0000   103.7323
 84      0.0000     0.0000E+00    0.0000E+00    4.000000E+07  0.00800  3.939E-03    0   0.7841   age104_m52            0.0000     6.3348E+02    12.7241   4.0000   102.6219
 85      0.0000     0.0000E+00    0.0000E+00    5.500000E+07  0.00800  3.155E-03    0   0.7627   age110_m52            0.0000     6.3892E+02    11.9819   4.0000   103.0938
 86      0.0000     0.0000E+00    0.0000E+00    1.015200E+08  0.00800  2.206E-03    0   0.7226   age116_m52            0.0000     6.6241E+02    11.7986   3.9918   102.3396
 87      0.0000     0.0000E+00    0.0000E+00    1.609000E+08  0.00800  1.596E-03    0   0.6963   age120_m52            0.0000     7.0469E+02    12.1989   3.7583   104.0540
 88      0.0000     0.0000E+00    0.0000E+00    2.861200E+08  0.00800  1.002E-03    0   0.6665   age125_m52            0.0000     8.2768E+02    13.6746   3.4487   106.2163
 89      0.0000     0.0000E+00    0.0000E+00    5.088000E+08  0.00800  5.759E-04    0   0.6377   age130_m52            0.0000     7.9686E+02    13.8751   3.0729   110.0304
 90      0.0000     0.0000E+00    0.0000E+00    9.047900E+08  0.00800  2.972E-04    0   0.6086   age135_m52            0.0000     4.7002E+02    11.0602   2.5232   108.4398
 91      0.0000     0.0000E+00    0.0000E+00    1.278050E+09  0.00800  2.242E-04    0   0.5907   age138_m52            0.0000     1.7181E+02     7.4520   1.9513   106.5076
 92      0.0000     0.0000E+00    0.0000E+00    1.434000E+09  0.00800  1.645E-04    0   0.5787   age139_m52            0.0000     1.7091E+02     7.1757   2.0975   106.1973
 93      0.0000     0.0000E+00    0.0000E+00    2.500000E+09  0.00800  7.723E-05    0   0.5519   age150_m52            0.0000     6.3082E+01     5.4189   1.7489   102.5708
 94      0.0000     0.0000E+00    0.0000E+00    4.250000E+09  0.00800  4.151E-05    0   0.5320   age158_m52            0.0000     4.2740E+01     4.8015   1.6791   100.1643
 95      0.0000     0.0000E+00    0.0000E+00    6.250000E+09  0.00800  3.010E-05    0   0.5197   age166_m52            0.0000     2.6868E+01     4.6820   1.4781    98.6286
 96      0.7508     4.2291E-01    4.3487E-01    7.500000E+09  0.00800  2.467E-05    0   0.5139   age171_m52            0.0000     2.6054E+01     4.8061   1.4338    98.1835
 97     29.7656     2.2215E+01    2.2465E+01    1.000000E+10  0.00800  1.862E-05    0   0.5054   age181_m52            0.0000     2.9169E+01     5.4697   1.2926    97.6608
