###################################################################
## OUTPUT of StarlightChains_v04.for    [Cid@UFSC - 01/Apr/2007] ##
###################################################################

## Some input info
NGC6441_a_1.cxt                          [arq_obs]
Base.BC03.S                              [arq_base]
NGC6441_a_1.msk                          [arq_masks]
StCv04.C99.config                        [arq_config]
  150                                    [N_base]
    0                                    [N_YAV_components = # of components with extra extinction!]
    0                                    [i_FitPowerLaw (1/0 = Yes/No)]
-9.99                                    [alpha_PowerLaw]
CCM                                      [red_law_option]
 1.458241                                [q_norm = A(l_norm)/A(V)]

## (Re)Sampling Parameters
 3359.00                                 [l_ini (A)]
 6428.00                                 [l_fin (A)]
    1.00                                 [dl    (A)]     (OBS: dl_cushion =    50.00 A)

## Normalization info
 4020.00                                 [l_norm (A) - for base]
 4010.00                                 [llow_norm (A) - window for f_obs]
 4060.00                                 [lupp_norm (A) - window for f_obs]
2.855491E-14                             [fobs_norm (in input units)]

## S/N
 4730.00                                 [llow_SN (A) - window for S/N]
 4780.00                                 [lupp_SN (A) - window for S/N]
  36.149                                 [S/N in S/N window]
  21.540                                 [S/N in norm. window]
 181.134                                 [S/N_err in S/N window]
 107.930                                 [S/N_err in norm. window]
  1.0000                                 [fscale_chi2]

## etc...
  2147483609                             [idum_orig]
  3065                                   [NOl_eff]
   925                                   [Nl_eff]
  2140    NSIGMA                         [Ntot_cliped & clip_method]
  3919090                                [Nglobal_steps]
   7                                     [N_chains]
  23                                     [NEX0s_base = N_base in EX0s-fits]
 0   0   1      126   2.0   2.568E+02    [Clip-Bug, RC-Crash & Burn-In warning-flags, n_censored_weights, wei_nsig_threshold & wei_limit]
   160    159.924    159.917      0.008  [idt_all, wdt_TotTime, wdt_UsrTime & wdt_SysTime (sec)]

## Synthesis Results - Best model ##

 2.64091E+00                             [chi2/Nl_eff]
     1.57967                             [adev (%)]

    99.82052                             [sum-of-x (%)]
 1.52433E-13                             [Flux_tot (units of input spectrum!)]
 9.63558E-09                             [Mini_tot (???)]
 4.81308E-09                             [Mcor_tot (???)]

 -11.29                                  [v0_min  (km/s)]
  17.22                                  [vd_min  (km/s)]
 1.2484                                  [AV_min  (mag)]
 0.0000                                  [YAV_min (mag)]

# j     x_j(%)      Mini_j(%)     Mcor_j(%)     age_j(yr)     Z_j      (L/M)_j    YAV?  Mstars   component_j        a/Fe...       SSP_chi2r SSP_adev(%)   SSP_AV   SSP_x(%)
  1      0.0000     0.0000E+00    0.0000E+00    1.000000E+06  0.00010  8.160E-03    0   1.0000   age020_m22            0.0000     2.6944E+03    41.4488   4.0000   103.2340
  2      0.0000     0.0000E+00    0.0000E+00    3.160000E+06  0.00010  4.759E-02    0   1.0000   age045_m22            0.0000     2.1005E+02    10.4730   3.3363    97.2347
  3      1.5696     1.2875E-03    2.4699E-03    5.010000E+06  0.00010  1.932E-02    0   0.9582   age055_m22            0.0000     4.6941E+02    18.3040   3.5396    86.7115
  4      0.0000     0.0000E+00    0.0000E+00    6.610000E+06  0.00010  9.973E-03    0   0.9297   age061_m22            0.0000     2.6136E+03    40.6011   4.0000   105.9168
  5      0.0000     0.0000E+00    0.0000E+00    8.710000E+06  0.00010  7.690E-03    0   0.9030   age067_m22            0.0000     2.5701E+03    40.1972   4.0000   106.3128
  6      0.0000     0.0000E+00    0.0000E+00    1.000000E+07  0.00010  6.375E-03    0   0.8902   age070_m22            0.0000     2.5964E+03    40.1518   4.0000   106.6092
  7      0.0000     0.0000E+00    0.0000E+00    1.445000E+07  0.00010  4.874E-03    0   0.8589   age078_m22            0.0000     1.9762E+03    35.5982   4.0000   107.6260
  8      0.0000     0.0000E+00    0.0000E+00    2.512000E+07  0.00010  4.103E-03    0   0.8174   age090_m22            0.0000     9.6086E+02    25.2386   4.0000   107.7158
  9      0.0000     0.0000E+00    0.0000E+00    4.000000E+07  0.00010  3.654E-03    0   0.7830   age104_m22            0.0000     5.5478E+02    17.6836   4.0000   106.1911
 10      0.0000     0.0000E+00    0.0000E+00    5.500000E+07  0.00010  3.093E-03    0   0.7597   age110_m22            0.0000     4.6336E+02    15.3826   4.0000   105.2130
 11      0.0000     0.0000E+00    0.0000E+00    1.015200E+08  0.00010  2.431E-03    0   0.7138   age116_m22            0.0000     3.2929E+02    11.7105   4.0000    98.7790
 12      0.0000     0.0000E+00    0.0000E+00    1.609000E+08  0.00010  1.319E-03    0   0.6775   age120_m22            0.0000     3.0323E+02    10.9945   3.5528   100.1485
 13      0.0000     0.0000E+00    0.0000E+00    2.861200E+08  0.00010  1.075E-03    0   0.6412   age125_m22            0.0000     4.4943E+02    13.7466   3.6843   101.5171
 14      0.0000     0.0000E+00    0.0000E+00    5.088000E+08  0.00010  7.183E-04    0   0.6083   age130_m22            0.0000     4.9217E+02    14.5651   3.4701   102.6211
 15      0.0000     0.0000E+00    0.0000E+00    9.047900E+08  0.00010  4.524E-04    0   0.5785   age135_m22            0.0000     4.8723E+02    14.5934   3.2682   103.8392
 16      0.0000     0.0000E+00    0.0000E+00    1.278050E+09  0.00010  3.018E-04    0   0.5588   age138_m22            0.0000     3.0573E+02    11.1902   2.7000   103.3788
 17      0.0000     0.0000E+00    0.0000E+00    1.434000E+09  0.00010  2.691E-04    0   0.5532   age139_m22            0.0000     2.7245E+02    10.4920   2.5374   103.0710
 18      0.0000     0.0000E+00    0.0000E+00    2.500000E+09  0.00010  1.582E-04    0   0.5296   age150_m22            0.0000     2.6130E+02    10.3183   2.4072   104.3495
 19      0.0000     0.0000E+00    0.0000E+00    4.250000E+09  0.00010  1.007E-04    0   0.5110   age158_m22            0.0000     2.0248E+02     8.7575   2.2387   103.2222
 20      0.0000     0.0000E+00    0.0000E+00    6.250000E+09  0.00010  6.869E-05    0   0.4985   age166_m22            0.0000     1.6382E+02     7.6504   2.1655   100.9302
 21      0.0000     0.0000E+00    0.0000E+00    7.500000E+09  0.00010  5.873E-05    0   0.4931   age171_m22            0.0000     1.6488E+02     7.7266   2.1455   100.6233
 22      0.0000     0.0000E+00    0.0000E+00    1.000000E+10  0.00010  4.481E-05    0   0.4854   age181_m22            0.0000     1.6025E+02     7.6251   2.1080   100.2387
 23      0.0060     2.7180E-03    2.6069E-03    1.300000E+10  0.00010  3.489E-05    0   0.4791   age193_m22            0.0000     1.5122E+02     7.4038   2.0509    99.7144
 24      0.0000     0.0000E+00    0.0000E+00    1.500000E+10  0.00010  3.035E-05    0   0.4766   age201_m22            0.0000     1.4610E+02     7.2999   2.0103    99.6005
 25      0.0000     0.0000E+00    0.0000E+00    1.800000E+10  0.00010  2.510E-05    0   0.4735   age213_m22            0.0000     1.3637E+02     7.0965   1.9394    99.1077
 26      0.0000     0.0000E+00    0.0000E+00    1.000000E+06  0.00040  8.458E-03    0   1.0000   age020_m32            0.0000     2.7500E+03    41.5678   4.0000   104.0763
 27      0.0000     0.0000E+00    0.0000E+00    3.160000E+06  0.00040  3.973E-02    0   1.0000   age045_m32            0.0000     7.7203E+02    23.1835   4.0000   105.5917
 28      0.1325     1.0855E-04    2.0714E-04    5.010000E+06  0.00040  1.935E-02    0   0.9532   age055_m32            0.0000     1.2921E+03    30.5426   4.0000   103.6250
 29      0.0000     0.0000E+00    0.0000E+00    6.610000E+06  0.00040  1.204E-02    0   0.9243   age061_m32            0.0000     2.1233E+03    37.2270   4.0000   106.5020
 30      0.0000     0.0000E+00    0.0000E+00    8.710000E+06  0.00040  9.433E-03    0   0.9001   age067_m32            0.0000     2.0159E+03    36.2476   4.0000   107.1370
 31      0.0000     0.0000E+00    0.0000E+00    1.000000E+07  0.00040  8.053E-03    0   0.8877   age070_m32            0.0000     1.9051E+03    35.3787   4.0000   107.1403
 32      0.0000     0.0000E+00    0.0000E+00    1.445000E+07  0.00040  7.027E-03    0   0.8578   age078_m32            0.0000     7.3721E+02    23.3257   4.0000   103.1844
 33      0.0000     0.0000E+00    0.0000E+00    2.512000E+07  0.00040  4.707E-03    0   0.8166   age090_m32            0.0000     4.0228E+02    16.5488   4.0000   100.2582
 34      0.0000     0.0000E+00    0.0000E+00    4.000000E+07  0.00040  3.714E-03    0   0.7827   age104_m32            0.0000     3.0882E+02    12.7675   4.0000    98.3746
 35      0.0000     0.0000E+00    0.0000E+00    5.500000E+07  0.00040  2.982E-03    0   0.7593   age110_m32            0.0000     3.0490E+02    12.0475   4.0000    97.8434
 36      0.0000     0.0000E+00    0.0000E+00    1.015200E+08  0.00040  2.188E-03    0   0.7143   age116_m32            0.0000     3.5426E+02    11.9890   3.8196    99.7086
 37      0.0000     0.0000E+00    0.0000E+00    1.609000E+08  0.00040  1.690E-03    0   0.6856   age120_m32            0.0000     4.0574E+02    13.0845   3.6423   101.5524
 38      0.0000     0.0000E+00    0.0000E+00    2.861200E+08  0.00040  1.152E-03    0   0.6509   age125_m32            0.0000     4.5054E+02    13.8806   3.4427   102.4634
 39      0.0000     0.0000E+00    0.0000E+00    5.088000E+08  0.00040  7.331E-04    0   0.6182   age130_m32            0.0000     4.6464E+02    14.1120   3.2874   102.8732
 40      0.0000     0.0000E+00    0.0000E+00    9.047900E+08  0.00040  3.960E-04    0   0.5890   age135_m32            0.0000     3.1150E+02    11.3093   2.8041   102.3020
 41      0.0000     0.0000E+00    0.0000E+00    1.278050E+09  0.00040  2.854E-04    0   0.5687   age138_m32            0.0000     2.7527E+02    10.6917   2.4812   105.0836
 42      0.0000     0.0000E+00    0.0000E+00    1.434000E+09  0.00040  2.531E-04    0   0.5632   age139_m32            0.0000     2.6908E+02    10.6054   2.4191   105.1003
 43      0.0000     0.0000E+00    0.0000E+00    2.500000E+09  0.00040  1.488E-04    0   0.5386   age150_m32            0.0000     2.1545E+02     9.4050   2.1596   103.4697
 44      8.2605     1.4415E+00    1.5003E+00    4.250000E+09  0.00040  9.082E-05    0   0.5199   age158_m32            0.0000     1.4243E+02     7.0415   2.0363   100.9433
 45     15.5761     3.8801E+00    3.9429E+00    6.250000E+09  0.00040  6.362E-05    0   0.5076   age166_m32            0.0000     1.2101E+02     6.6408   1.9682    98.4227
 46     12.5435     3.7586E+00    3.7826E+00    7.500000E+09  0.00040  5.289E-05    0   0.5027   age171_m32            0.0000     1.1341E+02     6.5415   1.9298    97.2472
 47     10.6018     4.2301E+00    4.1902E+00    1.000000E+10  0.00040  3.972E-05    0   0.4948   age181_m32            0.0000     1.0385E+02     6.3421   1.8700    95.8464
 48      0.0098     4.7429E-03    4.6241E-03    1.300000E+10  0.00040  3.283E-05    0   0.4870   age193_m32            0.0000     1.0370E+02     6.1485   1.8389    98.2673
 49      0.0000     0.0000E+00    0.0000E+00    1.500000E+10  0.00040  2.925E-05    0   0.4854   age201_m32            0.0000     1.0885E+02     6.2625   1.8285    99.6581
 50      0.0000     0.0000E+00    0.0000E+00    1.800000E+10  0.00040  2.469E-05    0   0.4819   age213_m32            0.0000     1.0838E+02     6.2636   1.7923   100.1002
 51      0.0000     0.0000E+00    0.0000E+00    1.000000E+06  0.00400  1.114E-02    0   1.0000   age020_m42            0.0000     2.5057E+03    40.0175   4.0000   103.8039
 52      0.0000     0.0000E+00    0.0000E+00    3.160000E+06  0.00400  4.073E-02    0   0.9999   age045_m42            0.0000     3.7403E+02    15.8280   4.0000   101.2733
 53      0.0000     0.0000E+00    0.0000E+00    5.010000E+06  0.00400  2.534E-02    0   0.9488   age055_m42            0.0000     9.7004E+02    26.4166   4.0000   103.8216
 54      0.0000     0.0000E+00    0.0000E+00    6.610000E+06  0.00400  2.583E-02    0   0.9220   age061_m42            0.0000     2.8130E+02    13.0839   4.0000    97.5468
 55      0.0000     0.0000E+00    0.0000E+00    8.710000E+06  0.00400  1.706E-02    0   0.8983   age067_m42            0.0000     2.9344E+02    13.9578   3.9164    93.3666
 56      0.0000     0.0000E+00    0.0000E+00    1.000000E+07  0.00400  1.271E-02    0   0.8862   age070_m42            0.0000     3.4877E+02    15.7292   3.8794    92.5800
 57      0.0000     0.0000E+00    0.0000E+00    1.445000E+07  0.00400  7.666E-03    0   0.8571   age078_m42            0.0000     4.9745E+02    20.1114   4.0000    96.2076
 58      0.0000     0.0000E+00    0.0000E+00    2.512000E+07  0.00400  5.070E-03    0   0.8174   age090_m42            0.0000     3.1521E+02    15.0176   3.7597    93.9918
 59      0.0000     0.0000E+00    0.0000E+00    4.000000E+07  0.00400  3.505E-03    0   0.7851   age104_m42            0.0000     2.3442E+02    12.8848   3.4656    96.4358
 60      0.0000     0.0000E+00    0.0000E+00    5.500000E+07  0.00400  3.059E-03    0   0.7629   age110_m42            0.0000     2.2263E+02    10.5335   3.5802    99.2942
 61      0.0000     0.0000E+00    0.0000E+00    1.015200E+08  0.00400  2.268E-03    0   0.7207   age116_m42            0.0000     3.3785E+02    11.8392   3.5551   102.4387
 62      0.0000     0.0000E+00    0.0000E+00    1.609000E+08  0.00400  1.720E-03    0   0.6930   age120_m42            0.0000     3.4568E+02    12.0069   3.4331   103.4172
 63      0.0000     0.0000E+00    0.0000E+00    2.861200E+08  0.00400  1.079E-03    0   0.6613   age125_m42            0.0000     3.2465E+02    11.6627   3.0740   104.0058
 64      0.0000     0.0000E+00    0.0000E+00    5.088000E+08  0.00400  6.261E-04    0   0.6313   age130_m42            0.0000     3.5099E+02    12.4753   2.8758   107.0516
 65      0.0000     0.0000E+00    0.0000E+00    9.047900E+08  0.00400  3.535E-04    0   0.6024   age135_m42            0.0000     2.2771E+02     9.8885   2.4597   107.9367
 66      0.0000     0.0000E+00    0.0000E+00    1.278050E+09  0.00400  2.677E-04    0   0.5837   age138_m42            0.0000     6.5944E+01     5.3195   1.7901   105.2460
 67      0.0000     0.0000E+00    0.0000E+00    1.434000E+09  0.00400  1.910E-04    0   0.5716   age139_m42            0.0000     9.9429E+01     6.2740   1.9600   105.9701
 68      0.0000     0.0000E+00    0.0000E+00    2.500000E+09  0.00400  9.818E-05    0   0.5463   age150_m42            0.0000     2.8001E+01     3.1914   1.6887   101.3124
 69      0.4301     1.2413E-01    1.3093E-01    4.250000E+09  0.00400  5.491E-05    0   0.5269   age158_m42            0.0000     1.3226E+01     2.5018   1.5571    98.8863
 70      0.0000     0.0000E+00    0.0000E+00    6.250000E+09  0.00400  3.857E-05    0   0.5151   age166_m42            0.0000     1.1444E+01     2.5054   1.4406    97.4156
 71      0.0142     6.9250E-03    7.0843E-03    7.500000E+09  0.00400  3.243E-05    0   0.5110   age171_m42            0.0000     1.3373E+01     2.6946   1.3703    96.7181
 72      0.0244     1.5961E-02    1.6066E-02    1.000000E+10  0.00400  2.424E-05    0   0.5028   age181_m42            0.0000     1.9058E+01     3.1754   1.3000    95.9145
 73      1.7769     1.4955E+00    1.4752E+00    1.300000E+10  0.00400  1.883E-05    0   0.4927   age193_m42            0.0000     2.6158E+01     3.7044   1.2638    95.5523
 74      0.3015     2.8355E-01    2.7922E-01    1.500000E+10  0.00400  1.685E-05    0   0.4919   age201_m42            0.0000     2.4591E+01     3.5896   1.2675    95.6188
 75      6.1418     6.7036E+00    6.5411E+00    1.800000E+10  0.00400  1.452E-05    0   0.4874   age213_m42            0.0000     2.1935E+01     3.3956   1.2808    95.9597
 76      0.0000     0.0000E+00    0.0000E+00    1.000000E+06  0.00800  1.286E-02    0   1.0000   age020_m52            0.0000     2.3984E+03    39.0131   4.0000   105.5461
 77      0.0000     0.0000E+00    0.0000E+00    3.160000E+06  0.00800  3.147E-02    0   0.9966   age045_m52            0.0000     2.1465E+03    37.3775   4.0000   106.3029
 78      0.0000     0.0000E+00    0.0000E+00    5.010000E+06  0.00800  2.664E-02    0   0.9443   age055_m52            0.0000     1.2365E+03    29.6246   4.0000   105.0541
 79      0.0000     0.0000E+00    0.0000E+00    6.610000E+06  0.00800  2.151E-02    0   0.9177   age061_m52            0.0000     2.6756E+02    14.1963   3.4797    94.1062
 80      0.0000     0.0000E+00    0.0000E+00    8.710000E+06  0.00800  1.628E-02    0   0.8948   age067_m52            0.0000     3.0499E+02    14.6867   3.8670    94.1129
 81      0.0000     0.0000E+00    0.0000E+00    1.000000E+07  0.00800  1.215E-02    0   0.8827   age070_m52            0.0000     4.0268E+02    17.8020   4.0000    97.6666
 82      0.0000     0.0000E+00    0.0000E+00    1.445000E+07  0.00800  8.739E-03    0   0.8552   age078_m52            0.0000     4.2091E+02    17.7473   4.0000   100.0325
 83      0.0000     0.0000E+00    0.0000E+00    2.512000E+07  0.00800  5.676E-03    0   0.8162   age090_m52            0.0000     2.9869E+02    13.0344   3.8922    97.2606
 84      0.6714     2.7014E-03    4.2405E-03    4.000000E+07  0.00800  3.939E-03    0   0.7841   age104_m52            0.0000     2.7903E+02    11.7969   3.7561    98.8622
 85      0.0000     0.0000E+00    0.0000E+00    5.500000E+07  0.00800  3.155E-03    0   0.7627   age110_m52            0.0000     2.8616E+02    11.2316   3.7428    99.9578
 86      0.0000     0.0000E+00    0.0000E+00    1.015200E+08  0.00800  2.206E-03    0   0.7226   age116_m52            0.0000     3.0964E+02    11.0082   3.5935   102.7851
 87      0.0000     0.0000E+00    0.0000E+00    1.609000E+08  0.00800  1.596E-03    0   0.6963   age120_m52            0.0000     3.1619E+02    11.2970   3.3925   104.0770
 88      0.0000     0.0000E+00    0.0000E+00    2.861200E+08  0.00800  1.002E-03    0   0.6665   age125_m52            0.0000     3.5898E+02    12.4785   3.1361   105.7315
 89      0.0000     0.0000E+00    0.0000E+00    5.088000E+08  0.00800  5.759E-04    0   0.6377   age130_m52            0.0000     3.4614E+02    12.1884   2.8115   109.0023
 90      0.0000     0.0000E+00    0.0000E+00    9.047900E+08  0.00800  2.972E-04    0   0.6086   age135_m52            0.0000     1.9643E+02     8.6675   2.2802   107.5832
 91      0.0000     0.0000E+00    0.0000E+00    1.278050E+09  0.00800  2.242E-04    0   0.5907   age138_m52            0.0000     5.3316E+01     4.7029   1.6520   106.9913
 92      0.0000     0.0000E+00    0.0000E+00    1.434000E+09  0.00800  1.645E-04    0   0.5787   age139_m52            0.0000     5.0306E+01     4.4406   1.7909   106.6539
 93      0.0000     0.0000E+00    0.0000E+00    2.500000E+09  0.00800  7.723E-05    0   0.5519   age150_m52            0.0000     1.4257E+01     2.8586   1.4561   103.0361
 94      0.0000     0.0000E+00    0.0000E+00    4.250000E+09  0.00800  4.151E-05    0   0.5320   age158_m52            0.0000     1.1736E+01     2.8159   1.3827   100.6945
 95      0.0004     2.3465E-04    2.4413E-04    6.250000E+09  0.00800  3.010E-05    0   0.5197   age166_m52            0.0000     1.7214E+01     3.3425   1.2045    99.0452
 96      0.0000     0.0000E+00    0.0000E+00    7.500000E+09  0.00800  2.467E-05    0   0.5139   age171_m52            0.0000     2.0396E+01     3.5608   1.1670    98.5725
 97      0.0000     0.0000E+00    0.0000E+00    1.000000E+10  0.00800  1.862E-05    0   0.5054   age181_m52            0.0000     3.3687E+01     4.3705   1.0532    97.8439
