###################################################################
## OUTPUT of StarlightChains_v04.for    [Cid@UFSC - 01/Apr/2007] ##
###################################################################

## Some input info
NGC6254_a_1.cxt                          [arq_obs]
Base.BC03.S                              [arq_base]
NGC6254_a_1.msk                          [arq_masks]
StCv04.C99.config                        [arq_config]
  150                                    [N_base]
    0                                    [N_YAV_components = # of components with extra extinction!]
    0                                    [i_FitPowerLaw (1/0 = Yes/No)]
-9.99                                    [alpha_PowerLaw]
CCM                                      [red_law_option]
 1.458241                                [q_norm = A(l_norm)/A(V)]

## (Re)Sampling Parameters
 3359.00                                 [l_ini (A)]
 6428.00                                 [l_fin (A)]
    1.00                                 [dl    (A)]     (OBS: dl_cushion =    50.00 A)

## Normalization info
 4020.00                                 [l_norm (A) - for base]
 4010.00                                 [llow_norm (A) - window for f_obs]
 4060.00                                 [lupp_norm (A) - window for f_obs]
2.492239E-14                             [fobs_norm (in input units)]

## S/N
 4730.00                                 [llow_SN (A) - window for S/N]
 4780.00                                 [lupp_SN (A) - window for S/N]
 102.867                                 [S/N in S/N window]
  85.513                                 [S/N in norm. window]
 113.249                                 [S/N_err in S/N window]
  94.144                                 [S/N_err in norm. window]
  1.0000                                 [fscale_chi2]

## etc...
  2147483623                             [idum_orig]
  3066                                   [NOl_eff]
  1580                                   [Nl_eff]
  1486    NSIGMA                         [Ntot_cliped & clip_method]
  3028690                                [Nglobal_steps]
   7                                     [N_chains]
  17                                     [NEX0s_base = N_base in EX0s-fits]
 0   0   1      142   2.0   2.178E+02    [Clip-Bug, RC-Crash & Burn-In warning-flags, n_censored_weights, wei_nsig_threshold & wei_limit]
   140    139.358    139.326      0.032  [idt_all, wdt_TotTime, wdt_UsrTime & wdt_SysTime (sec)]

## Synthesis Results - Best model ##

 2.14947E+00                             [chi2/Nl_eff]
     1.38218                             [adev (%)]

   100.94801                             [sum-of-x (%)]
 7.09892E-14                             [Flux_tot (units of input spectrum!)]
 1.24365E-09                             [Mini_tot (???)]
 6.27405E-10                             [Mcor_tot (???)]

 -14.23                                  [v0_min  (km/s)]
  79.98                                  [vd_min  (km/s)]
 0.7723                                  [AV_min  (mag)]
 0.0000                                  [YAV_min (mag)]

# j     x_j(%)      Mini_j(%)     Mcor_j(%)     age_j(yr)     Z_j      (L/M)_j    YAV?  Mstars   component_j        a/Fe...       SSP_chi2r SSP_adev(%)   SSP_AV   SSP_x(%)
  1      0.0000     0.0000E+00    0.0000E+00    1.000000E+06  0.00010  8.160E-03    0   1.0000   age020_m22            0.0000     1.6538E+02    11.4071   4.0000    81.9462
  2     16.4783     1.9579E-02    3.8810E-02    3.160000E+06  0.00010  4.759E-02    0   1.0000   age045_m22            0.0000     1.7023E+01     3.5360   2.0902    99.2979
  3      0.2623     7.6758E-04    1.4579E-03    5.010000E+06  0.00010  1.932E-02    0   0.9582   age055_m22            0.0000     1.3650E+02    10.5798   2.3798    87.3811
  4      0.0000     0.0000E+00    0.0000E+00    6.610000E+06  0.00010  9.973E-03    0   0.9297   age061_m22            0.0000     1.5747E+02    11.3500   4.0000    84.3570
  5      0.0000     0.0000E+00    0.0000E+00    8.710000E+06  0.00010  7.690E-03    0   0.9030   age067_m22            0.0000     1.4770E+02    11.0025   4.0000    84.6047
  6      0.0000     0.0000E+00    0.0000E+00    1.000000E+07  0.00010  6.375E-03    0   0.8902   age070_m22            0.0000     1.4015E+02    10.6770   4.0000    84.9714
  7      0.0000     0.0000E+00    0.0000E+00    1.445000E+07  0.00010  4.874E-03    0   0.8589   age078_m22            0.0000     9.9924E+01     9.1638   3.8507    87.0782
  8      0.0000     0.0000E+00    0.0000E+00    2.512000E+07  0.00010  4.103E-03    0   0.8174   age090_m22            0.0000     4.3435E+01     6.0394   3.4546    92.8909
  9      0.0000     0.0000E+00    0.0000E+00    4.000000E+07  0.00010  3.654E-03    0   0.7830   age104_m22            0.0000     3.6887E+01     4.2903   3.1716    96.9893
 10      0.0000     0.0000E+00    0.0000E+00    5.500000E+07  0.00010  3.093E-03    0   0.7597   age110_m22            0.0000     4.0859E+01     4.0306   3.0700    98.4529
 11      0.0000     0.0000E+00    0.0000E+00    1.015200E+08  0.00010  2.431E-03    0   0.7138   age116_m22            0.0000     5.9785E+01     4.4602   2.7279   101.2214
 12      0.0000     0.0000E+00    0.0000E+00    1.609000E+08  0.00010  1.319E-03    0   0.6775   age120_m22            0.0000     6.5209E+01     4.5255   2.2446   103.7421
 13      0.0000     0.0000E+00    0.0000E+00    2.861200E+08  0.00010  1.075E-03    0   0.6412   age125_m22            0.0000     1.8372E+02     8.3914   2.3090   107.0013
 14      0.0000     0.0000E+00    0.0000E+00    5.088000E+08  0.00010  7.183E-04    0   0.6083   age130_m22            0.0000     2.3105E+02     9.8103   2.0760   108.6816
 15      0.0000     0.0000E+00    0.0000E+00    9.047900E+08  0.00010  4.524E-04    0   0.5785   age135_m22            0.0000     2.3494E+02    10.0311   1.8750   109.8455
 16      0.0000     0.0000E+00    0.0000E+00    1.278050E+09  0.00010  3.018E-04    0   0.5588   age138_m22            0.0000     1.1159E+02     6.9633   1.3460   108.0938
 17      0.0000     0.0000E+00    0.0000E+00    1.434000E+09  0.00010  2.691E-04    0   0.5532   age139_m22            0.0000     9.0477E+01     6.3394   1.1899   107.5206
 18      0.0000     0.0000E+00    0.0000E+00    2.500000E+09  0.00010  1.582E-04    0   0.5296   age150_m22            0.0000     7.5740E+01     5.6458   1.0812   108.1941
 19      0.0000     0.0000E+00    0.0000E+00    4.250000E+09  0.00010  1.007E-04    0   0.5110   age158_m22            0.0000     3.9095E+01     4.1074   0.9259   106.5981
 20      0.0000     0.0000E+00    0.0000E+00    6.250000E+09  0.00010  6.869E-05    0   0.4985   age166_m22            0.0000     1.4533E+01     2.6033   0.8641   103.9582
 21      0.0270     2.5980E-02    2.5394E-02    7.500000E+09  0.00010  5.873E-05    0   0.4931   age171_m22            0.0000     1.1737E+01     2.3480   0.8531   103.4359
 22      0.0000     0.0000E+00    0.0000E+00    1.000000E+10  0.00010  4.481E-05    0   0.4854   age181_m22            0.0000     1.1101E+01     2.3021   0.8144   103.0690
 23      3.6355     5.8920E+00    5.5955E+00    1.300000E+10  0.00010  3.489E-05    0   0.4791   age193_m22            0.0000     9.5108E+00     2.1851   0.7559   102.5355
 24      2.5523     4.7551E+00    4.4923E+00    1.500000E+10  0.00010  3.035E-05    0   0.4766   age201_m22            0.0000     8.5736E+00     2.1141   0.7162   102.3603
 25      1.8660     4.2036E+00    3.9455E+00    1.800000E+10  0.00010  2.510E-05    0   0.4735   age213_m22            0.0000     6.4426E+00     1.9250   0.6464   101.7764
 26      0.0000     0.0000E+00    0.0000E+00    1.000000E+06  0.00040  8.458E-03    0   1.0000   age020_m32            0.0000     1.6195E+02    11.2738   4.0000    82.9212
 27      0.0000     0.0000E+00    0.0000E+00    3.160000E+06  0.00040  3.973E-02    0   1.0000   age045_m32            0.0000     4.8534E+01     6.5221   3.3532    92.9569
 28      0.0000     0.0000E+00    0.0000E+00    5.010000E+06  0.00040  1.935E-02    0   0.9532   age055_m32            0.0000     1.1464E+02     9.9655   3.5779    87.5793
 29      0.0000     0.0000E+00    0.0000E+00    6.610000E+06  0.00040  1.204E-02    0   0.9243   age061_m32            0.0000     1.2848E+02    10.3939   3.8841    85.7851
 30      0.0000     0.0000E+00    0.0000E+00    8.710000E+06  0.00040  9.433E-03    0   0.9001   age067_m32            0.0000     1.1380E+02     9.8171   3.8566    86.5958
 31      0.0000     0.0000E+00    0.0000E+00    1.000000E+07  0.00040  8.053E-03    0   0.8877   age070_m32            0.0000     1.0806E+02     9.5845   3.8205    87.0350
 32      0.0000     0.0000E+00    0.0000E+00    1.445000E+07  0.00040  7.027E-03    0   0.8578   age078_m32            0.0000     6.3386E+01     7.4790   3.3112    91.7677
 33      0.0000     0.0000E+00    0.0000E+00    2.512000E+07  0.00040  4.707E-03    0   0.8166   age090_m32            0.0000     3.8710E+01     5.4906   3.0207    95.3874
 34      0.0000     0.0000E+00    0.0000E+00    4.000000E+07  0.00040  3.714E-03    0   0.7827   age104_m32            0.0000     3.3529E+01     4.1208   2.8256    98.3456
 35      0.0000     0.0000E+00    0.0000E+00    5.500000E+07  0.00040  2.982E-03    0   0.7593   age110_m32            0.0000     3.7868E+01     3.9807   2.7643    99.4361
 36      0.0000     0.0000E+00    0.0000E+00    1.015200E+08  0.00040  2.188E-03    0   0.7143   age116_m32            0.0000     8.9758E+01     5.3864   2.4990   103.5056
 37      0.0000     0.0000E+00    0.0000E+00    1.609000E+08  0.00040  1.690E-03    0   0.6856   age120_m32            0.0000     1.3950E+02     6.9311   2.2971   106.0705
 38      0.0000     0.0000E+00    0.0000E+00    2.861200E+08  0.00040  1.152E-03    0   0.6509   age125_m32            0.0000     1.9527E+02     8.8380   2.0636   108.0605
 39      0.0000     0.0000E+00    0.0000E+00    5.088000E+08  0.00040  7.331E-04    0   0.6182   age130_m32            0.0000     2.1612E+02     9.5878   1.8965   108.7830
 40      0.0000     0.0000E+00    0.0000E+00    9.047900E+08  0.00040  3.960E-04    0   0.5890   age135_m32            0.0000     1.1838E+02     7.4196   1.4279   107.4935
 41      0.0000     0.0000E+00    0.0000E+00    1.278050E+09  0.00040  2.854E-04    0   0.5687   age138_m32            0.0000     8.9726E+01     6.2536   1.1450   109.1696
 42      0.0000     0.0000E+00    0.0000E+00    1.434000E+09  0.00040  2.531E-04    0   0.5632   age139_m32            0.0000     8.6441E+01     6.1264   1.0860   109.1062
 43      1.8321     6.9622E-01    7.4330E-01    2.500000E+09  0.00040  1.488E-04    0   0.5386   age150_m32            0.0000     5.6375E+01     5.1283   0.8280   107.3441
 44      6.3853     3.9755E+00    4.0970E+00    4.250000E+09  0.00040  9.082E-05    0   0.5199   age158_m32            0.0000     1.5021E+01     2.8158   0.7230   104.2016
 45     28.6959     2.5505E+01    2.5662E+01    6.250000E+09  0.00040  6.362E-05    0   0.5076   age166_m32            0.0000     2.7523E+00     1.4932   0.6769   101.0033
 46     35.6081     3.8069E+01    3.7934E+01    7.500000E+09  0.00040  5.289E-05    0   0.5027   age171_m32            0.0000     2.9991E+00     1.5581   0.6368    99.8104
 47      0.0000     0.0000E+00    0.0000E+00    1.000000E+10  0.00040  3.972E-05    0   0.4948   age181_m32            0.0000     4.3188E+00     1.7878   0.5705    98.4946
 48      0.0000     0.0000E+00    0.0000E+00    1.300000E+10  0.00040  3.283E-05    0   0.4870   age193_m32            0.0000     5.3240E+00     1.9733   0.5310   101.1051
 49      0.0000     0.0000E+00    0.0000E+00    1.500000E+10  0.00040  2.925E-05    0   0.4854   age201_m32            0.0000     9.0973E+00     2.4449   0.5157   102.6199
 50      0.0000     0.0000E+00    0.0000E+00    1.800000E+10  0.00040  2.469E-05    0   0.4819   age213_m32            0.0000     1.1568E+01     2.7273   0.4768   103.1069
 51      0.0000     0.0000E+00    0.0000E+00    1.000000E+06  0.00400  1.114E-02    0   1.0000   age020_m42            0.0000     1.5216E+02    11.0281   3.9941    82.2428
 52      0.0000     1.6004E-08    3.1721E-08    3.160000E+06  0.00400  4.073E-02    0   0.9999   age045_m42            0.0000     2.8529E+01     4.9056   3.0605    95.4130
 53      0.0000     0.0000E+00    0.0000E+00    5.010000E+06  0.00400  2.534E-02    0   0.9488   age055_m42            0.0000     7.2099E+01     7.9711   3.4523    89.6060
 54      0.0000     6.6976E-08    1.2240E-07    6.610000E+06  0.00400  2.583E-02    0   0.9220   age061_m42            0.0000     2.7427E+01     4.3259   2.8818    95.9932
 55      0.0000     0.0000E+00    0.0000E+00    8.710000E+06  0.00400  1.706E-02    0   0.8983   age067_m42            0.0000     4.1250E+01     5.9308   2.7096    94.3700
 56      0.0000     0.0000E+00    0.0000E+00    1.000000E+07  0.00400  1.271E-02    0   0.8862   age070_m42            0.0000     6.3912E+01     7.5430   2.6991    93.0643
 57      0.0000     0.0000E+00    0.0000E+00    1.445000E+07  0.00400  7.666E-03    0   0.8571   age078_m42            0.0000     8.6111E+01     8.4889   3.0853    90.1597
 58      0.0000     0.0000E+00    0.0000E+00    2.512000E+07  0.00400  5.070E-03    0   0.8174   age090_m42            0.0000     5.1497E+01     6.8360   2.5616    94.8698
 59      0.0000     0.0000E+00    0.0000E+00    4.000000E+07  0.00400  3.505E-03    0   0.7851   age104_m42            0.0000     2.8275E+01     5.0523   2.2373    97.8903
 60      0.0000     0.0000E+00    0.0000E+00    5.500000E+07  0.00400  3.059E-03    0   0.7629   age110_m42            0.0000     3.3121E+01     3.5392   2.2971   102.0128
 61      0.0000     0.0000E+00    0.0000E+00    1.015200E+08  0.00400  2.268E-03    0   0.7207   age116_m42            0.0000     1.2260E+02     6.6791   2.2085   106.8123
 62      0.0000     0.0000E+00    0.0000E+00    1.609000E+08  0.00400  1.720E-03    0   0.6930   age120_m42            0.0000     1.3965E+02     7.4951   2.0642   108.4590
 63      0.0000     0.0000E+00    0.0000E+00    2.861200E+08  0.00400  1.079E-03    0   0.6613   age125_m42            0.0000     1.5050E+02     7.9327   1.7110   108.9007
 64      0.0000     0.0000E+00    0.0000E+00    5.088000E+08  0.00400  6.261E-04    0   0.6313   age130_m42            0.0000     1.7261E+02     8.5783   1.5210   111.6103
 65      0.0000     0.0000E+00    0.0000E+00    9.047900E+08  0.00400  3.535E-04    0   0.6024   age135_m42            0.0000     1.0238E+02     7.0139   1.1185   111.7938
 66      0.0000     0.0000E+00    0.0000E+00    1.278050E+09  0.00400  2.677E-04    0   0.5837   age138_m42            0.0000     6.4497E+01     6.5335   0.4220   109.1336
 67      0.0000     0.0000E+00    0.0000E+00    1.434000E+09  0.00400  1.910E-04    0   0.5716   age139_m42            0.0000     6.5428E+01     6.4081   0.5911   110.0956
 68      0.0000     0.0000E+00    0.0000E+00    2.500000E+09  0.00400  9.818E-05    0   0.5463   age150_m42            0.0000     4.7224E+01     5.6110   0.3117   105.2883
 69      0.0000     0.0000E+00    0.0000E+00    4.250000E+09  0.00400  5.491E-05    0   0.5269   age158_m42            0.0000     5.2436E+01     5.7285   0.1880   102.4756
 70      0.0000     0.0000E+00    0.0000E+00    6.250000E+09  0.00400  3.857E-05    0   0.5151   age166_m42            0.0000     7.0958E+01     6.4507   0.0605   101.0185
 71      0.0000     0.0000E+00    0.0000E+00    7.500000E+09  0.00400  3.243E-05    0   0.5110   age171_m42            0.0000     8.5015E+01     6.9416  -0.0183   100.3941
 72      0.0000     0.0000E+00    0.0000E+00    1.000000E+10  0.00400  2.424E-05    0   0.5028   age181_m42            0.0000     1.0530E+02     7.5829  -0.0971    99.6662
 73      0.0000     0.0000E+00    0.0000E+00    1.300000E+10  0.00400  1.883E-05    0   0.4927   age193_m42            0.0000     1.2146E+02     8.0775  -0.1362    99.3146
 74      0.0000     0.0000E+00    0.0000E+00    1.500000E+10  0.00400  1.685E-05    0   0.4919   age201_m42            0.0000     1.1679E+02     7.9551  -0.1309    99.3597
 75      0.0000     0.0000E+00    0.0000E+00    1.800000E+10  0.00400  1.452E-05    0   0.4874   age213_m42            0.0000     1.0833E+02     7.7268  -0.1138    99.6546
 76      0.0000     0.0000E+00    0.0000E+00    1.000000E+06  0.00800  1.286E-02    0   1.0000   age020_m52            0.0000     1.2951E+02    10.3309   3.9726    84.0047
 77      0.0000     0.0000E+00    0.0000E+00    3.160000E+06  0.00800  3.147E-02    0   0.9966   age045_m52            0.0000     1.2412E+02    10.1830   3.8899    85.4864
 78      0.0000     0.0000E+00    0.0000E+00    5.010000E+06  0.00800  2.664E-02    0   0.9443   age055_m52            0.0000     8.7323E+01     8.6654   3.5624    88.8093
 79      0.0000     0.0000E+00    0.0000E+00    6.610000E+06  0.00800  2.151E-02    0   0.9177   age061_m52            0.0000     4.5219E+01     6.3723   2.2720    95.1824
 80      0.0000     0.0000E+00    0.0000E+00    8.710000E+06  0.00800  1.628E-02    0   0.8948   age067_m52            0.0000     4.6679E+01     6.5122   2.6556    95.2306
 81      0.0000     0.0000E+00    0.0000E+00    1.000000E+07  0.00800  1.215E-02    0   0.8827   age070_m52            0.0000     6.0818E+01     7.3928   2.9941    93.4229
 82      0.0000     0.0000E+00    0.0000E+00    1.445000E+07  0.00800  8.739E-03    0   0.8552   age078_m52            0.0000     5.0092E+01     6.5595   3.0362    94.5324
 83      0.0000     0.0000E+00    0.0000E+00    2.512000E+07  0.00800  5.676E-03    0   0.8162   age090_m52            0.0000     4.0914E+01     5.0051   2.6534    98.8386
 84      0.0000     0.0000E+00    0.0000E+00    4.000000E+07  0.00800  3.939E-03    0   0.7841   age104_m52            0.0000     4.1701E+01     4.2273   2.4894   101.2557
 85      0.0000     0.0000E+00    0.0000E+00    5.500000E+07  0.00800  3.155E-03    0   0.7627   age110_m52            0.0000     5.3542E+01     4.1789   2.4538   102.9477
 86      0.0000     0.0000E+00    0.0000E+00    1.015200E+08  0.00800  2.206E-03    0   0.7226   age116_m52            0.0000     9.3263E+01     5.6172   2.2638   106.7120
 87      0.0000     0.0000E+00    0.0000E+00    1.609000E+08  0.00800  1.596E-03    0   0.6963   age120_m52            0.0000     1.1825E+02     6.7066   2.0481   108.3602
 88      0.0000     0.0000E+00    0.0000E+00    2.861200E+08  0.00800  1.002E-03    0   0.6665   age125_m52            0.0000     1.9113E+02     9.3520   1.7508   111.1279
 89      0.0000     0.0000E+00    0.0000E+00    5.088000E+08  0.00800  5.759E-04    0   0.6377   age130_m52            0.0000     2.1150E+02    10.4486   1.3985   115.1026
 90      0.0000     0.0000E+00    0.0000E+00    9.047900E+08  0.00800  2.972E-04    0   0.6086   age135_m52            0.0000     1.3399E+02     8.8575   0.8472   113.9858
 91      0.0000     0.0000E+00    0.0000E+00    1.278050E+09  0.00800  2.242E-04    0   0.5907   age138_m52            0.0000     8.9885E+01     7.5666   0.2332   112.3984
 92      0.0000     0.0000E+00    0.0000E+00    1.434000E+09  0.00800  1.645E-04    0   0.5787   age139_m52            0.0000     7.4134E+01     6.9060   0.3831   111.8339
 93      0.0000     0.0000E+00    0.0000E+00    2.500000E+09  0.00800  7.723E-05    0   0.5519   age150_m52            0.0000     8.3297E+01     7.1457   0.0395   107.9092
 94      0.0000     0.0000E+00    0.0000E+00    4.250000E+09  0.00800  4.151E-05    0   0.5320   age158_m52            0.0000     8.8455E+01     7.2053  -0.0300   105.2262
 95      0.0000     0.0000E+00    0.0000E+00    6.250000E+09  0.00800  3.010E-05    0   0.5197   age166_m52            0.0000     1.2326E+02     8.2198  -0.2253   103.6929
 96      0.0000     0.0000E+00    0.0000E+00    7.500000E+09  0.00800  2.467E-05    0   0.5139   age171_m52            0.0000     1.3350E+02     8.4904  -0.2679   103.2580
 97      0.0000     0.0000E+00    0.0000E+00    1.000000E+10  0.00800  1.862E-05    0   0.5054   age181_m52            0.0000     1.6694E+02     9.3448  -0.4004   102.7881
