###################################################################
## OUTPUT of StarlightChains_v04.for    [Cid@UFSC - 01/Apr/2007] ##
###################################################################

## Some input info
NGC6528_a_1.cxt                          [arq_obs]
Base.BC03.S                              [arq_base]
NGC6528_a_1.msk                          [arq_masks]
StCv04.C99.config                        [arq_config]
  150                                    [N_base]
    0                                    [N_YAV_components = # of components with extra extinction!]
    0                                    [i_FitPowerLaw (1/0 = Yes/No)]
-9.99                                    [alpha_PowerLaw]
CCM                                      [red_law_option]
 1.458241                                [q_norm = A(l_norm)/A(V)]

## (Re)Sampling Parameters
 3359.00                                 [l_ini (A)]
 6428.00                                 [l_fin (A)]
    1.00                                 [dl    (A)]     (OBS: dl_cushion =    50.00 A)

## Normalization info
 4020.00                                 [l_norm (A) - for base]
 4010.00                                 [llow_norm (A) - window for f_obs]
 4060.00                                 [lupp_norm (A) - window for f_obs]
3.287291E-15                             [fobs_norm (in input units)]

## S/N
 4730.00                                 [llow_SN (A) - window for S/N]
 4780.00                                 [lupp_SN (A) - window for S/N]
  27.037                                 [S/N in S/N window]
  13.551                                 [S/N in norm. window]
 247.699                                 [S/N_err in S/N window]
 124.147                                 [S/N_err in norm. window]
  1.0000                                 [fscale_chi2]

## etc...
  2147483606                             [idum_orig]
  3066                                   [NOl_eff]
   687                                   [Nl_eff]
  2379    NSIGMA                         [Ntot_cliped & clip_method]
  3794630                                [Nglobal_steps]
   7                                     [N_chains]
  25                                     [NEX0s_base = N_base in EX0s-fits]
 0   0   1      104   2.0   2.945E+02    [Clip-Bug, RC-Crash & Burn-In warning-flags, n_censored_weights, wei_nsig_threshold & wei_limit]
   144    143.729    143.729      0.000  [idt_all, wdt_TotTime, wdt_UsrTime & wdt_SysTime (sec)]

## Synthesis Results - Best model ##

 2.72480E+00                             [chi2/Nl_eff]
     2.38370                             [adev (%)]

   104.38046                             [sum-of-x (%)]
 2.13639E-14                             [Flux_tot (units of input spectrum!)]
 1.59321E-09                             [Mini_tot (???)]
 8.06486E-10                             [Mcor_tot (???)]

  -7.06                                  [v0_min  (km/s)]
 108.23                                  [vd_min  (km/s)]
 1.3616                                  [AV_min  (mag)]
 0.0000                                  [YAV_min (mag)]

# j     x_j(%)      Mini_j(%)     Mcor_j(%)     age_j(yr)     Z_j      (L/M)_j    YAV?  Mstars   component_j        a/Fe...       SSP_chi2r SSP_adev(%)   SSP_AV   SSP_x(%)
  1      2.8458     4.4803E-03    8.8508E-03    1.000000E+06  0.00010  8.160E-03    0   1.0000   age020_m22            0.0000     4.4736E+03    54.5050   4.0000    97.9245
  2      0.0000     0.0000E+00    0.0000E+00    3.160000E+06  0.00010  4.759E-02    0   1.0000   age045_m22            0.0000     5.0957E+02    15.0105   4.0000   100.8693
  3      8.0044     5.3224E-03    1.0075E-02    5.010000E+06  0.00010  1.932E-02    0   0.9582   age055_m22            0.0000     9.4464E+02    25.7641   4.0000    95.0560
  4      0.0000     0.0000E+00    0.0000E+00    6.610000E+06  0.00010  9.973E-03    0   0.9297   age061_m22            0.0000     4.5012E+03    53.5736   4.0000   101.1923
  5      0.0000     0.0000E+00    0.0000E+00    8.710000E+06  0.00010  7.690E-03    0   0.9030   age067_m22            0.0000     4.4244E+03    53.1011   4.0000   101.6756
  6      0.0000     0.0000E+00    0.0000E+00    1.000000E+07  0.00010  6.375E-03    0   0.8902   age070_m22            0.0000     4.4163E+03    52.8966   4.0000   101.8520
  7      0.1712     4.5118E-04    7.6554E-04    1.445000E+07  0.00010  4.874E-03    0   0.8589   age078_m22            0.0000     3.6868E+03    48.7790   4.0000   104.8389
  8      0.0000     0.0000E+00    0.0000E+00    2.512000E+07  0.00010  4.103E-03    0   0.8174   age090_m22            0.0000     2.4083E+03    38.9148   4.0000   109.8809
  9      0.9365     3.2926E-03    5.0931E-03    4.000000E+07  0.00010  3.654E-03    0   0.7830   age104_m22            0.0000     1.7698E+03    30.6017   4.0000   111.9881
 10      0.0000     0.0000E+00    0.0000E+00    5.500000E+07  0.00010  3.093E-03    0   0.7597   age110_m22            0.0000     1.5593E+03    27.5638   4.0000   112.4439
 11      0.0000     0.0000E+00    0.0000E+00    1.015200E+08  0.00010  2.431E-03    0   0.7138   age116_m22            0.0000     1.1539E+03    21.4661   4.0000   111.1628
 12      0.0000     0.0000E+00    0.0000E+00    1.609000E+08  0.00010  1.319E-03    0   0.6775   age120_m22            0.0000     7.5989E+02    17.1094   4.0000   106.5659
 13      0.0000     0.0000E+00    0.0000E+00    2.861200E+08  0.00010  1.075E-03    0   0.6412   age125_m22            0.0000     9.8368E+02    20.0623   4.0000   110.0192
 14      0.0000     0.0000E+00    0.0000E+00    5.088000E+08  0.00010  7.183E-04    0   0.6083   age130_m22            0.0000     9.7145E+02    20.8624   4.0000   107.4319
 15      0.0000     0.0000E+00    0.0000E+00    9.047900E+08  0.00010  4.524E-04    0   0.5785   age135_m22            0.0000     9.5418E+02    21.0781   3.8794   107.1370
 16      0.0000     0.0000E+00    0.0000E+00    1.278050E+09  0.00010  3.018E-04    0   0.5588   age138_m22            0.0000     6.5823E+02    17.7271   3.3733   105.5743
 17      0.0000     0.0000E+00    0.0000E+00    1.434000E+09  0.00010  2.691E-04    0   0.5532   age139_m22            0.0000     5.9775E+02    16.9738   3.2165   105.1385
 18      0.0000     0.0000E+00    0.0000E+00    2.500000E+09  0.00010  1.582E-04    0   0.5296   age150_m22            0.0000     5.8665E+02    17.0735   3.1303   105.7961
 19      0.0000     0.0000E+00    0.0000E+00    4.250000E+09  0.00010  1.007E-04    0   0.5110   age158_m22            0.0000     4.8492E+02    15.3360   2.9741   104.5343
 20      0.0000     0.0000E+00    0.0000E+00    6.250000E+09  0.00010  6.869E-05    0   0.4985   age166_m22            0.0000     4.0834E+02    13.8516   2.9128   102.2294
 21      0.0000     0.0000E+00    0.0000E+00    7.500000E+09  0.00010  5.873E-05    0   0.4931   age171_m22            0.0000     4.0821E+02    13.9270   2.9142   101.6741
 22      0.0000     0.0000E+00    0.0000E+00    1.000000E+10  0.00010  4.481E-05    0   0.4854   age181_m22            0.0000     3.9999E+02    13.7761   2.8722   101.3483
 23      0.0000     0.0000E+00    0.0000E+00    1.300000E+10  0.00010  3.489E-05    0   0.4791   age193_m22            0.0000     3.8215E+02    13.4086   2.8064   100.9054
 24      0.0000     0.0000E+00    0.0000E+00    1.500000E+10  0.00010  3.035E-05    0   0.4766   age201_m22            0.0000     3.7272E+02    13.2341   2.7657   100.7445
 25      0.9209     4.7132E-01    4.4087E-01    1.800000E+10  0.00010  2.510E-05    0   0.4735   age213_m22            0.0000     3.5328E+02    12.8416   2.6932   100.2325
 26      0.0000     0.0000E+00    0.0000E+00    1.000000E+06  0.00040  8.458E-03    0   1.0000   age020_m32            0.0000     4.5381E+03    54.4537   4.0000    98.7130
 27      0.0000     0.0000E+00    0.0000E+00    3.160000E+06  0.00040  3.973E-02    0   1.0000   age045_m32            0.0000     2.2268E+03    37.5504   4.0000   109.3739
 28      0.0000     0.0000E+00    0.0000E+00    5.010000E+06  0.00040  1.935E-02    0   0.9532   age055_m32            0.0000     3.1301E+03    45.2323   4.0000   104.4406
 29      0.0000     0.0000E+00    0.0000E+00    6.610000E+06  0.00040  1.204E-02    0   0.9243   age061_m32            0.0000     3.9615E+03    50.6591   4.0000   103.2935
 30      0.0000     0.0000E+00    0.0000E+00    8.710000E+06  0.00040  9.433E-03    0   0.9001   age067_m32            0.0000     3.8062E+03    49.6612   4.0000   104.2399
 31      0.0000     0.0000E+00    0.0000E+00    1.000000E+07  0.00040  8.053E-03    0   0.8877   age070_m32            0.0000     3.6765E+03    48.8849   4.0000   104.6764
 32      0.0000     0.0000E+00    0.0000E+00    1.445000E+07  0.00040  7.027E-03    0   0.8578   age078_m32            0.0000     2.2755E+03    38.0149   4.0000   107.6677
 33      0.0000     0.0000E+00    0.0000E+00    2.512000E+07  0.00040  4.707E-03    0   0.8166   age090_m32            0.0000     1.6040E+03    30.4249   4.0000   109.0415
 34      0.0000     0.0000E+00    0.0000E+00    4.000000E+07  0.00040  3.714E-03    0   0.7827   age104_m32            0.0000     1.2648E+03    24.5922   4.0000   109.8216
 35      0.0000     0.0000E+00    0.0000E+00    5.500000E+07  0.00040  2.982E-03    0   0.7593   age110_m32            0.0000     1.1788E+03    22.8077   4.0000   110.0772
 36      0.0000     0.0000E+00    0.0000E+00    1.015200E+08  0.00040  2.188E-03    0   0.7143   age116_m32            0.0000     9.6713E+02    19.2347   4.0000   110.0259
 37      0.0000     0.0000E+00    0.0000E+00    1.609000E+08  0.00040  1.690E-03    0   0.6856   age120_m32            0.0000     9.3268E+02    19.6516   4.0000   109.2017
 38      0.0000     0.0000E+00    0.0000E+00    2.861200E+08  0.00040  1.152E-03    0   0.6509   age125_m32            0.0000     9.1370E+02    20.3259   4.0000   106.8254
 39      0.0000     0.0000E+00    0.0000E+00    5.088000E+08  0.00040  7.331E-04    0   0.6182   age130_m32            0.0000     9.1566E+02    20.6059   3.9032   106.0588
 40      0.0000     0.0000E+00    0.0000E+00    9.047900E+08  0.00040  3.960E-04    0   0.5890   age135_m32            0.0000     6.5403E+02    17.3558   3.4190   105.3735
 41      0.0000     0.0000E+00    0.0000E+00    1.278050E+09  0.00040  2.854E-04    0   0.5687   age138_m32            0.0000     6.1181E+02    17.2840   3.1752   106.9148
 42      0.0000     0.0000E+00    0.0000E+00    1.434000E+09  0.00040  2.531E-04    0   0.5632   age139_m32            0.0000     6.0157E+02    17.2559   3.1219   106.8010
 43      0.0000     0.0000E+00    0.0000E+00    2.500000E+09  0.00040  1.488E-04    0   0.5386   age150_m32            0.0000     5.0281E+02    15.8802   2.8580   105.2634
 44      0.0000     0.0000E+00    0.0000E+00    4.250000E+09  0.00040  9.082E-05    0   0.5199   age158_m32            0.0000     3.6815E+02    13.1956   2.7516   102.5788
 45      0.0000     0.0000E+00    0.0000E+00    6.250000E+09  0.00040  6.362E-05    0   0.5076   age166_m32            0.0000     3.1125E+02    11.7634   2.7178    99.7212
 46      0.6223     1.5116E-01    1.5011E-01    7.500000E+09  0.00040  5.289E-05    0   0.5027   age171_m32            0.0000     2.9294E+02    11.3400   2.6703    98.6496
 47      3.9141     1.2659E+00    1.2374E+00    1.000000E+10  0.00040  3.972E-05    0   0.4948   age181_m32            0.0000     2.7268E+02    10.9021   2.5913    97.4435
 48      0.0000     0.0000E+00    0.0000E+00    1.300000E+10  0.00040  3.283E-05    0   0.4870   age193_m32            0.0000     2.9072E+02    11.3833   2.5461    99.8703
 49      0.0000     0.0000E+00    0.0000E+00    1.500000E+10  0.00040  2.925E-05    0   0.4854   age201_m32            0.0000     3.0870E+02    11.8599   2.5300   101.2493
 50      0.3425     1.7822E-01    1.6966E-01    1.800000E+10  0.00040  2.469E-05    0   0.4819   age213_m32            0.0000     3.1080E+02    11.9685   2.4894   101.6806
 51      0.0000     0.0000E+00    0.0000E+00    1.000000E+06  0.00400  1.114E-02    0   1.0000   age020_m42            0.0000     4.2652E+03    53.1456   4.0000    99.2590
 52      0.0000     0.0000E+00    0.0000E+00    3.160000E+06  0.00400  4.073E-02    0   0.9999   age045_m42            0.0000     1.4953E+03    29.7519   4.0000   109.4861
 53      0.0000     0.0000E+00    0.0000E+00    5.010000E+06  0.00400  2.534E-02    0   0.9488   age055_m42            0.0000     2.5241E+03    40.9441   4.0000   106.1959
 54      0.0000     0.0000E+00    0.0000E+00    6.610000E+06  0.00400  2.583E-02    0   0.9220   age061_m42            0.0000     1.2540E+03    25.8236   4.0000   108.0203
 55      0.0000     0.0000E+00    0.0000E+00    8.710000E+06  0.00400  1.706E-02    0   0.8983   age067_m42            0.0000     1.1241E+03    24.8381   4.0000   104.7261
 56      0.0000     0.0000E+00    0.0000E+00    1.000000E+07  0.00400  1.271E-02    0   0.8862   age070_m42            0.0000     1.2030E+03    26.3935   4.0000   103.5347
 57      0.2887     4.8385E-04    8.1925E-04    1.445000E+07  0.00400  7.666E-03    0   0.8571   age078_m42            0.0000     1.8655E+03    34.8800   4.0000   104.1788
 58      0.0000     0.0000E+00    0.0000E+00    2.512000E+07  0.00400  5.070E-03    0   0.8174   age090_m42            0.0000     9.6631E+02    23.6606   4.0000   103.6646
 59      0.0000     0.0000E+00    0.0000E+00    4.000000E+07  0.00400  3.505E-03    0   0.7851   age104_m42            0.0000     5.7301E+02    18.2024   4.0000   101.7884
 60      0.0000     0.0000E+00    0.0000E+00    5.500000E+07  0.00400  3.059E-03    0   0.7629   age110_m42            0.0000     6.4340E+02    16.0028   4.0000   105.7389
 61      0.0000     0.0000E+00    0.0000E+00    1.015200E+08  0.00400  2.268E-03    0   0.7207   age116_m42            0.0000     7.9954E+02    18.3699   4.0000   108.1855
 62      0.0000     0.0000E+00    0.0000E+00    1.609000E+08  0.00400  1.720E-03    0   0.6930   age120_m42            0.0000     7.6872E+02    18.6195   4.0000   107.1373
 63      0.0000     0.0000E+00    0.0000E+00    2.861200E+08  0.00400  1.079E-03    0   0.6613   age125_m42            0.0000     7.2945E+02    18.5381   3.7392   106.0348
 64      0.0000     0.0000E+00    0.0000E+00    5.088000E+08  0.00400  6.261E-04    0   0.6313   age130_m42            0.0000     7.7030E+02    19.3841   3.5506   108.8449
 65      0.0000     0.0000E+00    0.0000E+00    9.047900E+08  0.00400  3.535E-04    0   0.6024   age135_m42            0.0000     5.5412E+02    16.3929   3.1285   109.6457
 66      0.0000     0.0000E+00    0.0000E+00    1.278050E+09  0.00400  2.677E-04    0   0.5837   age138_m42            0.0000     2.2064E+02    10.4789   2.3451   107.9627
 67      0.4611     3.1012E-02    3.5019E-02    1.434000E+09  0.00400  1.910E-04    0   0.5716   age139_m42            0.0000     2.9809E+02    11.7966   2.5278   108.6981
 68      0.0000     0.0000E+00    0.0000E+00    2.500000E+09  0.00400  9.818E-05    0   0.5463   age150_m42            0.0000     1.3012E+02     7.1651   2.2003   104.8418
 69      0.0000     0.0000E+00    0.0000E+00    4.250000E+09  0.00400  5.491E-05    0   0.5269   age158_m42            0.0000     8.1467E+01     5.6668   2.0732   102.2738
 70      0.0000     0.0000E+00    0.0000E+00    6.250000E+09  0.00400  3.857E-05    0   0.5151   age166_m42            0.0000     5.4896E+01     4.7099   1.9166   101.1575
 71      0.0000     0.0000E+00    0.0000E+00    7.500000E+09  0.00400  3.243E-05    0   0.5110   age171_m42            0.0000     4.3161E+01     4.2754   1.8211   100.6942
 72      0.0000     0.0000E+00    0.0000E+00    1.000000E+10  0.00400  2.424E-05    0   0.5028   age181_m42            0.0000     3.1693E+01     3.8697   1.7229   100.1949
 73      0.0000     0.0000E+00    0.0000E+00    1.300000E+10  0.00400  1.883E-05    0   0.4927   age193_m42            0.0000     2.6028E+01     3.7340   1.6749    99.9709
 74      0.0000     0.0000E+00    0.0000E+00    1.500000E+10  0.00400  1.685E-05    0   0.4919   age201_m42            0.0000     2.7117E+01     3.7173   1.6859    99.9351
 75      0.0000     0.0000E+00    0.0000E+00    1.800000E+10  0.00400  1.452E-05    0   0.4874   age213_m42            0.0000     2.9561E+01     3.7582   1.7133   100.0910
 76      0.0000     0.0000E+00    0.0000E+00    1.000000E+06  0.00800  1.286E-02    0   1.0000   age020_m52            0.0000     4.0977E+03    52.1055   4.0000   101.4724
 77      0.0000     0.0000E+00    0.0000E+00    3.160000E+06  0.00800  3.147E-02    0   0.9966   age045_m52            0.0000     3.8805E+03    50.7355   4.0000   103.0986
 78      0.0000     0.0000E+00    0.0000E+00    5.010000E+06  0.00800  2.664E-02    0   0.9443   age055_m52            0.0000     2.8338E+03    43.9332   4.0000   105.9167
 79      0.0000     0.0000E+00    0.0000E+00    6.610000E+06  0.00800  2.151E-02    0   0.9177   age061_m52            0.0000     5.9664E+02    19.8613   4.0000   100.0827
 80      0.0000     0.0000E+00    0.0000E+00    8.710000E+06  0.00800  1.628E-02    0   0.8948   age067_m52            0.0000     1.0619E+03    24.8574   4.0000   105.0966
 81      0.0000     0.0000E+00    0.0000E+00    1.000000E+07  0.00800  1.215E-02    0   0.8827   age070_m52            0.0000     1.6255E+03    32.2865   4.0000   106.8435
 82      0.0000     0.0000E+00    0.0000E+00    1.445000E+07  0.00800  8.739E-03    0   0.8552   age078_m52            0.0000     1.6619E+03    32.1504   4.0000   108.3738
 83      0.0000     0.0000E+00    0.0000E+00    2.512000E+07  0.00800  5.676E-03    0   0.8162   age090_m52            0.0000     1.0977E+03    22.9040   4.0000   108.5102
 84      0.0000     0.0000E+00    0.0000E+00    4.000000E+07  0.00800  3.939E-03    0   0.7841   age104_m52            0.0000     8.9330E+02    18.9329   4.0000   108.4250
 85      0.0000     0.0000E+00    0.0000E+00    5.500000E+07  0.00800  3.155E-03    0   0.7627   age110_m52            0.0000     8.6300E+02    17.7452   4.0000   109.2318
 86      0.0008     4.7809E-06    6.8247E-06    1.015200E+08  0.00800  2.206E-03    0   0.7226   age116_m52            0.0000     7.7593E+02    17.2192   4.0000   109.2978
 87      0.0000     0.0000E+00    0.0000E+00    1.609000E+08  0.00800  1.596E-03    0   0.6963   age120_m52            0.0000     7.3531E+02    18.1257   4.0000   107.0489
 88      0.0000     0.0000E+00    0.0000E+00    2.861200E+08  0.00800  1.002E-03    0   0.6665   age125_m52            0.0000     7.8220E+02    19.1178   3.7428   108.3795
 89      0.0000     0.0000E+00    0.0000E+00    5.088000E+08  0.00800  5.759E-04    0   0.6377   age130_m52            0.0000     7.2621E+02    18.0873   3.3326   112.9834
 90      0.0000     0.0000E+00    0.0000E+00    9.047900E+08  0.00800  2.972E-04    0   0.6086   age135_m52            0.0000     4.1442E+02    13.0210   2.7132   113.0641
 91      0.0000     0.0000E+00    0.0000E+00    1.278050E+09  0.00800  2.242E-04    0   0.5907   age138_m52            0.0000     1.5995E+02     8.4240   2.0952   111.6106
 92      0.0000     0.0000E+00    0.0000E+00    1.434000E+09  0.00800  1.645E-04    0   0.5787   age139_m52            0.0000     1.7081E+02     8.5167   2.2587   110.9957
 93      0.0000     0.0000E+00    0.0000E+00    2.500000E+09  0.00800  7.723E-05    0   0.5519   age150_m52            0.0000     6.8875E+01     5.6028   1.8810   107.7271
 94      0.4744     1.4681E-01    1.5430E-01    4.250000E+09  0.00800  4.151E-05    0   0.5320   age158_m52            0.0000     4.9377E+01     4.7661   1.8056   105.3103
 95      0.0000     0.0000E+00    0.0000E+00    6.250000E+09  0.00800  3.010E-05    0   0.5197   age166_m52            0.0000     2.3666E+01     3.9481   1.5741   104.2046
 96      0.0000     0.0000E+00    0.0000E+00    7.500000E+09  0.00800  2.467E-05    0   0.5139   age171_m52            0.0000     1.9866E+01     3.8535   1.5210   103.8910
 97      2.8517     1.9675E+00    1.9644E+00    1.000000E+10  0.00800  1.862E-05    0   0.5054   age181_m52            0.0000     1.3994E+01     3.9229   1.3547   103.7635
