###################################################################
## OUTPUT of StarlightChains_v04.for    [Cid@UFSC - 01/Apr/2007] ##
###################################################################

## Some input info
NGC6356_a_1.cxt                          [arq_obs]
Base.BC03.S                              [arq_base]
NGC6356_a_1.msk                          [arq_masks]
StCv04.C99.config                        [arq_config]
  150                                    [N_base]
    0                                    [N_YAV_components = # of components with extra extinction!]
    0                                    [i_FitPowerLaw (1/0 = Yes/No)]
-9.99                                    [alpha_PowerLaw]
CCM                                      [red_law_option]
 1.458241                                [q_norm = A(l_norm)/A(V)]

## (Re)Sampling Parameters
 3359.00                                 [l_ini (A)]
 6428.00                                 [l_fin (A)]
    1.00                                 [dl    (A)]     (OBS: dl_cushion =    50.00 A)

## Normalization info
 4020.00                                 [l_norm (A) - for base]
 4010.00                                 [llow_norm (A) - window for f_obs]
 4060.00                                 [lupp_norm (A) - window for f_obs]
1.105556E-14                             [fobs_norm (in input units)]

## S/N
 4730.00                                 [llow_SN (A) - window for S/N]
 4780.00                                 [lupp_SN (A) - window for S/N]
  43.679                                 [S/N in S/N window]
  28.435                                 [S/N in norm. window]
  64.165                                 [S/N_err in S/N window]
  41.771                                 [S/N_err in norm. window]
  1.0000                                 [fscale_chi2]

## etc...
  2147483612                             [idum_orig]
  3066                                   [NOl_eff]
  1589                                   [Nl_eff]
  1477    NSIGMA                         [Ntot_cliped & clip_method]
  3454500                                [Nglobal_steps]
   7                                     [N_chains]
  21                                     [NEX0s_base = N_base in EX0s-fits]
 0   0   1      257   2.0   8.800E+02    [Clip-Bug, RC-Crash & Burn-In warning-flags, n_censored_weights, wei_nsig_threshold & wei_limit]
   132    132.131    132.111      0.020  [idt_all, wdt_TotTime, wdt_UsrTime & wdt_SysTime (sec)]

## Synthesis Results - Best model ##

 2.87923E+00                             [chi2/Nl_eff]
     1.90670                             [adev (%)]

   101.61303                             [sum-of-x (%)]
 3.07514E-14                             [Flux_tot (units of input spectrum!)]
 1.65625E-09                             [Mini_tot (???)]
 8.34000E-10                             [Mcor_tot (???)]

   5.77                                  [v0_min  (km/s)]
  70.23                                  [vd_min  (km/s)]
 0.7498                                  [AV_min  (mag)]
 0.0000                                  [YAV_min (mag)]

# j     x_j(%)      Mini_j(%)     Mcor_j(%)     age_j(yr)     Z_j      (L/M)_j    YAV?  Mstars   component_j        a/Fe...       SSP_chi2r SSP_adev(%)   SSP_AV   SSP_x(%)
  1      0.3965     8.8791E-04    1.7633E-03    1.000000E+06  0.00010  8.160E-03    0   1.0000   age020_m22            0.0000     1.5408E+03    31.1770   4.0000    77.7910
  2     11.8872     4.5641E-03    9.0638E-03    3.160000E+06  0.00010  4.759E-02    0   1.0000   age045_m22            0.0000     3.2403E+02     7.5032   3.0325    93.3033
  3      2.2756     2.1521E-03    4.0953E-03    5.010000E+06  0.00010  1.932E-02    0   0.9582   age055_m22            0.0000     4.9585E+02    12.3990   3.3806    81.0909
  4      0.0000     0.0000E+00    0.0000E+00    6.610000E+06  0.00010  9.973E-03    0   0.9297   age061_m22            0.0000     1.4359E+03    30.9412   4.0000    79.8690
  5      0.0000     0.0000E+00    0.0000E+00    8.710000E+06  0.00010  7.690E-03    0   0.9030   age067_m22            0.0000     1.3936E+03    30.6205   4.0000    80.3181
  6      0.0000     0.0000E+00    0.0000E+00    1.000000E+07  0.00010  6.375E-03    0   0.8902   age070_m22            0.0000     1.3819E+03    30.7697   4.0000    80.5043
  7      0.0000     0.0000E+00    0.0000E+00    1.445000E+07  0.00010  4.874E-03    0   0.8589   age078_m22            0.0000     1.0458E+03    26.1344   4.0000    83.3788
  8      0.0000     0.0000E+00    0.0000E+00    2.512000E+07  0.00010  4.103E-03    0   0.8174   age090_m22            0.0000     5.9082E+02    15.9481   4.0000    88.3947
  9      0.0000     0.0000E+00    0.0000E+00    4.000000E+07  0.00010  3.654E-03    0   0.7830   age104_m22            0.0000     5.7492E+02     9.5192   4.0000    90.8501
 10      0.0000     0.0000E+00    0.0000E+00    5.500000E+07  0.00010  3.093E-03    0   0.7597   age110_m22            0.0000     6.1476E+02     8.2359   4.0000    91.5157
 11      0.0000     0.0000E+00    0.0000E+00    1.015200E+08  0.00010  2.431E-03    0   0.7138   age116_m22            0.0000     7.4999E+02     8.2636   3.6854    93.4026
 12      0.0000     0.0000E+00    0.0000E+00    1.609000E+08  0.00010  1.319E-03    0   0.6775   age120_m22            0.0000     7.4000E+02     8.2380   3.2041    95.2169
 13      0.0000     0.0000E+00    0.0000E+00    2.861200E+08  0.00010  1.075E-03    0   0.6412   age125_m22            0.0000     1.2321E+03     8.7975   3.2585    97.8960
 14      0.0000     0.0000E+00    0.0000E+00    5.088000E+08  0.00010  7.183E-04    0   0.6083   age130_m22            0.0000     1.3664E+03     9.1912   3.0133    99.5598
 15      0.0000     0.0000E+00    0.0000E+00    9.047900E+08  0.00010  4.524E-04    0   0.5785   age135_m22            0.0000     1.3679E+03     9.3524   2.8064   100.7466
 16      0.0000     0.0000E+00    0.0000E+00    1.278050E+09  0.00010  3.018E-04    0   0.5588   age138_m22            0.0000     8.6741E+02     8.1387   2.2601   100.1163
 17      0.0000     0.0000E+00    0.0000E+00    1.434000E+09  0.00010  2.691E-04    0   0.5532   age139_m22            0.0000     7.6960E+02     7.8486   2.0998    99.9228
 18      0.0000     0.0000E+00    0.0000E+00    2.500000E+09  0.00010  1.582E-04    0   0.5296   age150_m22            0.0000     7.2837E+02     8.0073   1.9933   100.3802
 19      0.0000     0.0000E+00    0.0000E+00    4.250000E+09  0.00010  1.007E-04    0   0.5110   age158_m22            0.0000     5.3184E+02     7.3738   1.8375    99.5276
 20      0.0000     0.0000E+00    0.0000E+00    6.250000E+09  0.00010  6.869E-05    0   0.4985   age166_m22            0.0000     3.6873E+02     6.8271   1.7782    97.7171
 21      0.0000     0.0000E+00    0.0000E+00    7.500000E+09  0.00010  5.873E-05    0   0.4931   age171_m22            0.0000     3.5320E+02     6.9123   1.7703    97.1661
 22      0.0000     0.0000E+00    0.0000E+00    1.000000E+10  0.00010  4.481E-05    0   0.4854   age181_m22            0.0000     3.4570E+02     6.8142   1.7330    96.8689
 23      0.0000     0.0000E+00    0.0000E+00    1.300000E+10  0.00010  3.489E-05    0   0.4791   age193_m22            0.0000     3.2725E+02     6.6396   1.6735    96.5347
 24      0.0000     0.0000E+00    0.0000E+00    1.500000E+10  0.00010  3.035E-05    0   0.4766   age201_m22            0.0000     3.1697E+02     6.5572   1.6343    96.4366
 25      0.0000     0.0000E+00    0.0000E+00    1.800000E+10  0.00010  2.510E-05    0   0.4735   age213_m22            0.0000     2.9197E+02     6.3875   1.5653    96.0504
 26      0.0000     0.0000E+00    0.0000E+00    1.000000E+06  0.00040  8.458E-03    0   1.0000   age020_m32            0.0000     1.5354E+03    31.6227   4.0000    78.2473
 27      0.0000     0.0000E+00    0.0000E+00    3.160000E+06  0.00040  3.973E-02    0   1.0000   age045_m32            0.0000     5.3139E+02    13.3717   4.0000    88.2496
 28      0.0000     0.0000E+00    0.0000E+00    5.010000E+06  0.00040  1.935E-02    0   0.9532   age055_m32            0.0000     8.0668E+02    19.9562   4.0000    83.2772
 29      0.0000     0.0000E+00    0.0000E+00    6.610000E+06  0.00040  1.204E-02    0   0.9243   age061_m32            0.0000     1.1773E+03    27.4301   4.0000    81.8652
 30      0.0000     0.0000E+00    0.0000E+00    8.710000E+06  0.00040  9.433E-03    0   0.9001   age067_m32            0.0000     1.1024E+03    26.5912   4.0000    82.7428
 31      0.0000     0.0000E+00    0.0000E+00    1.000000E+07  0.00040  8.053E-03    0   0.8877   age070_m32            0.0000     1.0461E+03    25.6886   4.0000    83.1742
 32      0.0000     0.0000E+00    0.0000E+00    1.445000E+07  0.00040  7.027E-03    0   0.8578   age078_m32            0.0000     5.3595E+02    12.9334   4.0000    86.6364
 33      0.0000     0.0000E+00    0.0000E+00    2.512000E+07  0.00040  4.707E-03    0   0.8166   age090_m32            0.0000     4.5548E+02     9.2606   4.0000    88.3523
 34      0.0000     0.0000E+00    0.0000E+00    4.000000E+07  0.00040  3.714E-03    0   0.7827   age104_m32            0.0000     5.3355E+02     8.5797   3.7931    91.0051
 35      0.0000     0.0000E+00    0.0000E+00    5.500000E+07  0.00040  2.982E-03    0   0.7593   age110_m32            0.0000     5.8860E+02     8.4360   3.7287    91.9036
 36      0.0000     0.0000E+00    0.0000E+00    1.015200E+08  0.00040  2.188E-03    0   0.7143   age116_m32            0.0000     8.8884E+02     8.2559   3.4546    95.2337
 37      0.0000     0.0000E+00    0.0000E+00    1.609000E+08  0.00040  1.690E-03    0   0.6856   age120_m32            0.0000     1.1076E+03     8.6204   3.2443    97.2161
 38      0.0000     0.0000E+00    0.0000E+00    2.861200E+08  0.00040  1.152E-03    0   0.6509   age125_m32            0.0000     1.2510E+03     8.9298   3.0015    99.0137
 39      0.0000     0.0000E+00    0.0000E+00    5.088000E+08  0.00040  7.331E-04    0   0.6182   age130_m32            0.0000     1.2952E+03     9.0578   2.8270    99.9292
 40      0.0000     0.0000E+00    0.0000E+00    9.047900E+08  0.00040  3.960E-04    0   0.5890   age135_m32            0.0000     8.7611E+02     8.0383   2.3400    99.9799
 41      0.0000     0.0000E+00    0.0000E+00    1.278050E+09  0.00040  2.854E-04    0   0.5687   age138_m32            0.0000     7.9636E+02     8.0744   2.0591   101.2138
 42      0.0000     0.0000E+00    0.0000E+00    1.434000E+09  0.00040  2.531E-04    0   0.5632   age139_m32            0.0000     7.7809E+02     8.0546   1.9970   101.2008
 43      0.0000     0.0000E+00    0.0000E+00    2.500000E+09  0.00040  1.488E-04    0   0.5386   age150_m32            0.0000     6.0362E+02     7.3942   1.7302   100.2579
 44      0.0000     0.0000E+00    0.0000E+00    4.250000E+09  0.00040  9.082E-05    0   0.5199   age158_m32            0.0000     3.4580E+02     6.3816   1.6269    98.3237
 45      0.0000     0.0000E+00    0.0000E+00    6.250000E+09  0.00040  6.362E-05    0   0.5076   age166_m32            0.0000     2.2328E+02     6.0036   1.5919    95.8915
 46      1.4854     5.1318E-01    5.1232E-01    7.500000E+09  0.00040  5.289E-05    0   0.5027   age171_m32            0.0000     1.9969E+02     5.7745   1.5543    95.0041
 47      0.1814     8.3466E-02    8.2016E-02    1.000000E+10  0.00040  3.972E-05    0   0.4948   age181_m32            0.0000     1.7931E+02     5.5066   1.4886    94.0576
 48      0.0000     0.0000E+00    0.0000E+00    1.300000E+10  0.00040  3.283E-05    0   0.4870   age193_m32            0.0000     2.3032E+02     5.5946   1.4420    96.1876
 49      0.0000     0.0000E+00    0.0000E+00    1.500000E+10  0.00040  2.925E-05    0   0.4854   age201_m32            0.0000     2.7301E+02     5.7378   1.4228    97.3837
 50      0.0113     8.3899E-03    8.0292E-03    1.800000E+10  0.00040  2.469E-05    0   0.4819   age213_m32            0.0000     2.9045E+02     5.7377   1.3813    97.7995
 51      0.0000     0.0000E+00    0.0000E+00    1.000000E+06  0.00400  1.114E-02    0   1.0000   age020_m42            0.0000     1.4150E+03    29.8760   4.0000    78.8273
 52      0.0000     0.0000E+00    0.0000E+00    3.160000E+06  0.00400  4.073E-02    0   0.9999   age045_m42            0.0000     3.8058E+02     8.0483   4.0000    89.5529
 53      0.0000     0.0000E+00    0.0000E+00    5.010000E+06  0.00400  2.534E-02    0   0.9488   age055_m42            0.0000     6.0735E+02    15.9256   4.0000    85.5680
 54      3.1708     2.2430E-03    4.1070E-03    6.610000E+06  0.00400  2.583E-02    0   0.9220   age061_m42            0.0000     4.3417E+02     8.0129   3.8433    89.7766
 55      0.0000     0.0000E+00    0.0000E+00    8.710000E+06  0.00400  1.706E-02    0   0.8983   age067_m42            0.0000     4.1223E+02     9.2542   3.6813    87.9279
 56      0.0000     0.0000E+00    0.0000E+00    1.000000E+07  0.00400  1.271E-02    0   0.8862   age070_m42            0.0000     4.3833E+02    10.4464   3.6784    86.3835
 57      0.0000     0.0000E+00    0.0000E+00    1.445000E+07  0.00400  7.666E-03    0   0.8571   age078_m42            0.0000     4.6381E+02    10.7236   4.0000    84.3014
 58      0.0000     0.0000E+00    0.0000E+00    2.512000E+07  0.00400  5.070E-03    0   0.8174   age090_m42            0.0000     4.1185E+02     9.9600   3.5418    87.9476
 59      0.0000     0.0000E+00    0.0000E+00    4.000000E+07  0.00400  3.505E-03    0   0.7851   age104_m42            0.0000     3.7428E+02     8.5549   3.2089    90.9457
 60      0.0000     0.0000E+00    0.0000E+00    5.500000E+07  0.00400  3.059E-03    0   0.7629   age110_m42            0.0000     5.3933E+02     7.3640   3.2491    94.5946
 61      0.0000     0.0000E+00    0.0000E+00    1.015200E+08  0.00400  2.268E-03    0   0.7207   age116_m42            0.0000     9.9622E+02     7.8357   3.1508    98.4319
 62      0.0000     0.0000E+00    0.0000E+00    1.609000E+08  0.00400  1.720E-03    0   0.6930   age120_m42            0.0000     1.0229E+03     7.9146   2.9955   100.1911
 63      0.0000     0.0000E+00    0.0000E+00    2.861200E+08  0.00400  1.079E-03    0   0.6613   age125_m42            0.0000     9.9584E+02     7.9076   2.6333   100.5592
 64      0.0000     0.0000E+00    0.0000E+00    5.088000E+08  0.00400  6.261E-04    0   0.6313   age130_m42            0.0000     1.0880E+03     8.5206   2.4383   102.8889
 65      0.0000     0.0000E+00    0.0000E+00    9.047900E+08  0.00400  3.535E-04    0   0.6024   age135_m42            0.0000     7.4302E+02     7.5861   2.0162   104.2950
 66      0.7345     5.0135E-02    5.8115E-02    1.278050E+09  0.00400  2.677E-04    0   0.5837   age138_m42            0.0000     2.8405E+02     4.8012   1.2926   104.8632
 67      0.0000     0.0000E+00    0.0000E+00    1.434000E+09  0.00400  1.910E-04    0   0.5716   age139_m42            0.0000     3.9587E+02     5.4574   1.4676   105.0211
 68      0.0000     0.0000E+00    0.0000E+00    2.500000E+09  0.00400  9.818E-05    0   0.5463   age150_m42            0.0000     1.2182E+02     3.1927   1.1871   102.4371
 69      0.0137     4.5659E-03    4.7777E-03    4.250000E+09  0.00400  5.491E-05    0   0.5269   age158_m42            0.0000     4.9663E+01     2.4428   1.0665   100.4395
 70      0.0000     0.0000E+00    0.0000E+00    6.250000E+09  0.00400  3.857E-05    0   0.5151   age166_m42            0.0000     2.5500E+01     2.3123   0.9364    99.8118
 71      0.0000     0.0000E+00    0.0000E+00    7.500000E+09  0.00400  3.243E-05    0   0.5110   age171_m42            0.0000     1.8164E+01     2.4134   0.8542    99.6446
 72      0.0000     0.0000E+00    0.0000E+00    1.000000E+10  0.00400  2.424E-05    0   0.5028   age181_m42            0.0000     1.3871E+01     2.6100   0.7701    99.4858
 73      0.0000     0.0000E+00    0.0000E+00    1.300000E+10  0.00400  1.883E-05    0   0.4927   age193_m42            0.0000     1.5879E+01     2.7906   0.7286    99.4890
 74      0.0000     0.0000E+00    0.0000E+00    1.500000E+10  0.00400  1.685E-05    0   0.4919   age201_m42            0.0000     1.4762E+01     2.7112   0.7340    99.4404
 75      0.0000     0.0000E+00    0.0000E+00    1.800000E+10  0.00400  1.452E-05    0   0.4874   age213_m42            0.0000     1.3641E+01     2.5893   0.7517    99.5563
 76      0.0000     0.0000E+00    0.0000E+00    1.000000E+06  0.00800  1.286E-02    0   1.0000   age020_m52            0.0000     1.3103E+03    29.2126   4.0000    80.3997
 77      0.0000     0.0000E+00    0.0000E+00    3.160000E+06  0.00800  3.147E-02    0   0.9966   age045_m52            0.0000     1.1841E+03    27.4207   4.0000    81.7275
 78      0.0000     0.0000E+00    0.0000E+00    5.010000E+06  0.00800  2.664E-02    0   0.9443   age055_m52            0.0000     7.5419E+02    19.1360   4.0000    84.8484
 79      0.0000     0.0000E+00    0.0000E+00    6.610000E+06  0.00800  2.151E-02    0   0.9177   age061_m52            0.0000     3.4348E+02     9.1488   3.2585    88.7872
 80      0.0000     0.0000E+00    0.0000E+00    8.710000E+06  0.00800  1.628E-02    0   0.8948   age067_m52            0.0000     4.2624E+02     9.5859   3.6437    88.1861
 81      0.0000     0.0000E+00    0.0000E+00    1.000000E+07  0.00800  1.215E-02    0   0.8827   age070_m52            0.0000     4.6391E+02    10.1236   3.9923    86.3578
 82      0.0000     0.0000E+00    0.0000E+00    1.445000E+07  0.00800  8.739E-03    0   0.8552   age078_m52            0.0000     4.7960E+02     9.6258   4.0000    87.6002
 83      0.0000     0.0000E+00    0.0000E+00    2.512000E+07  0.00800  5.676E-03    0   0.8162   age090_m52            0.0000     5.5001E+02     9.0152   3.6245    91.0663
 84      0.0000     0.0000E+00    0.0000E+00    4.000000E+07  0.00800  3.939E-03    0   0.7841   age104_m52            0.0000     6.0235E+02     8.2890   3.4523    93.1835
 85      0.0000     0.0000E+00    0.0000E+00    5.500000E+07  0.00800  3.155E-03    0   0.7627   age110_m52            0.0000     6.8233E+02     8.0272   3.4139    94.6987
 86      0.0000     0.0000E+00    0.0000E+00    1.015200E+08  0.00800  2.206E-03    0   0.7226   age116_m52            0.0000     8.5768E+02     7.7734   3.2125    98.3193
 87      0.0000     0.0000E+00    0.0000E+00    1.609000E+08  0.00800  1.596E-03    0   0.6963   age120_m52            0.0000     9.2868E+02     7.8247   2.9896    99.8403
 88      0.0000     0.0000E+00    0.0000E+00    2.861200E+08  0.00800  1.002E-03    0   0.6665   age125_m52            0.0000     1.1311E+03     8.2500   2.6740   102.6215
 89      0.0000     0.0000E+00    0.0000E+00    5.088000E+08  0.00800  5.759E-04    0   0.6377   age130_m52            0.0000     1.1227E+03     8.5277   2.2971   107.0459
 90      0.0000     0.0000E+00    0.0000E+00    9.047900E+08  0.00800  2.972E-04    0   0.6086   age135_m52            0.0000     6.4266E+02     7.2570   1.7082   108.2750
 91      0.0000     0.0000E+00    0.0000E+00    1.278050E+09  0.00800  2.242E-04    0   0.5907   age138_m52            0.0000     2.3413E+02     4.7317   1.0888   108.9225
 92      0.0000     0.0000E+00    0.0000E+00    1.434000E+09  0.00800  1.645E-04    0   0.5787   age139_m52            0.0000     2.2793E+02     4.4521   1.2455   108.1595
 93      0.0000     0.0000E+00    0.0000E+00    2.500000E+09  0.00800  7.723E-05    0   0.5519   age150_m52            0.0000     6.8875E+01     3.1080   0.9070   105.9558
 94      0.0000     0.0000E+00    0.0000E+00    4.250000E+09  0.00800  4.151E-05    0   0.5320   age158_m52            0.0000     3.4666E+01     2.7531   0.8409   103.7929
 95      0.2169     1.3167E-01    1.3589E-01    6.250000E+09  0.00800  3.010E-05    0   0.5197   age166_m52            0.0000     1.8622E+01     3.0561   0.6405   103.2578
 96      0.0000     0.0000E+00    0.0000E+00    7.500000E+09  0.00800  2.467E-05    0   0.5139   age171_m52            0.0000     1.9014E+01     3.2543   0.5961   103.0831
 97     39.2369     3.8504E+01    3.8646E+01    1.000000E+10  0.00800  1.862E-05    0   0.5054   age181_m52            0.0000     2.8731E+01     3.9588   0.4562   103.3251
