###################################################################
## OUTPUT of StarlightChains_v04.for    [Cid@UFSC - 01/Apr/2007] ##
###################################################################

## Some input info
NGC6342_a_1.cxt                          [arq_obs]
Base.BC03.S                              [arq_base]
NGC6342_a_1.msk                          [arq_masks]
StCv04.C99.config                        [arq_config]
  150                                    [N_base]
    0                                    [N_YAV_components = # of components with extra extinction!]
    0                                    [i_FitPowerLaw (1/0 = Yes/No)]
-9.99                                    [alpha_PowerLaw]
CCM                                      [red_law_option]
 1.458241                                [q_norm = A(l_norm)/A(V)]

## (Re)Sampling Parameters
 3359.00                                 [l_ini (A)]
 6428.00                                 [l_fin (A)]
    1.00                                 [dl    (A)]     (OBS: dl_cushion =    50.00 A)

## Normalization info
 4020.00                                 [l_norm (A) - for base]
 4010.00                                 [llow_norm (A) - window for f_obs]
 4060.00                                 [lupp_norm (A) - window for f_obs]
2.158412E-15                             [fobs_norm (in input units)]

## S/N
 4730.00                                 [llow_SN (A) - window for S/N]
 4780.00                                 [lupp_SN (A) - window for S/N]
  41.172                                 [S/N in S/N window]
  28.335                                 [S/N in norm. window]
 118.442                                 [S/N_err in S/N window]
  81.514                                 [S/N_err in norm. window]
  1.0000                                 [fscale_chi2]

## etc...
  2147483615                             [idum_orig]
  3065                                   [NOl_eff]
  1148                                   [Nl_eff]
  1917    NSIGMA                         [Ntot_cliped & clip_method]
  4074560                                [Nglobal_steps]
   7                                     [N_chains]
  31                                     [NEX0s_base = N_base in EX0s-fits]
 0   0   1      115   2.0   8.710E+02    [Clip-Bug, RC-Crash & Burn-In warning-flags, n_censored_weights, wei_nsig_threshold & wei_limit]
   144    144.451    144.451      0.000  [idt_all, wdt_TotTime, wdt_UsrTime & wdt_SysTime (sec)]

## Synthesis Results - Best model ##

 2.73338E+00                             [chi2/Nl_eff]
     1.39027                             [adev (%)]

    96.89577                             [sum-of-x (%)]
 8.72518E-15                             [Flux_tot (units of input spectrum!)]
 2.99442E-10                             [Mini_tot (???)]
 1.50286E-10                             [Mcor_tot (???)]

  -2.24                                  [v0_min  (km/s)]
  63.86                                  [vd_min  (km/s)]
 1.0635                                  [AV_min  (mag)]
 0.0000                                  [YAV_min (mag)]

# j     x_j(%)      Mini_j(%)     Mcor_j(%)     age_j(yr)     Z_j      (L/M)_j    YAV?  Mstars   component_j        a/Fe...       SSP_chi2r SSP_adev(%)   SSP_AV   SSP_x(%)
  1      0.0000     0.0000E+00    0.0000E+00    1.000000E+06  0.00010  8.160E-03    0   1.0000   age020_m22            0.0000     2.0263E+03    28.0521   4.0000    80.4307
  2      1.1376     7.1883E-04    1.4323E-03    3.160000E+06  0.00010  4.759E-02    0   1.0000   age045_m22            0.0000     7.4471E+01     6.7204   2.9490    93.0019
  3      0.0000     0.0000E+00    0.0000E+00    5.010000E+06  0.00010  1.932E-02    0   0.9582   age055_m22            0.0000     3.5324E+02    13.5345   3.3865    73.8047
  4      0.0000     0.0000E+00    0.0000E+00    6.610000E+06  0.00010  9.973E-03    0   0.9297   age061_m22            0.0000     1.9052E+03    26.9863   4.0000    83.1507
  5      0.0000     0.0000E+00    0.0000E+00    8.710000E+06  0.00010  7.690E-03    0   0.9030   age067_m22            0.0000     1.8424E+03    26.5197   4.0000    83.8924
  6      0.0000     0.0000E+00    0.0000E+00    1.000000E+07  0.00010  6.375E-03    0   0.8902   age070_m22            0.0000     1.8395E+03    26.4428   4.0000    84.4475
  7      0.0000     0.0000E+00    0.0000E+00    1.445000E+07  0.00010  4.874E-03    0   0.8589   age078_m22            0.0000     1.2237E+03    21.7296   4.0000    87.8010
  8      0.0000     0.0000E+00    0.0000E+00    2.512000E+07  0.00010  4.103E-03    0   0.8174   age090_m22            0.0000     3.0559E+02    12.1028   4.0000    92.1204
  9      0.0000     0.0000E+00    0.0000E+00    4.000000E+07  0.00010  3.654E-03    0   0.7830   age104_m22            0.0000     9.0831E+01     8.1370   3.9785    93.3324
 10      0.0000     0.0000E+00    0.0000E+00    5.500000E+07  0.00010  3.093E-03    0   0.7597   age110_m22            0.0000     9.0138E+01     7.8281   3.8515    96.2308
 11      0.0000     0.0000E+00    0.0000E+00    1.015200E+08  0.00010  2.431E-03    0   0.7138   age116_m22            0.0000     1.1181E+02     8.0922   3.4560   101.4363
 12      0.0000     0.0000E+00    0.0000E+00    1.609000E+08  0.00010  1.319E-03    0   0.6775   age120_m22            0.0000     1.0248E+02     7.6013   2.9941   103.1173
 13      0.0000     0.0000E+00    0.0000E+00    2.861200E+08  0.00010  1.075E-03    0   0.6412   age125_m22            0.0000     2.8370E+02    10.9452   2.9498   112.6220
 14      0.0000     0.0000E+00    0.0000E+00    5.088000E+08  0.00010  7.183E-04    0   0.6083   age130_m22            0.0000     3.6720E+02    12.1599   2.6940   115.9092
 15      0.0000     0.0000E+00    0.0000E+00    9.047900E+08  0.00010  4.524E-04    0   0.5785   age135_m22            0.0000     3.8184E+02    12.2485   2.4862   117.5628
 16      0.0000     0.0000E+00    0.0000E+00    1.278050E+09  0.00010  3.018E-04    0   0.5588   age138_m22            0.0000     1.7808E+02     8.4970   2.0267   111.8624
 17      0.0000     0.0000E+00    0.0000E+00    1.434000E+09  0.00010  2.691E-04    0   0.5532   age139_m22            0.0000     1.4758E+02     7.7639   1.8855   110.5084
 18      0.0000     0.0000E+00    0.0000E+00    2.500000E+09  0.00010  1.582E-04    0   0.5296   age150_m22            0.0000     1.2848E+02     7.3211   1.7754   110.8207
 19      0.0000     0.0000E+00    0.0000E+00    4.250000E+09  0.00010  1.007E-04    0   0.5110   age158_m22            0.0000     7.4358E+01     5.9195   1.6658   106.8650
 20      0.0000     0.0000E+00    0.0000E+00    6.250000E+09  0.00010  6.869E-05    0   0.4985   age166_m22            0.0000     4.2191E+01     4.9423   1.6540   101.7249
 21      0.0000     0.0000E+00    0.0000E+00    7.500000E+09  0.00010  5.873E-05    0   0.4931   age171_m22            0.0000     4.1000E+01     4.9973   1.6475   100.8122
 22      1.1607     7.7894E-01    7.5335E-01    1.000000E+10  0.00010  4.481E-05    0   0.4854   age181_m22            0.0000     3.9815E+01     4.9242   1.6097   100.4457
 23      0.0193     1.6667E-02    1.5910E-02    1.300000E+10  0.00010  3.489E-05    0   0.4791   age193_m22            0.0000     3.6889E+01     4.7312   1.5575    99.7333
 24      0.0158     1.5626E-02    1.4839E-02    1.500000E+10  0.00010  3.035E-05    0   0.4766   age201_m22            0.0000     3.5151E+01     4.6346   1.5219    99.3989
 25      0.2716     3.2534E-01    3.0694E-01    1.800000E+10  0.00010  2.510E-05    0   0.4735   age213_m22            0.0000     3.1745E+01     4.4448   1.4612    98.4281
 26      0.0000     0.0000E+00    0.0000E+00    1.000000E+06  0.00040  8.458E-03    0   1.0000   age020_m32            0.0000     2.0526E+03    28.1249   4.0000    81.2188
 27      0.0000     0.0000E+00    0.0000E+00    3.160000E+06  0.00040  3.973E-02    0   1.0000   age045_m32            0.0000     2.4967E+02    10.9306   4.0000    89.7219
 28      0.0000     0.0000E+00    0.0000E+00    5.010000E+06  0.00040  1.935E-02    0   0.9532   age055_m32            0.0000     7.5118E+02    17.5127   4.0000    84.7488
 29      0.0000     0.0000E+00    0.0000E+00    6.610000E+06  0.00040  1.204E-02    0   0.9243   age061_m32            0.0000     1.4326E+03    23.5070   4.0000    85.3756
 30      0.0000     0.0000E+00    0.0000E+00    8.710000E+06  0.00040  9.433E-03    0   0.9001   age067_m32            0.0000     1.3029E+03    22.4568   4.0000    86.6574
 31      0.0000     0.0000E+00    0.0000E+00    1.000000E+07  0.00040  8.053E-03    0   0.8877   age070_m32            0.0000     1.2002E+03    21.6035   4.0000    87.0437
 32      0.0000     0.0000E+00    0.0000E+00    1.445000E+07  0.00040  7.027E-03    0   0.8578   age078_m32            0.0000     2.6626E+02    11.4153   4.0000    86.9620
 33      0.0000     0.0000E+00    0.0000E+00    2.512000E+07  0.00040  4.707E-03    0   0.8166   age090_m32            0.0000     1.2571E+02     9.3526   3.8972    87.9645
 34      0.0000     0.0000E+00    0.0000E+00    4.000000E+07  0.00040  3.714E-03    0   0.7827   age104_m32            0.0000     9.0802E+01     8.1496   3.6335    94.2590
 35      0.0000     0.0000E+00    0.0000E+00    5.500000E+07  0.00040  2.982E-03    0   0.7593   age110_m32            0.0000     8.8879E+01     7.9124   3.5492    96.6214
 36      0.0000     0.0000E+00    0.0000E+00    1.015200E+08  0.00040  2.188E-03    0   0.7143   age116_m32            0.0000     1.4894E+02     8.6604   3.1994   105.5144
 37      0.0000     0.0000E+00    0.0000E+00    1.609000E+08  0.00040  1.690E-03    0   0.6856   age120_m32            0.0000     2.3152E+02     9.9370   2.9380   111.0700
 38      0.0000     0.0000E+00    0.0000E+00    2.861200E+08  0.00040  1.152E-03    0   0.6509   age125_m32            0.0000     3.0852E+02    11.2404   2.6940   114.3396
 39      0.0000     0.0000E+00    0.0000E+00    5.088000E+08  0.00040  7.331E-04    0   0.6182   age130_m32            0.0000     3.4661E+02    11.7763   2.5210   115.7518
 40      0.0000     0.0000E+00    0.0000E+00    9.047900E+08  0.00040  3.960E-04    0   0.5890   age135_m32            0.0000     1.8843E+02     8.8766   2.1226   111.1616
 41      0.0000     0.0000E+00    0.0000E+00    1.278050E+09  0.00040  2.854E-04    0   0.5687   age138_m32            0.0000     1.5285E+02     7.7984   1.8307   112.5395
 42      0.0000     0.0000E+00    0.0000E+00    1.434000E+09  0.00040  2.531E-04    0   0.5632   age139_m32            0.0000     1.4834E+02     7.6824   1.7686   112.5010
 43      2.0125     4.0671E-01    4.3646E-01    2.500000E+09  0.00040  1.488E-04    0   0.5386   age150_m32            0.0000     1.0652E+02     6.6077   1.5366   109.4546
 44     18.6420     6.1726E+00    6.3942E+00    4.250000E+09  0.00040  9.082E-05    0   0.5199   age158_m32            0.0000     3.9497E+01     4.5216   1.5083   102.5062
 45     10.7028     5.0589E+00    5.1165E+00    6.250000E+09  0.00040  6.362E-05    0   0.5076   age166_m32            0.0000     2.7484E+01     4.0339   1.5210    96.3383
 46      6.8411     3.8896E+00    3.8959E+00    7.500000E+09  0.00040  5.289E-05    0   0.5027   age171_m32            0.0000     2.6860E+01     3.9406   1.4959    94.6381
 47     10.2033     7.7248E+00    7.6157E+00    1.000000E+10  0.00040  3.972E-05    0   0.4948   age181_m32            0.0000     2.5268E+01     3.7751   1.4434    93.0121
 48      0.0140     1.2793E-02    1.2414E-02    1.300000E+10  0.00040  3.283E-05    0   0.4870   age193_m32            0.0000     2.1657E+01     3.6221   1.3697    97.1329
 49      0.0034     3.5080E-03    3.3928E-03    1.500000E+10  0.00040  2.925E-05    0   0.4854   age201_m32            0.0000     2.4715E+01     3.7622   1.3333    99.6077
 50      0.0000     0.0000E+00    0.0000E+00    1.800000E+10  0.00040  2.469E-05    0   0.4819   age213_m32            0.0000     2.6498E+01     3.8029   1.2853   100.5315
 51      0.0000     0.0000E+00    0.0000E+00    1.000000E+06  0.00400  1.114E-02    0   1.0000   age020_m42            0.0000     1.8357E+03    26.5710   4.0000    81.6089
 52      0.0000     0.0000E+00    0.0000E+00    3.160000E+06  0.00400  4.073E-02    0   0.9999   age045_m42            0.0000     1.0088E+02     8.0217   3.9579    87.7331
 53      0.0000     0.0000E+00    0.0000E+00    5.010000E+06  0.00400  2.534E-02    0   0.9488   age055_m42            0.0000     4.4077E+02    13.7857   4.0000    86.7503
 54      0.0000     0.0000E+00    0.0000E+00    6.610000E+06  0.00400  2.583E-02    0   0.9220   age061_m42            0.0000     8.6448E+01     7.8639   3.7310    90.3619
 55      0.0000     0.0000E+00    0.0000E+00    8.710000E+06  0.00400  1.706E-02    0   0.8983   age067_m42            0.0000     1.3659E+02     9.6893   3.5921    86.3813
 56      0.0000     0.0000E+00    0.0000E+00    1.000000E+07  0.00400  1.271E-02    0   0.8862   age070_m42            0.0000     1.9389E+02    11.3474   3.6017    83.6047
 57      0.0000     0.0000E+00    0.0000E+00    1.445000E+07  0.00400  7.666E-03    0   0.8571   age078_m42            0.0000     2.4082E+02    12.0257   4.0000    79.9335
 58      0.0000     0.0000E+00    0.0000E+00    2.512000E+07  0.00400  5.070E-03    0   0.8174   age090_m42            0.0000     1.7469E+02    10.7704   3.4701    85.2932
 59      0.0000     0.0000E+00    0.0000E+00    4.000000E+07  0.00400  3.505E-03    0   0.7851   age104_m42            0.0000     1.2039E+02     8.9364   3.1427    89.0254
 60      0.0000     0.0000E+00    0.0000E+00    5.500000E+07  0.00400  3.059E-03    0   0.7629   age110_m42            0.0000     6.7285E+01     6.6713   3.1036    98.4868
 61      0.0000     0.0000E+00    0.0000E+00    1.015200E+08  0.00400  2.268E-03    0   0.7207   age116_m42            0.0000     1.9108E+02     9.0885   2.8781   110.8178
 62      0.0000     0.0000E+00    0.0000E+00    1.609000E+08  0.00400  1.720E-03    0   0.6930   age120_m42            0.0000     2.2327E+02     9.6959   2.7279   113.1703
 63      0.0000     0.0000E+00    0.0000E+00    2.861200E+08  0.00400  1.079E-03    0   0.6613   age125_m42            0.0000     2.0722E+02     9.3639   2.3835   113.1444
 64      0.0000     0.0000E+00    0.0000E+00    5.088000E+08  0.00400  6.261E-04    0   0.6313   age130_m42            0.0000     2.5701E+02    10.0444   2.1568   117.7459
 65      0.0000     0.0000E+00    0.0000E+00    9.047900E+08  0.00400  3.535E-04    0   0.6024   age135_m42            0.0000     1.4466E+02     7.5643   1.8107   115.2427
 66      0.0000     0.0000E+00    0.0000E+00    1.278050E+09  0.00400  2.677E-04    0   0.5837   age138_m42            0.0000     4.4005E+01     4.6709   1.2218   108.4754
 67      0.0000     0.0000E+00    0.0000E+00    1.434000E+09  0.00400  1.910E-04    0   0.5716   age139_m42            0.0000     6.4561E+01     5.3414   1.3666   110.4409
 68      0.0000     0.0000E+00    0.0000E+00    2.500000E+09  0.00400  9.818E-05    0   0.5463   age150_m42            0.0000     1.0847E+01     2.3807   1.1871   101.5068
 69      0.0000     0.0000E+00    0.0000E+00    4.250000E+09  0.00400  5.491E-05    0   0.5269   age158_m42            0.0000     4.7074E+00     1.7305   1.0970    97.1513
 70      0.0026     2.0647E-03    2.1191E-03    6.250000E+09  0.00400  3.857E-05    0   0.5151   age166_m42            0.0000     7.6823E+00     2.1714   0.9880    95.3288
 71      0.0000     0.0000E+00    0.0000E+00    7.500000E+09  0.00400  3.243E-05    0   0.5110   age171_m42            0.0000     1.0830E+01     2.5184   0.9166    94.6438
 72     14.0655     1.7449E+01    1.7481E+01    1.000000E+10  0.00400  2.424E-05    0   0.5028   age181_m42            0.0000     1.6671E+01     3.0497   0.8472    93.7697
 73     11.8845     1.8980E+01    1.8632E+01    1.300000E+10  0.00400  1.883E-05    0   0.4927   age193_m42            0.0000     2.3190E+01     3.5234   0.8172    93.1255
 74      0.1856     3.3132E-01    3.2473E-01    1.500000E+10  0.00400  1.685E-05    0   0.4919   age201_m42            0.0000     2.1890E+01     3.4338   0.8209    93.1531
 75      0.0023     4.8574E-03    4.7172E-03    1.800000E+10  0.00400  1.452E-05    0   0.4874   age213_m42            0.0000     1.9823E+01     3.2805   0.8331    93.4618
 76      0.0000     0.0000E+00    0.0000E+00    1.000000E+06  0.00800  1.286E-02    0   1.0000   age020_m52            0.0000     1.7179E+03    25.4149   4.0000    83.6980
 77      0.0000     0.0000E+00    0.0000E+00    3.160000E+06  0.00800  3.147E-02    0   0.9966   age045_m52            0.0000     1.4678E+03    23.6477   4.0000    85.0396
 78      0.0000     0.0000E+00    0.0000E+00    5.010000E+06  0.00800  2.664E-02    0   0.9443   age055_m52            0.0000     6.7446E+02    16.5135   4.0000    86.6615
 79      0.0000     0.0000E+00    0.0000E+00    6.610000E+06  0.00800  2.151E-02    0   0.9177   age061_m52            0.0000     1.7103E+02     9.9279   3.2372    83.9434
 80      0.0000     0.0000E+00    0.0000E+00    8.710000E+06  0.00800  1.628E-02    0   0.8948   age067_m52            0.0000     1.6635E+02    10.3215   3.5825    85.2894
 81      0.0000     0.0000E+00    0.0000E+00    1.000000E+07  0.00800  1.215E-02    0   0.8827   age070_m52            0.0000     1.9645E+02    11.1021   3.9379    82.8147
 82      0.0000     0.0000E+00    0.0000E+00    1.445000E+07  0.00800  8.739E-03    0   0.8552   age078_m52            0.0000     1.6132E+02    10.2885   3.9551    85.1748
 83      0.0000     0.0000E+00    0.0000E+00    2.512000E+07  0.00800  5.676E-03    0   0.8162   age090_m52            0.0000     1.0960E+02     8.9013   3.4870    92.9215
 84      0.0000     0.0000E+00    0.0000E+00    4.000000E+07  0.00800  3.939E-03    0   0.7841   age104_m52            0.0000     8.7043E+01     7.7147   3.2920    97.2776
 85      0.0000     0.0000E+00    0.0000E+00    5.500000E+07  0.00800  3.155E-03    0   0.7627   age110_m52            0.0000     8.8328E+01     7.3415   3.2276   100.8780
 86      0.0000     0.0000E+00    0.0000E+00    1.015200E+08  0.00800  2.206E-03    0   0.7226   age116_m52            0.0000     1.3785E+02     7.9497   2.9741   108.6030
 87      0.0000     0.0000E+00    0.0000E+00    1.609000E+08  0.00800  1.596E-03    0   0.6963   age120_m52            0.0000     1.6662E+02     8.5152   2.7406   111.4545
 88      0.0000     0.0000E+00    0.0000E+00    2.861200E+08  0.00800  1.002E-03    0   0.6665   age125_m52            0.0000     2.7287E+02    10.7223   2.4049   117.0295
 89      0.0000     0.0000E+00    0.0000E+00    5.088000E+08  0.00800  5.759E-04    0   0.6377   age130_m52            0.0000     3.1127E+02    11.1410   2.0554   121.8022
 90      0.0000     0.0000E+00    0.0000E+00    9.047900E+08  0.00800  2.972E-04    0   0.6086   age135_m52            0.0000     1.6093E+02     8.2578   1.6133   116.0687
 91      0.0000     0.0000E+00    0.0000E+00    1.278050E+09  0.00800  2.242E-04    0   0.5907   age138_m52            0.0000     5.1572E+01     4.8286   1.0775   110.6780
 92      0.0000     0.0000E+00    0.0000E+00    1.434000E+09  0.00800  1.645E-04    0   0.5787   age139_m52            0.0000     4.0697E+01     4.3846   1.2328   109.6003
 93      0.0000     0.0000E+00    0.0000E+00    2.500000E+09  0.00800  7.723E-05    0   0.5519   age150_m52            0.0000     1.9299E+01     3.1074   0.9499   103.3587
 94      0.0000     0.0000E+00    0.0000E+00    4.250000E+09  0.00800  4.151E-05    0   0.5320   age158_m52            0.0000     1.5446E+01     2.9865   0.9011    99.8778
 95      0.0054     5.4249E-03    5.6175E-03    6.250000E+09  0.00800  3.010E-05    0   0.5197   age166_m52            0.0000     2.4586E+01     3.7292   0.7252    98.0460
 96      0.0054     6.5628E-03    6.7199E-03    7.500000E+09  0.00800  2.467E-05    0   0.5139   age171_m52            0.0000     2.7940E+01     3.9629   0.6860    97.6512
 97      5.5971     9.0394E+00    9.1027E+00    1.000000E+10  0.00800  1.862E-05    0   0.5054   age181_m52            0.0000     4.1045E+01     4.7739   0.5612    97.3469
