###################################################################
## OUTPUT of StarlightChains_v04.for    [Cid@UFSC - 01/Apr/2007] ##
###################################################################

## Some input info
NGC6528_c_1.cxt                          [arq_obs]
Base.BC03.S                              [arq_base]
NGC6528_c_1.msk                          [arq_masks]
StCv04.C99.config                        [arq_config]
  150                                    [N_base]
    0                                    [N_YAV_components = # of components with extra extinction!]
    0                                    [i_FitPowerLaw (1/0 = Yes/No)]
-9.99                                    [alpha_PowerLaw]
CCM                                      [red_law_option]
 1.458241                                [q_norm = A(l_norm)/A(V)]

## (Re)Sampling Parameters
 3359.00                                 [l_ini (A)]
 6428.00                                 [l_fin (A)]
    1.00                                 [dl    (A)]     (OBS: dl_cushion =    50.00 A)

## Normalization info
 4020.00                                 [l_norm (A) - for base]
 4010.00                                 [llow_norm (A) - window for f_obs]
 4060.00                                 [lupp_norm (A) - window for f_obs]
3.081180E-15                             [fobs_norm (in input units)]

## S/N
 4730.00                                 [llow_SN (A) - window for S/N]
 4780.00                                 [lupp_SN (A) - window for S/N]
  26.871                                 [S/N in S/N window]
  13.196                                 [S/N in norm. window]
 236.951                                 [S/N_err in S/N window]
 116.363                                 [S/N_err in norm. window]
  1.0000                                 [fscale_chi2]

## etc...
  2147483602                             [idum_orig]
  3066                                   [NOl_eff]
  1292                                   [Nl_eff]
  1774    NSIGMA                         [Ntot_cliped & clip_method]
  4835530                                [Nglobal_steps]
   7                                     [N_chains]
  26                                     [NEX0s_base = N_base in EX0s-fits]
 0   0   1       80   2.0   2.880E+02    [Clip-Bug, RC-Crash & Burn-In warning-flags, n_censored_weights, wei_nsig_threshold & wei_limit]
   193    192.914    192.906      0.008  [idt_all, wdt_TotTime, wdt_UsrTime & wdt_SysTime (sec)]

## Synthesis Results - Best model ##

 2.27408E+00                             [chi2/Nl_eff]
     2.36918                             [adev (%)]

   101.06345                             [sum-of-x (%)]
 2.98173E-14                             [Flux_tot (units of input spectrum!)]
 2.95577E-09                             [Mini_tot (???)]
 1.47105E-09                             [Mcor_tot (???)]

 -33.44                                  [v0_min  (km/s)]
  99.97                                  [vd_min  (km/s)]
 1.6821                                  [AV_min  (mag)]
 0.0000                                  [YAV_min (mag)]

# j     x_j(%)      Mini_j(%)     Mcor_j(%)     age_j(yr)     Z_j      (L/M)_j    YAV?  Mstars   component_j        a/Fe...       SSP_chi2r SSP_adev(%)   SSP_AV   SSP_x(%)
  1      0.0000     0.0000E+00    0.0000E+00    1.000000E+06  0.00010  8.160E-03    0   1.0000   age020_m22            0.0000     2.9690E+03    54.3378   4.0000   102.8425
  2      1.7964     3.7678E-04    7.5706E-04    3.160000E+06  0.00010  4.759E-02    0   1.0000   age045_m22            0.0000     2.4352E+02     9.1385   4.0000   101.0413
  3     16.8003     8.6799E-03    1.6711E-02    5.010000E+06  0.00010  1.932E-02    0   0.9582   age055_m22            0.0000     4.6619E+02    15.1916   4.0000    95.2817
  4      0.0000     0.0000E+00    0.0000E+00    6.610000E+06  0.00010  9.973E-03    0   0.9297   age061_m22            0.0000     2.9518E+03    53.3070   4.0000   106.0411
  5      0.0000     0.0000E+00    0.0000E+00    8.710000E+06  0.00010  7.690E-03    0   0.9030   age067_m22            0.0000     2.9015E+03    53.0469   4.0000   106.6230
  6      0.0000     0.0000E+00    0.0000E+00    1.000000E+07  0.00010  6.375E-03    0   0.8902   age070_m22            0.0000     2.8965E+03    53.1657   4.0000   106.8759
  7      0.0000     0.0000E+00    0.0000E+00    1.445000E+07  0.00010  4.874E-03    0   0.8589   age078_m22            0.0000     2.3950E+03    49.2143   4.0000   110.2668
  8      0.0000     0.0000E+00    0.0000E+00    2.512000E+07  0.00010  4.103E-03    0   0.8174   age090_m22            0.0000     1.5030E+03    39.6462   4.0000   115.7215
  9      0.8879     2.4254E-03    3.8158E-03    4.000000E+07  0.00010  3.654E-03    0   0.7830   age104_m22            0.0000     1.0534E+03    31.9631   4.0000   117.9718
 10      0.0000     0.0000E+00    0.0000E+00    5.500000E+07  0.00010  3.093E-03    0   0.7597   age110_m22            0.0000     9.1975E+02    29.2561   4.0000   118.1877
 11      0.0000     0.0000E+00    0.0000E+00    1.015200E+08  0.00010  2.431E-03    0   0.7138   age116_m22            0.0000     6.3428E+02    21.3473   4.0000   115.6589
 12      0.0000     0.0000E+00    0.0000E+00    1.609000E+08  0.00010  1.319E-03    0   0.6775   age120_m22            0.0000     3.8346E+02    12.7416   4.0000   108.4044
 13      0.0000     0.0000E+00    0.0000E+00    2.861200E+08  0.00010  1.075E-03    0   0.6412   age125_m22            0.0000     5.2842E+02    17.2207   4.0000   112.3599
 14      0.0000     0.0000E+00    0.0000E+00    5.088000E+08  0.00010  7.183E-04    0   0.6083   age130_m22            0.0000     5.1907E+02    15.4288   4.0000   108.5105
 15      0.0000     0.0000E+00    0.0000E+00    9.047900E+08  0.00010  4.524E-04    0   0.5785   age135_m22            0.0000     5.1300E+02    14.8822   3.8995   107.3364
 16      0.0000     0.0000E+00    0.0000E+00    1.278050E+09  0.00010  3.018E-04    0   0.5588   age138_m22            0.0000     3.5500E+02    12.1730   3.3733   106.2993
 17      0.0000     0.0000E+00    0.0000E+00    1.434000E+09  0.00010  2.691E-04    0   0.5532   age139_m22            0.0000     3.2374E+02    11.6444   3.2165   105.9195
 18      0.0000     0.0000E+00    0.0000E+00    2.500000E+09  0.00010  1.582E-04    0   0.5296   age150_m22            0.0000     3.1800E+02    11.4648   3.1084   106.8981
 19      0.0000     0.0000E+00    0.0000E+00    4.250000E+09  0.00010  1.007E-04    0   0.5110   age158_m22            0.0000     2.5939E+02    10.2647   2.9476   105.6908
 20      0.0000     0.0000E+00    0.0000E+00    6.250000E+09  0.00010  6.869E-05    0   0.4985   age166_m22            0.0000     2.1309E+02     9.1692   2.8772   103.4191
 21      0.0000     0.0000E+00    0.0000E+00    7.500000E+09  0.00010  5.873E-05    0   0.4931   age171_m22            0.0000     2.1223E+02     9.1163   2.8685   102.9446
 22      0.0000     0.0000E+00    0.0000E+00    1.000000E+10  0.00010  4.481E-05    0   0.4854   age181_m22            0.0000     2.0758E+02     9.0411   2.8293   102.5790
 23      0.0000     0.0000E+00    0.0000E+00    1.300000E+10  0.00010  3.489E-05    0   0.4791   age193_m22            0.0000     1.9763E+02     8.8405   2.7694   102.0750
 24      0.0000     0.0000E+00    0.0000E+00    1.500000E+10  0.00010  3.035E-05    0   0.4766   age201_m22            0.0000     1.9221E+02     8.7260   2.7310   101.9029
 25      0.0000     0.0000E+00    0.0000E+00    1.800000E+10  0.00010  2.510E-05    0   0.4735   age213_m22            0.0000     1.8096E+02     8.4668   2.6621   101.3638
 26      0.0000     0.0000E+00    0.0000E+00    1.000000E+06  0.00040  8.458E-03    0   1.0000   age020_m32            0.0000     3.0073E+03    54.4690   4.0000   103.6023
 27      0.0078     1.9477E-06    3.9136E-06    3.160000E+06  0.00040  3.973E-02    0   1.0000   age045_m32            0.0000     1.3577E+03    37.3143   4.0000   114.7975
 28      0.0000     0.0000E+00    0.0000E+00    5.010000E+06  0.00040  1.935E-02    0   0.9532   age055_m32            0.0000     1.9576E+03    43.5055   4.0000   109.4590
 29      0.0000     0.0000E+00    0.0000E+00    6.610000E+06  0.00040  1.204E-02    0   0.9243   age061_m32            0.0000     2.5730E+03    50.3335   4.0000   108.4363
 30      0.0000     0.0000E+00    0.0000E+00    8.710000E+06  0.00040  9.433E-03    0   0.9001   age067_m32            0.0000     2.4662E+03    49.5943   4.0000   109.5533
 31      0.0000     0.0000E+00    0.0000E+00    1.000000E+07  0.00040  8.053E-03    0   0.8877   age070_m32            0.0000     2.3770E+03    48.8042   4.0000   110.0240
 32      0.0000     0.0000E+00    0.0000E+00    1.445000E+07  0.00040  7.027E-03    0   0.8578   age078_m32            0.0000     1.3699E+03    36.6811   4.0000   112.8690
 33      0.0000     0.0000E+00    0.0000E+00    2.512000E+07  0.00040  4.707E-03    0   0.8166   age090_m32            0.0000     9.2207E+02    29.1142   4.0000   113.7912
 34      0.8154     2.1915E-03    3.4465E-03    4.000000E+07  0.00040  3.714E-03    0   0.7827   age104_m32            0.0000     6.9768E+02    23.7570   4.0000   114.2963
 35      0.0000     0.0000E+00    0.0000E+00    5.500000E+07  0.00040  2.982E-03    0   0.7593   age110_m32            0.0000     6.4624E+02    22.2595   4.0000   114.4089
 36      0.0000     0.0000E+00    0.0000E+00    1.015200E+08  0.00040  2.188E-03    0   0.7143   age116_m32            0.0000     5.1797E+02    17.7790   4.0000   113.4280
 37      0.0000     0.0000E+00    0.0000E+00    1.609000E+08  0.00040  1.690E-03    0   0.6856   age120_m32            0.0000     4.9360E+02    15.9397   4.0000   111.6083
 38      0.0000     0.0000E+00    0.0000E+00    2.861200E+08  0.00040  1.152E-03    0   0.6509   age125_m32            0.0000     4.8637E+02    14.5464   4.0000   107.7832
 39      0.0000     0.0000E+00    0.0000E+00    5.088000E+08  0.00040  7.331E-04    0   0.6182   age130_m32            0.0000     4.9172E+02    14.4051   3.9210   106.3016
 40      0.0000     0.0000E+00    0.0000E+00    9.047900E+08  0.00040  3.960E-04    0   0.5890   age135_m32            0.0000     3.5547E+02    12.4991   3.4413   105.7849
 41      0.0000     0.0000E+00    0.0000E+00    1.278050E+09  0.00040  2.854E-04    0   0.5687   age138_m32            0.0000     3.3259E+02    11.8079   3.1657   107.8639
 42      0.0000     0.0000E+00    0.0000E+00    1.434000E+09  0.00040  2.531E-04    0   0.5632   age139_m32            0.0000     3.2760E+02    11.6950   3.1102   107.7833
 43      0.0000     0.0000E+00    0.0000E+00    2.500000E+09  0.00040  1.488E-04    0   0.5386   age150_m32            0.0000     2.7467E+02    10.7618   2.8457   106.2994
 44      0.0000     0.0000E+00    0.0000E+00    4.250000E+09  0.00040  9.082E-05    0   0.5199   age158_m32            0.0000     1.9364E+02     8.8366   2.7361   103.6247
 45      2.2795     3.5765E-01    3.6477E-01    6.250000E+09  0.00040  6.362E-05    0   0.5076   age166_m32            0.0000     1.5745E+02     7.6885   2.6895   100.7990
 46      6.5116     1.2289E+00    1.2413E+00    7.500000E+09  0.00040  5.289E-05    0   0.5027   age171_m32            0.0000     1.4656E+02     7.4259   2.6489    99.6143
 47      3.5704     8.9724E-01    8.9204E-01    1.000000E+10  0.00040  3.972E-05    0   0.4948   age181_m32            0.0000     1.3474E+02     7.2095   2.5808    98.2922
 48      0.0193     5.8692E-03    5.7432E-03    1.300000E+10  0.00040  3.283E-05    0   0.4870   age193_m32            0.0000     1.4729E+02     7.6544   2.5456   100.7136
 49      0.0000     0.0000E+00    0.0000E+00    1.500000E+10  0.00040  2.925E-05    0   0.4854   age201_m32            0.0000     1.5868E+02     8.0214   2.5328   102.1149
 50      0.0000     0.0000E+00    0.0000E+00    1.800000E+10  0.00040  2.469E-05    0   0.4819   age213_m32            0.0000     1.6055E+02     8.1059   2.4958   102.5425
 51      0.0000     0.0000E+00    0.0000E+00    1.000000E+06  0.00400  1.114E-02    0   1.0000   age020_m42            0.0000     2.8282E+03    53.0651   4.0000   104.1559
 52      0.2036     4.9900E-05    1.0025E-04    3.160000E+06  0.00400  4.073E-02    0   0.9999   age045_m42            0.0000     8.7899E+02    29.5193   4.0000   114.0616
 53      0.0000     0.0000E+00    0.0000E+00    5.010000E+06  0.00400  2.534E-02    0   0.9488   age055_m42            0.0000     1.5763E+03    40.1850   4.0000   111.4189
 54      0.4292     1.6585E-04    3.0725E-04    6.610000E+06  0.00400  2.583E-02    0   0.9220   age061_m42            0.0000     6.9875E+02    25.0365   4.0000   112.4370
 55      0.3592     2.1015E-04    3.7931E-04    8.710000E+06  0.00400  1.706E-02    0   0.8983   age067_m42            0.0000     5.9268E+02    20.9150   4.0000   108.2619
 56      0.0000     0.0000E+00    0.0000E+00    1.000000E+07  0.00400  1.271E-02    0   0.8862   age070_m42            0.0000     6.3256E+02    20.6828   4.0000   106.9241
 57      0.0000     0.0000E+00    0.0000E+00    1.445000E+07  0.00400  7.666E-03    0   0.8571   age078_m42            0.0000     1.0898E+03    31.3019   4.0000   108.5812
 58      0.0000     0.0000E+00    0.0000E+00    2.512000E+07  0.00400  5.070E-03    0   0.8174   age090_m42            0.0000     4.9984E+02    17.3249   4.0000   106.5202
 59      0.0000     0.0000E+00    0.0000E+00    4.000000E+07  0.00400  3.505E-03    0   0.7851   age104_m42            0.0000     2.7836E+02    11.4809   4.0000   103.3706
 60      0.0000     0.0000E+00    0.0000E+00    5.500000E+07  0.00400  3.059E-03    0   0.7629   age110_m42            0.0000     3.2376E+02    11.8621   4.0000   108.1653
 61      0.0000     0.0000E+00    0.0000E+00    1.015200E+08  0.00400  2.268E-03    0   0.7207   age116_m42            0.0000     4.1798E+02    14.0414   4.0000   110.4907
 62      0.0002     1.4329E-06    1.9952E-06    1.609000E+08  0.00400  1.720E-03    0   0.6930   age120_m42            0.0000     4.0264E+02    13.0809   4.0000   108.4674
 63      0.0000     0.0000E+00    0.0000E+00    2.861200E+08  0.00400  1.079E-03    0   0.6613   age125_m42            0.0000     3.8116E+02    12.4318   3.7428   106.6793
 64      0.0000     0.0000E+00    0.0000E+00    5.088000E+08  0.00400  6.261E-04    0   0.6313   age130_m42            0.0000     4.1198E+02    13.0380   3.5492   109.6665
 65      0.0000     0.0000E+00    0.0000E+00    9.047900E+08  0.00400  3.535E-04    0   0.6024   age135_m42            0.0000     2.9798E+02    11.1833   3.1420   110.4928
 66      0.0000     0.0000E+00    0.0000E+00    1.278050E+09  0.00400  2.677E-04    0   0.5837   age138_m42            0.0000     1.1958E+02     7.9815   2.4560   107.8486
 67      0.0000     0.0000E+00    0.0000E+00    1.434000E+09  0.00400  1.910E-04    0   0.5716   age139_m42            0.0000     1.5939E+02     8.7235   2.6173   108.8313
 68      0.0000     0.0000E+00    0.0000E+00    2.500000E+09  0.00400  9.818E-05    0   0.5463   age150_m42            0.0000     6.7485E+01     6.2379   2.3268   104.4356
 69      0.0000     0.0000E+00    0.0000E+00    4.250000E+09  0.00400  5.491E-05    0   0.5269   age158_m42            0.0000     4.0518E+01     5.1048   2.2062   101.7308
 70      0.0000     0.0000E+00    0.0000E+00    6.250000E+09  0.00400  3.857E-05    0   0.5151   age166_m42            0.0000     2.7837E+01     4.7377   2.0755   100.3469
 71      0.0000     0.0000E+00    0.0000E+00    7.500000E+09  0.00400  3.243E-05    0   0.5110   age171_m42            0.0000     2.3127E+01     4.6270   1.9970    99.7008
 72      0.0000     0.0000E+00    0.0000E+00    1.000000E+10  0.00400  2.424E-05    0   0.5028   age181_m42            0.0000     1.9228E+01     4.5542   1.9180    98.9549
 73      0.0000     0.0000E+00    0.0000E+00    1.300000E+10  0.00400  1.883E-05    0   0.4927   age193_m42            0.0000     1.7352E+01     4.4930   1.8832    98.5112
 74      0.0000     0.0000E+00    0.0000E+00    1.500000E+10  0.00400  1.685E-05    0   0.4919   age201_m42            0.0000     1.7324E+01     4.3999   1.8892    98.5520
 75      0.0000     0.0000E+00    0.0000E+00    1.800000E+10  0.00400  1.452E-05    0   0.4874   age213_m42            0.0000     1.7532E+01     4.2710   1.9084    98.8274
 76      0.0000     0.0000E+00    0.0000E+00    1.000000E+06  0.00800  1.286E-02    0   1.0000   age020_m52            0.0000     2.7182E+03    52.3579   4.0000   106.3711
 77      0.0000     0.0000E+00    0.0000E+00    3.160000E+06  0.00800  3.147E-02    0   0.9966   age045_m52            0.0000     2.5562E+03    50.6318   4.0000   108.1364
 78      0.0000     0.0000E+00    0.0000E+00    5.010000E+06  0.00800  2.664E-02    0   0.9443   age055_m52            0.0000     1.8155E+03    43.2766   4.0000   111.0972
 79      0.0000     0.0000E+00    0.0000E+00    6.610000E+06  0.00800  2.151E-02    0   0.9177   age061_m52            0.0000     2.8936E+02    12.2212   4.0000   101.2956
 80      0.0003     2.1095E-07    3.7926E-07    8.710000E+06  0.00800  1.628E-02    0   0.8948   age067_m52            0.0000     5.6819E+02    19.8930   4.0000   108.2984
 81      0.0000     0.0000E+00    0.0000E+00    1.000000E+07  0.00800  1.215E-02    0   0.8827   age070_m52            0.0000     9.5002E+02    28.9075   4.0000   111.2257
 82      0.0000     0.0000E+00    0.0000E+00    1.445000E+07  0.00800  8.739E-03    0   0.8552   age078_m52            0.0000     9.7432E+02    29.7534   4.0000   113.1552
 83      0.0000     0.0000E+00    0.0000E+00    2.512000E+07  0.00800  5.676E-03    0   0.8162   age090_m52            0.0000     5.8006E+02    19.2872   4.0000   112.3299
 84      0.0000     0.0000E+00    0.0000E+00    4.000000E+07  0.00800  3.939E-03    0   0.7841   age104_m52            0.0000     4.6101E+02    15.5636   4.0000   111.5113
 85      0.0000     0.0000E+00    0.0000E+00    5.500000E+07  0.00800  3.155E-03    0   0.7627   age110_m52            0.0000     4.4926E+02    15.1907   4.0000   112.3337
 86      0.0000     0.0000E+00    0.0000E+00    1.015200E+08  0.00800  2.206E-03    0   0.7226   age116_m52            0.0000     4.0170E+02    13.6359   4.0000   111.8556
 87      0.0000     0.0000E+00    0.0000E+00    1.609000E+08  0.00800  1.596E-03    0   0.6963   age120_m52            0.0000     3.7585E+02    12.3363   4.0000   108.4127
 88      0.0000     0.0000E+00    0.0000E+00    2.861200E+08  0.00800  1.002E-03    0   0.6665   age125_m52            0.0000     4.0864E+02    13.1041   3.7871   108.6837
 89      0.0000     0.0000E+00    0.0000E+00    5.088000E+08  0.00800  5.759E-04    0   0.6377   age130_m52            0.0000     3.8662E+02    13.0477   3.4309   112.6259
 90      0.0000     0.0000E+00    0.0000E+00    9.047900E+08  0.00800  2.972E-04    0   0.6086   age135_m52            0.0000     2.2543E+02    10.7677   2.8640   112.0489
 91      0.0000     0.0000E+00    0.0000E+00    1.278050E+09  0.00800  2.242E-04    0   0.5907   age138_m52            0.0000     8.8606E+01     7.3785   2.2697   110.6877
 92      0.0000     0.0000E+00    0.0000E+00    1.434000E+09  0.00800  1.645E-04    0   0.5787   age139_m52            0.0000     9.0892E+01     7.2325   2.4154   110.2383
 93      0.0000     0.0000E+00    0.0000E+00    2.500000E+09  0.00800  7.723E-05    0   0.5519   age150_m52            0.0000     3.7939E+01     5.6632   2.0636   106.6807
 94      0.0001     2.4098E-05    2.5759E-05    4.250000E+09  0.00800  4.151E-05    0   0.5320   age158_m52            0.0000     2.8509E+01     5.2311   1.9837   104.3698
 95      0.0000     0.0000E+00    0.0000E+00    6.250000E+09  0.00800  3.010E-05    0   0.5197   age166_m52            0.0000     1.9001E+01     5.0488   1.7850   102.8867
 96      0.0000     0.0000E+00    0.0000E+00    7.500000E+09  0.00800  2.467E-05    0   0.5139   age171_m52            0.0000     1.8422E+01     5.1342   1.7426   102.4392
 97      0.0000     0.0000E+00    0.0000E+00    1.000000E+10  0.00800  1.862E-05    0   0.5054   age181_m52            0.0000     1.9991E+01     5.6827   1.6097   101.9098
