###################################################################
## OUTPUT of StarlightChains_v04.for    [Cid@UFSC - 01/Apr/2007] ##
###################################################################

## Some input info
NGC6362_a_1.cxt                          [arq_obs]
Base.BC03.S                              [arq_base]
NGC6362_a_1.msk                          [arq_masks]
StCv04.C99.config                        [arq_config]
  150                                    [N_base]
    0                                    [N_YAV_components = # of components with extra extinction!]
    0                                    [i_FitPowerLaw (1/0 = Yes/No)]
-9.99                                    [alpha_PowerLaw]
CCM                                      [red_law_option]
 1.458241                                [q_norm = A(l_norm)/A(V)]

## (Re)Sampling Parameters
 3359.00                                 [l_ini (A)]
 6428.00                                 [l_fin (A)]
    1.00                                 [dl    (A)]     (OBS: dl_cushion =    50.00 A)

## Normalization info
 4020.00                                 [l_norm (A) - for base]
 4010.00                                 [llow_norm (A) - window for f_obs]
 4060.00                                 [lupp_norm (A) - window for f_obs]
1.238399E-14                             [fobs_norm (in input units)]

## S/N
 4730.00                                 [llow_SN (A) - window for S/N]
 4780.00                                 [lupp_SN (A) - window for S/N]
  69.165                                 [S/N in S/N window]
  59.492                                 [S/N in norm. window]
  54.471                                 [S/N_err in S/N window]
  46.853                                 [S/N_err in norm. window]
  1.0000                                 [fscale_chi2]

## etc...
  2147483611                             [idum_orig]
  3058                                   [NOl_eff]
  2477                                   [Nl_eff]
   581    NSIGMA                         [Ntot_cliped & clip_method]
  2216970                                [Nglobal_steps]
   7                                     [N_chains]
  15                                     [NEX0s_base = N_base in EX0s-fits]
 0   0   1      376   2.0   8.436E+02    [Clip-Bug, RC-Crash & Burn-In warning-flags, n_censored_weights, wei_nsig_threshold & wei_limit]
    91     90.918     90.906      0.012  [idt_all, wdt_TotTime, wdt_UsrTime & wdt_SysTime (sec)]

## Synthesis Results - Best model ##

 1.38035E+00                             [chi2/Nl_eff]
     1.66164                             [adev (%)]

   101.19983                             [sum-of-x (%)]
 1.80639E-14                             [Flux_tot (units of input spectrum!)]
 3.52745E-10                             [Mini_tot (???)]
 1.79450E-10                             [Mcor_tot (???)]

 -12.87                                  [v0_min  (km/s)]
  68.49                                  [vd_min  (km/s)]
 0.2722                                  [AV_min  (mag)]
 0.0000                                  [YAV_min (mag)]

# j     x_j(%)      Mini_j(%)     Mcor_j(%)     age_j(yr)     Z_j      (L/M)_j    YAV?  Mstars   component_j        a/Fe...       SSP_chi2r SSP_adev(%)   SSP_AV   SSP_x(%)
  1      0.0000     0.0000E+00    0.0000E+00    1.000000E+06  0.00010  8.160E-03    0   1.0000   age020_m22            0.0000     1.8129E+02    11.6437   4.0000    72.5276
  2     17.4025     1.8504E-02    3.6373E-02    3.160000E+06  0.00010  4.759E-02    0   1.0000   age045_m22            0.0000     3.7489E+01     5.1692   1.8979    93.8838
  3      0.0000     0.0000E+00    0.0000E+00    5.010000E+06  0.00010  1.932E-02    0   0.9582   age055_m22            0.0000     1.3644E+02    11.7945   2.3186    78.0380
  4      0.0000     0.0000E+00    0.0000E+00    6.610000E+06  0.00010  9.973E-03    0   0.9297   age061_m22            0.0000     1.6661E+02    12.0116   3.9726    74.9948
  5      0.0000     0.0000E+00    0.0000E+00    8.710000E+06  0.00010  7.690E-03    0   0.9030   age067_m22            0.0000     1.5757E+02    11.7012   3.9593    75.5330
  6      0.0000     0.0000E+00    0.0000E+00    1.000000E+07  0.00010  6.375E-03    0   0.8902   age070_m22            0.0000     1.5212E+02    11.4279   3.9675    75.8342
  7      0.0000     0.0000E+00    0.0000E+00    1.445000E+07  0.00010  4.874E-03    0   0.8589   age078_m22            0.0000     1.0452E+02    10.0236   3.7679    79.0611
  8      0.0000     0.0000E+00    0.0000E+00    2.512000E+07  0.00010  4.103E-03    0   0.8174   age090_m22            0.0000     4.8448E+01     7.1330   3.3112    86.3982
  9      0.0000     0.0000E+00    0.0000E+00    4.000000E+07  0.00010  3.654E-03    0   0.7830   age104_m22            0.0000     8.7543E+01     5.4830   2.9681    91.9093
 10      0.0000     0.0000E+00    0.0000E+00    5.500000E+07  0.00010  3.093E-03    0   0.7597   age110_m22            0.0000     1.1180E+02     5.0466   2.8403    94.2878
 11      0.0000     0.0000E+00    0.0000E+00    1.015200E+08  0.00010  2.431E-03    0   0.7138   age116_m22            0.0000     1.8055E+02     5.1505   2.4634    97.9798
 12      0.0000     0.0000E+00    0.0000E+00    1.609000E+08  0.00010  1.319E-03    0   0.6775   age120_m22            0.0000     1.7372E+02     5.0787   1.9535   101.7408
 13      0.0000     0.0000E+00    0.0000E+00    2.861200E+08  0.00010  1.075E-03    0   0.6412   age125_m22            0.0000     4.1692E+02     7.6708   1.8883   109.7603
 14      0.0000     0.0000E+00    0.0000E+00    5.088000E+08  0.00010  7.183E-04    0   0.6083   age130_m22            0.0000     4.7734E+02     8.9888   1.5905   114.3132
 15      0.0000     0.0000E+00    0.0000E+00    9.047900E+08  0.00010  4.524E-04    0   0.5785   age135_m22            0.0000     4.7162E+02     9.3413   1.3703   116.5194
 16      0.0000     0.0000E+00    0.0000E+00    1.278050E+09  0.00010  3.018E-04    0   0.5588   age138_m22            0.0000     2.2818E+02     6.6064   0.9290   111.6457
 17      0.0000     0.0000E+00    0.0000E+00    1.434000E+09  0.00010  2.691E-04    0   0.5532   age139_m22            0.0000     1.8390E+02     6.0671   0.7879   110.6698
 18      0.0000     0.0000E+00    0.0000E+00    2.500000E+09  0.00010  1.582E-04    0   0.5296   age150_m22            0.0000     1.6057E+02     5.5822   0.7029   110.3309
 19      0.0000     0.0000E+00    0.0000E+00    4.250000E+09  0.00010  1.007E-04    0   0.5110   age158_m22            0.0000     8.8759E+01     4.3742   0.5928   107.1974
 20      0.0000     0.0000E+00    0.0000E+00    6.250000E+09  0.00010  6.869E-05    0   0.4985   age166_m22            0.0000     3.9573E+01     3.3373   0.5764   103.0473
 21      0.0000     0.0000E+00    0.0000E+00    7.500000E+09  0.00010  5.873E-05    0   0.4931   age171_m22            0.0000     3.4678E+01     3.3244   0.5769   102.0066
 22      0.0000     0.0000E+00    0.0000E+00    1.000000E+10  0.00010  4.481E-05    0   0.4854   age181_m22            0.0000     3.2347E+01     3.2596   0.5380   101.7003
 23      0.1495     2.1687E-01    2.0424E-01    1.300000E+10  0.00010  3.489E-05    0   0.4791   age193_m22            0.0000     2.7599E+01     3.0899   0.4827   101.1963
 24      0.1975     3.2931E-01    3.0852E-01    1.500000E+10  0.00010  3.035E-05    0   0.4766   age201_m22            0.0000     2.5197E+01     3.0169   0.4454   100.9482
 25      0.0000     0.0000E+00    0.0000E+00    1.800000E+10  0.00010  2.510E-05    0   0.4735   age213_m22            0.0000     1.9802E+01     2.8561   0.3831   100.1665
 26      0.0000     0.0000E+00    0.0000E+00    1.000000E+06  0.00040  8.458E-03    0   1.0000   age020_m32            0.0000     1.7885E+02    11.4732   4.0000    73.1992
 27      0.0000     0.0000E+00    0.0000E+00    3.160000E+06  0.00040  3.973E-02    0   1.0000   age045_m32            0.0000     5.0495E+01     7.5842   3.2195    85.9601
 28      0.0000     0.0000E+00    0.0000E+00    5.010000E+06  0.00040  1.935E-02    0   0.9532   age055_m32            0.0000     1.0496E+02    10.8858   3.5071    78.7444
 29      0.0000     0.0000E+00    0.0000E+00    6.610000E+06  0.00040  1.204E-02    0   0.9243   age061_m32            0.0000     1.2920E+02    11.1178   3.8205    77.1132
 30      0.0000     0.0000E+00    0.0000E+00    8.710000E+06  0.00040  9.433E-03    0   0.9001   age067_m32            0.0000     1.1300E+02    10.5970   3.7849    78.1784
 31      0.0000     0.0000E+00    0.0000E+00    1.000000E+07  0.00040  8.053E-03    0   0.8877   age070_m32            0.0000     1.0699E+02    10.3695   3.7451    78.7061
 32      0.0000     0.0000E+00    0.0000E+00    1.445000E+07  0.00040  7.027E-03    0   0.8578   age078_m32            0.0000     5.8134E+01     8.6237   3.1982    84.0912
 33      0.0000     0.0000E+00    0.0000E+00    2.512000E+07  0.00040  4.707E-03    0   0.8166   age090_m32            0.0000     4.9086E+01     6.9710   2.8654    88.8985
 34      0.0000     0.0000E+00    0.0000E+00    4.000000E+07  0.00040  3.714E-03    0   0.7827   age104_m32            0.0000     7.7805E+01     5.6307   2.6246    93.1245
 35      0.0000     0.0000E+00    0.0000E+00    5.500000E+07  0.00040  2.982E-03    0   0.7593   age110_m32            0.0000     1.0115E+02     5.2450   2.5419    94.9434
 36      0.0000     0.0000E+00    0.0000E+00    1.015200E+08  0.00040  2.188E-03    0   0.7143   age116_m32            0.0000     2.4999E+02     5.5301   2.1870   102.1018
 37      0.0000     0.0000E+00    0.0000E+00    1.609000E+08  0.00040  1.690E-03    0   0.6856   age120_m32            0.0000     3.6731E+02     6.6067   1.9262   106.5278
 38      0.0000     0.0000E+00    0.0000E+00    2.861200E+08  0.00040  1.152E-03    0   0.6509   age125_m32            0.0000     4.2847E+02     8.0811   1.6133   112.1042
 39      0.0000     0.0000E+00    0.0000E+00    5.088000E+08  0.00040  7.331E-04    0   0.6182   age130_m32            0.0000     4.4563E+02     8.8234   1.4095   114.5663
 40      0.0000     0.0000E+00    0.0000E+00    9.047900E+08  0.00040  3.960E-04    0   0.5890   age135_m32            0.0000     2.2063E+02     7.0031   0.9962   112.0417
 41      0.0000     0.0000E+00    0.0000E+00    1.278050E+09  0.00040  2.854E-04    0   0.5687   age138_m32            0.0000     1.8391E+02     5.9878   0.7509   111.9926
 42      0.0000     0.0000E+00    0.0000E+00    1.434000E+09  0.00040  2.531E-04    0   0.5632   age139_m32            0.0000     1.8034E+02     5.8989   0.6930   111.8310
 43      0.0000     0.0000E+00    0.0000E+00    2.500000E+09  0.00040  1.488E-04    0   0.5386   age150_m32            0.0000     1.2422E+02     5.0265   0.4553   109.3945
 44     37.6205     2.0961E+01    2.1422E+01    4.250000E+09  0.00040  9.082E-05    0   0.5199   age158_m32            0.0000     3.6587E+01     3.1150   0.4222   103.9419
 45      0.1678     1.3350E-01    1.3320E-01    6.250000E+09  0.00040  6.362E-05    0   0.5076   age166_m32            0.0000     8.9473E+00     2.5945   0.4367    98.6986
 46      0.0000     0.0000E+00    0.0000E+00    7.500000E+09  0.00040  5.289E-05    0   0.5027   age171_m32            0.0000     7.1216E+00     2.5143   0.4043    97.4370
 47      6.8138     8.6806E+00    8.4430E+00    1.000000E+10  0.00040  3.972E-05    0   0.4948   age181_m32            0.0000     6.6752E+00     2.3395   0.3388    96.3864
 48      1.3446     2.0726E+00    1.9841E+00    1.300000E+10  0.00040  3.283E-05    0   0.4870   age193_m32            0.0000     9.0398E+00     2.2471   0.2675    99.9573
 49      0.0000     0.0000E+00    0.0000E+00    1.500000E+10  0.00040  2.925E-05    0   0.4854   age201_m32            0.0000     1.6198E+01     2.4902   0.2331   102.0492
 50      0.0000     0.0000E+00    0.0000E+00    1.800000E+10  0.00040  2.469E-05    0   0.4819   age213_m32            0.0000     1.9756E+01     2.6082   0.1853   102.8172
 51      0.0000     0.0000E+00    0.0000E+00    1.000000E+06  0.00400  1.114E-02    0   1.0000   age020_m42            0.0000     1.7193E+02    11.5146   3.9521    73.7232
 52      0.0000     0.0000E+00    0.0000E+00    3.160000E+06  0.00400  4.073E-02    0   0.9999   age045_m42            0.0000     4.1714E+01     6.1828   2.8905    89.4331
 53      0.0000     0.0000E+00    0.0000E+00    5.010000E+06  0.00400  2.534E-02    0   0.9488   age055_m42            0.0000     6.7989E+01     8.9120   3.3532    81.9069
 54      0.0000     1.3971E-08    2.5321E-08    6.610000E+06  0.00400  2.583E-02    0   0.9220   age061_m42            0.0000     5.4601E+01     5.7215   2.7000    90.3122
 55      0.0000     0.0000E+00    0.0000E+00    8.710000E+06  0.00400  1.706E-02    0   0.8983   age067_m42            0.0000     4.6014E+01     7.7017   2.5684    87.1485
 56      0.0000     0.0000E+00    0.0000E+00    1.000000E+07  0.00400  1.271E-02    0   0.8862   age070_m42            0.0000     5.5475E+01     9.2988   2.5808    84.8761
 57      0.0000     0.0000E+00    0.0000E+00    1.445000E+07  0.00400  7.666E-03    0   0.8571   age078_m42            0.0000     7.7984E+01     9.8663   2.9941    81.8928
 58      0.0000     0.0000E+00    0.0000E+00    2.512000E+07  0.00400  5.070E-03    0   0.8174   age090_m42            0.0000     4.8827E+01     8.6587   2.4309    87.1720
 59      0.0000     0.0000E+00    0.0000E+00    4.000000E+07  0.00400  3.505E-03    0   0.7851   age104_m42            0.0000     3.8873E+01     6.8347   2.0724    91.6501
 60      0.0000     0.0000E+00    0.0000E+00    5.500000E+07  0.00400  3.059E-03    0   0.7629   age110_m42            0.0000     9.1758E+01     4.3837   2.0445    98.7005
 61      0.0000     0.0000E+00    0.0000E+00    1.015200E+08  0.00400  2.268E-03    0   0.7207   age116_m42            0.0000     3.1615E+02     6.0549   1.8426   107.4104
 62      0.0000     0.0000E+00    0.0000E+00    1.609000E+08  0.00400  1.720E-03    0   0.6930   age120_m42            0.0000     3.3351E+02     6.5723   1.6630   110.5876
 63      0.0000     0.0000E+00    0.0000E+00    2.861200E+08  0.00400  1.079E-03    0   0.6613   age125_m42            0.0000     3.0878E+02     7.1323   1.2762   112.6597
 64      0.0000     0.0000E+00    0.0000E+00    5.088000E+08  0.00400  6.261E-04    0   0.6313   age130_m42            0.0000     3.4854E+02     7.8507   1.0529   116.7679
 65      0.0000     0.0000E+00    0.0000E+00    9.047900E+08  0.00400  3.535E-04    0   0.6024   age135_m42            0.0000     1.8623E+02     6.2644   0.6947   115.9835
 66      0.0000     0.0000E+00    0.0000E+00    1.278050E+09  0.00400  2.677E-04    0   0.5837   age138_m42            0.0000     3.8363E+01     5.6189   0.0000   114.1721
 67      0.0000     0.0000E+00    0.0000E+00    1.434000E+09  0.00400  1.910E-04    0   0.5716   age139_m42            0.0000     6.0863E+01     5.3371   0.1867   114.8776
 68      0.1821     9.3854E-02    1.0079E-01    2.500000E+09  0.00400  9.818E-05    0   0.5463   age150_m42            0.0000     1.0592E+01     3.4337  -0.0225   108.4304
 69      0.0000     0.0000E+00    0.0000E+00    4.250000E+09  0.00400  5.491E-05    0   0.5269   age158_m42            0.0000     2.4271E+01     2.8765  -0.1153   104.6436
 70      0.0000     0.0000E+00    0.0000E+00    6.250000E+09  0.00400  3.857E-05    0   0.5151   age166_m42            0.0000     4.3161E+01     3.2161  -0.2375   103.4231
 71      5.9573     9.2956E+00    9.3371E+00    7.500000E+09  0.00400  3.243E-05    0   0.5110   age171_m42            0.0000     5.7327E+01     3.5189  -0.3178   103.0996
 72     26.0595     5.4401E+01    5.3767E+01    1.000000E+10  0.00400  2.424E-05    0   0.5028   age181_m42            0.0000     8.2701E+01     3.9149  -0.3990   102.7340
 73      0.0000     0.0000E+00    0.0000E+00    1.300000E+10  0.00400  1.883E-05    0   0.4927   age193_m42            0.0000     1.0849E+02     4.2010  -0.4365   102.5172
 74      0.0000     0.0000E+00    0.0000E+00    1.500000E+10  0.00400  1.685E-05    0   0.4919   age201_m42            0.0000     1.0155E+02     4.1111  -0.4303   102.4035
 75      0.0000     0.0000E+00    0.0000E+00    1.800000E+10  0.00400  1.452E-05    0   0.4874   age213_m42            0.0000     8.9744E+01     3.9695  -0.4128   102.4798
 76      0.0000     0.0000E+00    0.0000E+00    1.000000E+06  0.00800  1.286E-02    0   1.0000   age020_m52            0.0000     1.4932E+02    10.8823   3.9150    75.7486
 77      0.0000     0.0000E+00    0.0000E+00    3.160000E+06  0.00800  3.147E-02    0   0.9966   age045_m52            0.0000     1.3158E+02    10.7753   3.8278    77.1050
 78      0.0000     0.0000E+00    0.0000E+00    5.010000E+06  0.00800  2.664E-02    0   0.9443   age055_m52            0.0000     8.5976E+01     9.3449   3.4797    80.9255
 79      0.0000     0.0000E+00    0.0000E+00    6.610000E+06  0.00800  2.151E-02    0   0.9177   age061_m52            0.0000     5.1295E+01     7.9569   2.1537    87.7506
 80      0.0000     0.0000E+00    0.0000E+00    8.710000E+06  0.00800  1.628E-02    0   0.8948   age067_m52            0.0000     4.9798E+01     8.1094   2.5241    87.7333
 81      0.0000     0.0000E+00    0.0000E+00    1.000000E+07  0.00800  1.215E-02    0   0.8827   age070_m52            0.0000     5.9313E+01     8.7398   2.8758    85.6089
 82      0.0000     0.0000E+00    0.0000E+00    1.445000E+07  0.00800  8.739E-03    0   0.8552   age078_m52            0.0000     5.5525E+01     7.9175   2.9001    87.2541
 83      0.0000     0.0000E+00    0.0000E+00    2.512000E+07  0.00800  5.676E-03    0   0.8162   age090_m52            0.0000     8.2255E+01     6.8061   2.4642    92.5365
 84      0.0000     0.0000E+00    0.0000E+00    4.000000E+07  0.00800  3.939E-03    0   0.7841   age104_m52            0.0000     1.0962E+02     5.4540   2.2564    96.5974
 85      0.0000     0.0000E+00    0.0000E+00    5.500000E+07  0.00800  3.155E-03    0   0.7627   age110_m52            0.0000     1.4544E+02     4.8688   2.1884    99.6901
 86      0.0000     0.0000E+00    0.0000E+00    1.015200E+08  0.00800  2.206E-03    0   0.7226   age116_m52            0.0000     2.4007E+02     5.3491   1.9326   106.1658
 87      0.0000     0.0000E+00    0.0000E+00    1.609000E+08  0.00800  1.596E-03    0   0.6963   age120_m52            0.0000     2.7121E+02     6.0111   1.6740   109.6090
 88      0.0000     0.0000E+00    0.0000E+00    2.861200E+08  0.00800  1.002E-03    0   0.6665   age125_m52            0.0000     3.5912E+02     8.3109   1.2720   117.0875
 89      0.0000     0.0000E+00    0.0000E+00    5.088000E+08  0.00800  5.759E-04    0   0.6377   age130_m52            0.0000     3.2488E+02     9.7679   0.8477   125.0041
 90      0.0000     0.0000E+00    0.0000E+00    9.047900E+08  0.00800  2.972E-04    0   0.6086   age135_m52            0.0000     1.0571E+02     8.7089   0.3334   124.2837
 91      0.0000     0.0000E+00    0.0000E+00    1.278050E+09  0.00800  2.242E-04    0   0.5907   age138_m52            0.0000     3.0821E+01     6.1988  -0.1873   119.8200
 92      0.0000     0.0000E+00    0.0000E+00    1.434000E+09  0.00800  1.645E-04    0   0.5787   age139_m52            0.0000     2.4899E+01     5.4163  -0.0143   117.9334
 93      0.0000     0.0000E+00    0.0000E+00    2.500000E+09  0.00800  7.723E-05    0   0.5519   age150_m52            0.0000     4.2046E+01     4.5304  -0.3036   112.5721
 94      0.0000     0.0000E+00    0.0000E+00    4.250000E+09  0.00800  4.151E-05    0   0.5320   age158_m52            0.0000     5.4325E+01     4.1390  -0.3453   108.8518
 95      0.0000     0.0000E+00    0.0000E+00    6.250000E+09  0.00800  3.010E-05    0   0.5197   age166_m52            0.0000     1.0382E+02     4.7585  -0.5415   107.9318
 96      0.0000     0.0000E+00    0.0000E+00    7.500000E+09  0.00800  2.467E-05    0   0.5139   age171_m52            0.0000     1.1873E+02     4.9779  -0.5862   107.7524
 97      0.2656     7.2182E-01    7.1710E-01    1.000000E+10  0.00800  1.862E-05    0   0.5054   age181_m52            0.0000     1.6579E+02     5.7524  -0.7311   108.2205
