###################################################################
## OUTPUT of StarlightChains_v04.for    [Cid@UFSC - 01/Apr/2007] ##
###################################################################

## Some input info
NGC6316_a_1.cxt                          [arq_obs]
Base.BC03.S                              [arq_base]
NGC6316_a_1.msk                          [arq_masks]
StCv04.C99.config                        [arq_config]
  150                                    [N_base]
    0                                    [N_YAV_components = # of components with extra extinction!]
    0                                    [i_FitPowerLaw (1/0 = Yes/No)]
-9.99                                    [alpha_PowerLaw]
CCM                                      [red_law_option]
 1.458241                                [q_norm = A(l_norm)/A(V)]

## (Re)Sampling Parameters
 3359.00                                 [l_ini (A)]
 6428.00                                 [l_fin (A)]
    1.00                                 [dl    (A)]     (OBS: dl_cushion =    50.00 A)

## Normalization info
 4020.00                                 [l_norm (A) - for base]
 4010.00                                 [llow_norm (A) - window for f_obs]
 4060.00                                 [lupp_norm (A) - window for f_obs]
3.447620E-15                             [fobs_norm (in input units)]

## S/N
 4730.00                                 [llow_SN (A) - window for S/N]
 4780.00                                 [lupp_SN (A) - window for S/N]
  41.849                                 [S/N in S/N window]
  23.735                                 [S/N in norm. window]
 229.586                                 [S/N_err in S/N window]
 130.210                                 [S/N_err in norm. window]
  1.0000                                 [fscale_chi2]

## etc...
  2147483618                             [idum_orig]
  3063                                   [NOl_eff]
   595                                   [Nl_eff]
  2468    NSIGMA                         [Ntot_cliped & clip_method]
  4696300                                [Nglobal_steps]
   7                                     [N_chains]
  26                                     [NEX0s_base = N_base in EX0s-fits]
 0   0   1      228   2.0   2.812E+02    [Clip-Bug, RC-Crash & Burn-In warning-flags, n_censored_weights, wei_nsig_threshold & wei_limit]
   187    186.926    186.926      0.000  [idt_all, wdt_TotTime, wdt_UsrTime & wdt_SysTime (sec)]

## Synthesis Results - Best model ##

 2.94764E+00                             [chi2/Nl_eff]
     1.83515                             [adev (%)]

   100.10457                             [sum-of-x (%)]
 3.98406E-14                             [Flux_tot (units of input spectrum!)]
 2.39036E-09                             [Mini_tot (???)]
 1.18804E-09                             [Mcor_tot (???)]

 -33.19                                  [v0_min  (km/s)]
  56.97                                  [vd_min  (km/s)]
 1.8213                                  [AV_min  (mag)]
 0.0000                                  [YAV_min (mag)]

# j     x_j(%)      Mini_j(%)     Mcor_j(%)     age_j(yr)     Z_j      (L/M)_j    YAV?  Mstars   component_j        a/Fe...       SSP_chi2r SSP_adev(%)   SSP_AV   SSP_x(%)
  1      0.3562     7.2686E-04    1.4625E-03    1.000000E+06  0.00010  8.160E-03    0   1.0000   age020_m22            0.0000     5.9487E+03    44.7239   4.0000   104.6603
  2      3.9456     1.3804E-03    2.7774E-03    3.160000E+06  0.00010  4.759E-02    0   1.0000   age045_m22            0.0000     2.2695E+02     7.5449   3.6949    98.0191
  3     20.8628     1.7979E-02    3.4663E-02    5.010000E+06  0.00010  1.932E-02    0   0.9582   age055_m22            0.0000     3.2104E+02    12.2883   3.8899    87.7473
  4      1.4078     2.3504E-03    4.3965E-03    6.610000E+06  0.00010  9.973E-03    0   0.9297   age061_m22            0.0000     5.8089E+03    43.8464   4.0000   107.6614
  5      1.0611     2.2974E-03    4.1741E-03    8.710000E+06  0.00010  7.690E-03    0   0.9030   age067_m22            0.0000     5.7333E+03    43.4506   4.0000   108.1515
  6      0.0000     0.0000E+00    0.0000E+00    1.000000E+07  0.00010  6.375E-03    0   0.8902   age070_m22            0.0000     5.7850E+03    43.3417   4.0000   108.4028
  7      0.0000     0.0000E+00    0.0000E+00    1.445000E+07  0.00010  4.874E-03    0   0.8589   age078_m22            0.0000     4.6400E+03    39.2070   4.0000   110.8029
  8      0.0000     0.0000E+00    0.0000E+00    2.512000E+07  0.00010  4.103E-03    0   0.8174   age090_m22            0.0000     2.6271E+03    28.9509   4.0000   113.7944
  9      0.0000     0.0000E+00    0.0000E+00    4.000000E+07  0.00010  3.654E-03    0   0.7830   age104_m22            0.0000     1.7016E+03    20.4999   4.0000   114.0596
 10      0.0000     0.0000E+00    0.0000E+00    5.500000E+07  0.00010  3.093E-03    0   0.7597   age110_m22            0.0000     1.4651E+03    17.8893   4.0000   113.7564
 11      0.0000     0.0000E+00    0.0000E+00    1.015200E+08  0.00010  2.431E-03    0   0.7138   age116_m22            0.0000     8.3070E+02    14.4554   4.0000   108.9019
 12      0.0000     0.0000E+00    0.0000E+00    1.609000E+08  0.00010  1.319E-03    0   0.6775   age120_m22            0.0000     5.2145E+02    12.7613   3.9173   100.5626
 13      0.0000     0.0000E+00    0.0000E+00    2.861200E+08  0.00010  1.075E-03    0   0.6412   age125_m22            0.0000     9.2298E+02    17.4813   4.0000   103.5137
 14      0.0000     0.0000E+00    0.0000E+00    5.088000E+08  0.00010  7.183E-04    0   0.6083   age130_m22            0.0000     1.0477E+03    18.6563   3.8351   103.3068
 15      0.0000     0.0000E+00    0.0000E+00    9.047900E+08  0.00010  4.524E-04    0   0.5785   age135_m22            0.0000     1.0607E+03    18.9062   3.6375   104.3832
 16      0.0000     0.0000E+00    0.0000E+00    1.278050E+09  0.00010  3.018E-04    0   0.5588   age138_m22            0.0000     6.7840E+02    15.1681   3.0623   104.1061
 17      0.0000     0.0000E+00    0.0000E+00    1.434000E+09  0.00010  2.691E-04    0   0.5532   age139_m22            0.0000     6.0619E+02    14.3780   2.8973   103.8823
 18      0.0000     0.0000E+00    0.0000E+00    2.500000E+09  0.00010  1.582E-04    0   0.5296   age150_m22            0.0000     5.6306E+02    13.9799   2.7731   104.8451
 19      0.0000     0.0000E+00    0.0000E+00    4.250000E+09  0.00010  1.007E-04    0   0.5110   age158_m22            0.0000     4.1691E+02    11.9932   2.5986   103.8822
 20      0.0000     0.0000E+00    0.0000E+00    6.250000E+09  0.00010  6.869E-05    0   0.4985   age166_m22            0.0000     2.9328E+02     9.8878   2.5145   101.9401
 21      0.0000     0.0000E+00    0.0000E+00    7.500000E+09  0.00010  5.873E-05    0   0.4931   age171_m22            0.0000     2.7689E+02     9.5766   2.4958   101.5719
 22      0.0000     0.0000E+00    0.0000E+00    1.000000E+10  0.00010  4.481E-05    0   0.4854   age181_m22            0.0000     2.7096E+02     9.4696   2.4574   101.2335
 23      0.0000     0.0000E+00    0.0000E+00    1.300000E+10  0.00010  3.489E-05    0   0.4791   age193_m22            0.0000     2.5681E+02     9.1862   2.3999   100.7583
 24      0.0000     0.0000E+00    0.0000E+00    1.500000E+10  0.00010  3.035E-05    0   0.4766   age201_m22            0.0000     2.4743E+02     9.0037   2.3583   100.6709
 25      0.0000     0.0000E+00    0.0000E+00    1.800000E+10  0.00010  2.510E-05    0   0.4735   age213_m22            0.0000     2.2532E+02     8.5493   2.2852   100.2482
 26      0.0000     0.0000E+00    0.0000E+00    1.000000E+06  0.00040  8.458E-03    0   1.0000   age020_m32            0.0000     6.0520E+03    44.7490   4.0000   105.4537
 27      0.0000     0.0000E+00    0.0000E+00    3.160000E+06  0.00040  3.973E-02    0   1.0000   age045_m32            0.0000     2.1830E+03    27.0312   4.0000   112.2963
 28      0.1401     1.2057E-04    2.3124E-04    5.010000E+06  0.00040  1.935E-02    0   0.9532   age055_m32            0.0000     3.2090E+03    34.6682   4.0000   108.5870
 29      0.0000     0.0000E+00    0.0000E+00    6.610000E+06  0.00040  1.204E-02    0   0.9243   age061_m32            0.0000     4.9065E+03    40.8521   4.0000   109.2794
 30      0.0000     0.0000E+00    0.0000E+00    8.710000E+06  0.00040  9.433E-03    0   0.9001   age067_m32            0.0000     4.7142E+03    39.9177   4.0000   110.1575
 31      0.0000     0.0000E+00    0.0000E+00    1.000000E+07  0.00040  8.053E-03    0   0.8877   age070_m32            0.0000     4.5009E+03    39.1118   4.0000   110.4402
 32      0.7267     1.7219E-03    2.9719E-03    1.445000E+07  0.00040  7.027E-03    0   0.8578   age078_m32            0.0000     2.0085E+03    27.0865   4.0000   110.0585
 33      0.0000     0.0000E+00    0.0000E+00    2.512000E+07  0.00040  4.707E-03    0   0.8166   age090_m32            0.0000     1.1029E+03    19.0410   4.0000   108.9513
 34      0.0000     0.0000E+00    0.0000E+00    4.000000E+07  0.00040  3.714E-03    0   0.7827   age104_m32            0.0000     7.6630E+02    14.0083   4.0000   108.0294
 35      0.0000     0.0000E+00    0.0000E+00    5.500000E+07  0.00040  2.982E-03    0   0.7593   age110_m32            0.0000     7.2393E+02    13.2272   4.0000   107.7907
 36      0.0000     0.0000E+00    0.0000E+00    1.015200E+08  0.00040  2.188E-03    0   0.7143   age116_m32            0.0000     7.0985E+02    14.9738   4.0000   105.3590
 37      0.0000     0.0000E+00    0.0000E+00    1.609000E+08  0.00040  1.690E-03    0   0.6856   age120_m32            0.0000     8.0705E+02    16.4062   4.0000   102.1395
 38      0.0000     0.0000E+00    0.0000E+00    2.861200E+08  0.00040  1.152E-03    0   0.6509   age125_m32            0.0000     9.5149E+02    17.7554   3.8100   102.9699
 39      0.0000     0.0000E+00    0.0000E+00    5.088000E+08  0.00040  7.331E-04    0   0.6182   age130_m32            0.0000     1.0071E+03    18.3410   3.6547   103.4899
 40      0.0000     0.0000E+00    0.0000E+00    9.047900E+08  0.00040  3.960E-04    0   0.5890   age135_m32            0.0000     6.9950E+02    15.3906   3.1610   103.3124
 41      0.0000     0.0000E+00    0.0000E+00    1.278050E+09  0.00040  2.854E-04    0   0.5687   age138_m32            0.0000     6.1346E+02    14.6213   2.8521   105.4445
 42      0.0000     0.0000E+00    0.0000E+00    1.434000E+09  0.00040  2.531E-04    0   0.5632   age139_m32            0.0000     6.0176E+02    14.5049   2.7886   105.4829
 43      0.0000     0.0000E+00    0.0000E+00    2.500000E+09  0.00040  1.488E-04    0   0.5386   age150_m32            0.0000     4.8947E+02    13.1265   2.5204   104.1783
 44      0.0000     0.0000E+00    0.0000E+00    4.250000E+09  0.00040  9.082E-05    0   0.5199   age158_m32            0.0000     2.8532E+02     9.8500   2.3829   102.1445
 45      7.0582     1.8472E+00    1.8865E+00    6.250000E+09  0.00040  6.362E-05    0   0.5076   age166_m32            0.0000     1.6846E+02     7.2438   2.3044    99.8720
 46      8.2048     2.5829E+00    2.6124E+00    7.500000E+09  0.00040  5.289E-05    0   0.5027   age171_m32            0.0000     1.4795E+02     6.7081   2.2624    98.8283
 47      2.0633     8.6491E-01    8.6106E-01    1.000000E+10  0.00040  3.972E-05    0   0.4948   age181_m32            0.0000     1.3390E+02     6.3344   2.1980    97.6122
 48      0.0000     0.0000E+00    0.0000E+00    1.300000E+10  0.00040  3.283E-05    0   0.4870   age193_m32            0.0000     1.8145E+02     7.6732   2.1729    99.8128
 49      0.0000     0.0000E+00    0.0000E+00    1.500000E+10  0.00040  2.925E-05    0   0.4854   age201_m32            0.0000     2.1768E+02     8.5513   2.1655   101.0752
 50      0.0000     0.0000E+00    0.0000E+00    1.800000E+10  0.00040  2.469E-05    0   0.4819   age213_m32            0.0000     2.3103E+02     8.8680   2.1300   101.4864
 51      0.0000     0.0000E+00    0.0000E+00    1.000000E+06  0.00400  1.114E-02    0   1.0000   age020_m42            0.0000     5.5907E+03    43.3917   4.0000   105.7450
 52      0.0000     0.0000E+00    0.0000E+00    3.160000E+06  0.00400  4.073E-02    0   0.9999   age045_m42            0.0000     1.1661E+03    18.8043   4.0000   109.9194
 53      0.0000     0.0000E+00    0.0000E+00    5.010000E+06  0.00400  2.534E-02    0   0.9488   age055_m42            0.0000     2.5625E+03    30.4786   4.0000   109.8316
 54      0.0000     0.0000E+00    0.0000E+00    6.610000E+06  0.00400  2.583E-02    0   0.9220   age061_m42            0.0000     7.8107E+02    14.8128   4.0000   106.9321
 55      0.0000     0.0000E+00    0.0000E+00    8.710000E+06  0.00400  1.706E-02    0   0.8983   age067_m42            0.0000     4.0848E+02    12.4331   4.0000   100.9801
 56      0.0000     0.0000E+00    0.0000E+00    1.000000E+07  0.00400  1.271E-02    0   0.8862   age070_m42            0.0000     3.9601E+02    13.2629   4.0000    99.1507
 57      0.0000     0.0000E+00    0.0000E+00    1.445000E+07  0.00400  7.666E-03    0   0.8571   age078_m42            0.0000     1.1821E+03    22.9409   4.0000   104.3771
 58      0.0000     0.0000E+00    0.0000E+00    2.512000E+07  0.00400  5.070E-03    0   0.8174   age090_m42            0.0000     2.6830E+02    10.5631   4.0000    97.6758
 59      0.0000     0.0000E+00    0.0000E+00    4.000000E+07  0.00400  3.505E-03    0   0.7851   age104_m42            0.0000     2.0766E+02     8.1197   3.8109    97.4602
 60      0.0000     0.0000E+00    0.0000E+00    5.500000E+07  0.00400  3.059E-03    0   0.7629   age110_m42            0.0000     3.4494E+02     9.9274   3.9342   100.1110
 61      0.0000     0.0000E+00    0.0000E+00    1.015200E+08  0.00400  2.268E-03    0   0.7207   age116_m42            0.0000     7.1565E+02    15.3841   3.9224   102.8466
 62      0.0000     0.0000E+00    0.0000E+00    1.609000E+08  0.00400  1.720E-03    0   0.6930   age120_m42            0.0000     7.7040E+02    15.9329   3.7945   103.9554
 63      0.0000     0.0000E+00    0.0000E+00    2.861200E+08  0.00400  1.079E-03    0   0.6613   age125_m42            0.0000     7.5824E+02    15.9456   3.4331   104.6226
 64      0.0000     0.0000E+00    0.0000E+00    5.088000E+08  0.00400  6.261E-04    0   0.6313   age130_m42            0.0000     8.4369E+02    17.0998   3.2513   107.0030
 65      0.0000     0.0000E+00    0.0000E+00    9.047900E+08  0.00400  3.535E-04    0   0.6024   age135_m42            0.0000     6.0454E+02    14.6688   2.8315   108.0404
 66      0.0000     0.0000E+00    0.0000E+00    1.278050E+09  0.00400  2.677E-04    0   0.5837   age138_m42            0.0000     2.9761E+02    10.9895   2.1153   107.2544
 67      0.0000     0.0000E+00    0.0000E+00    1.434000E+09  0.00400  1.910E-04    0   0.5716   age139_m42            0.0000     3.6728E+02    11.7403   2.2948   107.6026
 68      0.0000     0.0000E+00    0.0000E+00    2.500000E+09  0.00400  9.818E-05    0   0.5463   age150_m42            0.0000     1.6869E+02     8.1510   1.9897   104.1757
 69      0.2056     6.2336E-02    6.6084E-02    4.250000E+09  0.00400  5.491E-05    0   0.5269   age158_m42            0.0000     1.0124E+02     6.4784   1.8440   102.1227
 70      0.0000     0.0000E+00    0.0000E+00    6.250000E+09  0.00400  3.857E-05    0   0.5151   age166_m42            0.0000     9.4239E+01     6.3444   1.7138   101.0865
 71      1.5208     7.8080E-01    8.0278E-01    7.500000E+09  0.00400  3.243E-05    0   0.5110   age171_m42            0.0000     9.8626E+01     6.5532   1.6348   100.6739
 72      1.5520     1.0661E+00    1.0785E+00    1.000000E+10  0.00400  2.424E-05    0   0.5028   age181_m42            0.0000     1.0743E+02     6.9438   1.5543   100.2069
 73      2.4217     2.1413E+00    2.1227E+00    1.300000E+10  0.00400  1.883E-05    0   0.4927   age193_m42            0.0000     1.1283E+02     7.1775   1.5114   100.0735
 74      5.6480     5.5809E+00    5.5235E+00    1.500000E+10  0.00400  1.685E-05    0   0.4919   age201_m42            0.0000     1.0819E+02     6.9828   1.5160   100.0825
 75      6.3354     7.2647E+00    7.1242E+00    1.800000E+10  0.00400  1.452E-05    0   0.4874   age213_m42            0.0000     1.0021E+02     6.6638   1.5298   100.3630
 76      0.0000     0.0000E+00    0.0000E+00    1.000000E+06  0.00800  1.286E-02    0   1.0000   age020_m52            0.0000     5.4163E+03    42.4491   4.0000   107.7589
 77      0.0000     0.0000E+00    0.0000E+00    3.160000E+06  0.00800  3.147E-02    0   0.9966   age045_m52            0.0000     4.9399E+03    40.9860   4.0000   109.0916
 78      0.0000     0.0000E+00    0.0000E+00    5.010000E+06  0.00800  2.664E-02    0   0.9443   age055_m52            0.0000     3.1301E+03    33.6768   4.0000   110.2536
 79      0.0000     0.0000E+00    0.0000E+00    6.610000E+06  0.00800  2.151E-02    0   0.9177   age061_m52            0.0000     1.8296E+02     8.5672   3.8255    95.2236
 80      0.0000     0.0000E+00    0.0000E+00    8.710000E+06  0.00800  1.628E-02    0   0.8948   age067_m52            0.0000     3.5356E+02    12.1847   4.0000   100.4583
 81      0.0000     0.0000E+00    0.0000E+00    1.000000E+07  0.00800  1.215E-02    0   0.8827   age070_m52            0.0000     9.7438E+02    20.3381   4.0000   106.1641
 82      0.0000     0.0000E+00    0.0000E+00    1.445000E+07  0.00800  8.739E-03    0   0.8552   age078_m52            0.0000     1.1215E+03    20.5823   4.0000   108.3485
 83      0.0000     0.0000E+00    0.0000E+00    2.512000E+07  0.00800  5.676E-03    0   0.8162   age090_m52            0.0000     4.7782E+02    11.7492   4.0000   104.2112
 84      0.0000     0.0000E+00    0.0000E+00    4.000000E+07  0.00800  3.939E-03    0   0.7841   age104_m52            0.0000     4.1553E+02    10.5486   4.0000   102.4980
 85      0.0000     0.0000E+00    0.0000E+00    5.500000E+07  0.00800  3.155E-03    0   0.7627   age110_m52            0.0000     4.7808E+02    11.7200   4.0000   103.3996
 86      0.0000     0.0000E+00    0.0000E+00    1.015200E+08  0.00800  2.206E-03    0   0.7226   age116_m52            0.0000     6.1441E+02    14.0609   3.9616   103.1371
 87      0.0000     0.0000E+00    0.0000E+00    1.609000E+08  0.00800  1.596E-03    0   0.6963   age120_m52            0.0000     6.8144E+02    15.0225   3.7597   104.4038
 88      0.0000     0.0000E+00    0.0000E+00    2.861200E+08  0.00800  1.002E-03    0   0.6665   age125_m52            0.0000     8.6388E+02    17.2539   3.4966   106.4588
 89      0.0000     0.0000E+00    0.0000E+00    5.088000E+08  0.00800  5.759E-04    0   0.6377   age130_m52            0.0000     8.9840E+02    17.8463   3.1668   110.0450
 90      0.0000     0.0000E+00    0.0000E+00    9.047900E+08  0.00800  2.972E-04    0   0.6086   age135_m52            0.0000     5.9844E+02    14.6293   2.6045   109.9700
 91      0.0000     0.0000E+00    0.0000E+00    1.278050E+09  0.00800  2.242E-04    0   0.5907   age138_m52            0.0000     2.8737E+02    10.7489   1.9440   110.6189
 92      0.0000     0.0000E+00    0.0000E+00    1.434000E+09  0.00800  1.645E-04    0   0.5787   age139_m52            0.0000     2.6662E+02    10.1841   2.0888   109.9807
 93      0.0000     0.0000E+00    0.0000E+00    2.500000E+09  0.00800  7.723E-05    0   0.5519   age150_m52            0.0000     1.5752E+02     8.2085   1.7266   107.2373
 94      0.0371     1.4862E-02    1.5908E-02    4.250000E+09  0.00800  4.151E-05    0   0.5320   age158_m52            0.0000     1.3235E+02     7.6099   1.6453   105.0624
 95      0.5580     3.0865E-01    3.2274E-01    6.250000E+09  0.00800  3.010E-05    0   0.5197   age166_m52            0.0000     1.4072E+02     8.0837   1.4471   104.0592
 96      0.0000     0.0000E+00    0.0000E+00    7.500000E+09  0.00800  2.467E-05    0   0.5139   age171_m52            0.0000     1.4827E+02     8.3304   1.4059   103.7118
 97      0.0000     0.0000E+00    0.0000E+00    1.000000E+10  0.00800  1.862E-05    0   0.5054   age181_m52            0.0000     1.8158E+02     9.1799   1.2780   103.4985
