###################################################################
## OUTPUT of StarlightChains_v04.for    [Cid@UFSC - 01/Apr/2007] ##
###################################################################

## Some input info
NGC6333_a_1.cxt                          [arq_obs]
Base.BC03.S                              [arq_base]
NGC6333_a_1.msk                          [arq_masks]
StCv04.C99.config                        [arq_config]
  150                                    [N_base]
    0                                    [N_YAV_components = # of components with extra extinction!]
    0                                    [i_FitPowerLaw (1/0 = Yes/No)]
-9.99                                    [alpha_PowerLaw]
CCM                                      [red_law_option]
 1.458241                                [q_norm = A(l_norm)/A(V)]

## (Re)Sampling Parameters
 3359.00                                 [l_ini (A)]
 6428.00                                 [l_fin (A)]
    1.00                                 [dl    (A)]     (OBS: dl_cushion =    50.00 A)

## Normalization info
 4020.00                                 [l_norm (A) - for base]
 4010.00                                 [llow_norm (A) - window for f_obs]
 4060.00                                 [lupp_norm (A) - window for f_obs]
1.502426E-14                             [fobs_norm (in input units)]

## S/N
 4730.00                                 [llow_SN (A) - window for S/N]
 4780.00                                 [lupp_SN (A) - window for S/N]
 125.098                                 [S/N in S/N window]
 101.861                                 [S/N in norm. window]
  69.725                                 [S/N_err in S/N window]
  56.774                                 [S/N_err in norm. window]
  1.0000                                 [fscale_chi2]

## etc...
  2147483616                             [idum_orig]
  3063                                   [NOl_eff]
  2227                                   [Nl_eff]
   836    NSIGMA                         [Ntot_cliped & clip_method]
  3591700                                [Nglobal_steps]
   7                                     [N_chains]
  20                                     [NEX0s_base = N_base in EX0s-fits]
 0   0   1      286   2.0   8.726E+02    [Clip-Bug, RC-Crash & Burn-In warning-flags, n_censored_weights, wei_nsig_threshold & wei_limit]
   148    147.974    147.961      0.012  [idt_all, wdt_TotTime, wdt_UsrTime & wdt_SysTime (sec)]

## Synthesis Results - Best model ##

 1.79718E+00                             [chi2/Nl_eff]
     1.43510                             [adev (%)]

   100.47400                             [sum-of-x (%)]
 9.35023E-14                             [Flux_tot (units of input spectrum!)]
 1.37733E-09                             [Mini_tot (???)]
 6.81761E-10                             [Mcor_tot (???)]

 -21.71                                  [v0_min  (km/s)]
  83.22                                  [vd_min  (km/s)]
 1.3578                                  [AV_min  (mag)]
 0.0000                                  [YAV_min (mag)]

# j     x_j(%)      Mini_j(%)     Mcor_j(%)     age_j(yr)     Z_j      (L/M)_j    YAV?  Mstars   component_j        a/Fe...       SSP_chi2r SSP_adev(%)   SSP_AV   SSP_x(%)
  1      0.0001     1.0474E-06    2.1159E-06    1.000000E+06  0.00010  8.160E-03    0   1.0000   age020_m22            0.0000     4.7671E+02    22.9796   4.0000    67.6515
  2     20.5059     2.9113E-02    5.8816E-02    3.160000E+06  0.00010  4.759E-02    0   1.0000   age045_m22            0.0000     1.3846E+01     2.6127   2.3976    94.6567
  3      4.3863     1.5340E-02    2.9695E-02    5.010000E+06  0.00010  1.932E-02    0   0.9582   age055_m22            0.0000     1.4200E+02    11.3659   2.9763    72.6273
  4      0.0000     0.0000E+00    0.0000E+00    6.610000E+06  0.00010  9.973E-03    0   0.9297   age061_m22            0.0000     4.4069E+02    22.0236   4.0000    70.3278
  5      0.0000     0.0000E+00    0.0000E+00    8.710000E+06  0.00010  7.690E-03    0   0.9030   age067_m22            0.0000     4.1850E+02    21.4023   4.0000    71.0043
  6      0.0000     0.0000E+00    0.0000E+00    1.000000E+07  0.00010  6.375E-03    0   0.8902   age070_m22            0.0000     4.1537E+02    21.3121   4.0000    71.3804
  7      0.0000     0.0000E+00    0.0000E+00    1.445000E+07  0.00010  4.874E-03    0   0.8589   age078_m22            0.0000     2.2330E+02    15.0047   4.0000    75.5405
  8      0.0000     0.0000E+00    0.0000E+00    2.512000E+07  0.00010  4.103E-03    0   0.8174   age090_m22            0.0000     3.8218E+01     5.3124   3.8652    84.7596
  9      2.7650     5.1127E-02    8.0876E-02    4.000000E+07  0.00010  3.654E-03    0   0.7830   age104_m22            0.0000     2.0373E+01     3.0056   3.4094    95.1638
 10      2.4743     5.4050E-02    8.2955E-02    5.500000E+07  0.00010  3.093E-03    0   0.7597   age110_m22            0.0000     2.4721E+01     3.1964   3.2461    99.1458
 11      1.5776     4.3846E-02    6.3229E-02    1.015200E+08  0.00010  2.431E-03    0   0.7138   age116_m22            0.0000     4.6959E+01     5.0787   2.7982   106.3425
 12      0.0000     0.0000E+00    0.0000E+00    1.609000E+08  0.00010  1.319E-03    0   0.6775   age120_m22            0.0000     4.2608E+01     5.5899   2.3081   109.6652
 13      0.0000     0.0000E+00    0.0000E+00    2.861200E+08  0.00010  1.075E-03    0   0.6412   age125_m22            0.0000     1.9282E+02    12.5376   2.0540   127.0187
 14      0.0000     0.0000E+00    0.0000E+00    5.088000E+08  0.00010  7.183E-04    0   0.6083   age130_m22            0.0000     2.5596E+02    14.6353   1.7192   133.6579
 15      0.0000     0.0000E+00    0.0000E+00    9.047900E+08  0.00010  4.524E-04    0   0.5785   age135_m22            0.0000     2.6328E+02    14.9793   1.5013   135.9561
 16      0.0000     0.0000E+00    0.0000E+00    1.278050E+09  0.00010  3.018E-04    0   0.5588   age138_m22            0.0000     9.8496E+01     9.7023   1.2263   122.6192
 17      0.0000     0.0000E+00    0.0000E+00    1.434000E+09  0.00010  2.691E-04    0   0.5532   age139_m22            0.0000     7.6431E+01     8.6641   1.1190   119.8530
 18      0.0000     0.0000E+00    0.0000E+00    2.500000E+09  0.00010  1.582E-04    0   0.5296   age150_m22            0.0000     6.0753E+01     7.5982   1.0473   118.8975
 19      0.0000     0.0000E+00    0.0000E+00    4.250000E+09  0.00010  1.007E-04    0   0.5110   age158_m22            0.0000     2.6810E+01     5.2157   0.9999   112.4942
 20      0.0000     0.0000E+00    0.0000E+00    6.250000E+09  0.00010  6.869E-05    0   0.4985   age166_m22            0.0000     9.5359E+00     3.0206   1.0423   105.3008
 21      0.0000     0.0000E+00    0.0000E+00    7.500000E+09  0.00010  5.873E-05    0   0.4931   age171_m22            0.0000     7.4816E+00     2.5484   1.0504   103.9046
 22      0.0000     0.0000E+00    0.0000E+00    1.000000E+10  0.00010  4.481E-05    0   0.4854   age181_m22            0.0000     7.3101E+00     2.5490   1.0143   103.4494
 23      0.0000     0.0000E+00    0.0000E+00    1.300000E+10  0.00010  3.489E-05    0   0.4791   age193_m22            0.0000     7.0615E+00     2.5220   0.9643   102.6179
 24      0.0000     0.0000E+00    0.0000E+00    1.500000E+10  0.00010  3.035E-05    0   0.4766   age201_m22            0.0000     6.8818E+00     2.4680   0.9304   102.2209
 25     17.3582     4.6726E+01    4.4698E+01    1.800000E+10  0.00010  2.510E-05    0   0.4735   age213_m22            0.0000     6.7247E+00     2.3449   0.8768   101.0014
 26      0.0000     0.0000E+00    0.0000E+00    1.000000E+06  0.00040  8.458E-03    0   1.0000   age020_m32            0.0000     4.8529E+02    23.2146   4.0000    68.2695
 27      0.0000     0.0000E+00    0.0000E+00    3.160000E+06  0.00040  3.973E-02    0   1.0000   age045_m32            0.0000     4.3950E+01     5.7051   3.7753    84.2547
 28      0.0000     0.0000E+00    0.0000E+00    5.010000E+06  0.00040  1.935E-02    0   0.9532   age055_m32            0.0000     1.3044E+02    10.3939   4.0000    74.8689
 29      0.0000     0.0000E+00    0.0000E+00    6.610000E+06  0.00040  1.204E-02    0   0.9243   age061_m32            0.0000     2.8971E+02    17.3759   4.0000    73.1884
 30      0.0000     0.0000E+00    0.0000E+00    8.710000E+06  0.00040  9.433E-03    0   0.9001   age067_m32            0.0000     2.4640E+02    15.8687   4.0000    74.5688
 31      0.0000     0.0000E+00    0.0000E+00    1.000000E+07  0.00040  8.053E-03    0   0.8877   age070_m32            0.0000     2.1766E+02    14.7388   4.0000    75.1821
 32      0.0000     0.0000E+00    0.0000E+00    1.445000E+07  0.00040  7.027E-03    0   0.8578   age078_m32            0.0000     5.8452E+01     6.8838   3.7739    81.6335
 33      0.0000     0.0000E+00    0.0000E+00    2.512000E+07  0.00040  4.707E-03    0   0.8166   age090_m32            0.0000     2.8248E+01     4.5102   3.3939    88.4632
 34      1.0229     1.8609E-02    2.9426E-02    4.000000E+07  0.00040  3.714E-03    0   0.7827   age104_m32            0.0000     1.5904E+01     2.7623   3.0768    96.0424
 35      0.1822     4.1280E-03    6.3323E-03    5.500000E+07  0.00040  2.982E-03    0   0.7593   age110_m32            0.0000     1.9214E+01     2.8043   2.9622    99.3440
 36      0.0000     0.0000E+00    0.0000E+00    1.015200E+08  0.00040  2.188E-03    0   0.7143   age116_m32            0.0000     8.2147E+01     7.6459   2.4634   113.3815
 37      0.0000     0.0000E+00    0.0000E+00    1.609000E+08  0.00040  1.690E-03    0   0.6856   age120_m32            0.0000     1.5144E+02    10.6334   2.1130   122.5326
 38      0.0000     0.0000E+00    0.0000E+00    2.861200E+08  0.00040  1.152E-03    0   0.6509   age125_m32            0.0000     2.0931E+02    13.1633   1.7703   129.9449
 39      0.0000     0.0000E+00    0.0000E+00    5.088000E+08  0.00040  7.331E-04    0   0.6182   age130_m32            0.0000     2.3827E+02    14.2410   1.5566   133.0504
 40      0.0000     0.0000E+00    0.0000E+00    9.047900E+08  0.00040  3.960E-04    0   0.5890   age135_m32            0.0000     1.0553E+02    10.2410   1.3031   122.3497
 41      0.0000     0.0000E+00    0.0000E+00    1.278050E+09  0.00040  2.854E-04    0   0.5687   age138_m32            0.0000     7.6830E+01     8.5802   1.0730   121.7562
 42      0.0000     0.0000E+00    0.0000E+00    1.434000E+09  0.00040  2.531E-04    0   0.5632   age139_m32            0.0000     7.4634E+01     8.3956   1.0168   121.4974
 43     25.3720     1.1521E+01    1.2536E+01    2.500000E+09  0.00040  1.488E-04    0   0.5386   age150_m32            0.0000     4.9835E+01     6.9126   0.8245   116.5601
 44     15.7258     1.1699E+01    1.2288E+01    4.250000E+09  0.00040  9.082E-05    0   0.5199   age158_m32            0.0000     1.2700E+01     3.5244   0.8852   106.2541
 45      5.0007     5.3108E+00    5.4462E+00    6.250000E+09  0.00040  6.362E-05    0   0.5076   age166_m32            0.0000     9.3987E+00     2.3014   0.9618    97.9929
 46      2.6563     3.3934E+00    3.4462E+00    7.500000E+09  0.00040  5.289E-05    0   0.5027   age171_m32            0.0000     1.2046E+01     2.5034   0.9437    96.0355
 47      0.0000     0.0000E+00    0.0000E+00    1.000000E+10  0.00040  3.972E-05    0   0.4948   age181_m32            0.0000     1.4788E+01     2.7724   0.8901    94.3969
 48      0.0000     0.0000E+00    0.0000E+00    1.300000E+10  0.00040  3.283E-05    0   0.4870   age193_m32            0.0000     1.0280E+01     2.7502   0.7851    99.5450
 49      0.0010     2.4031E-03    2.3565E-03    1.500000E+10  0.00040  2.925E-05    0   0.4854   age201_m32            0.0000     1.0782E+01     3.0711   0.7286   102.7178
 50      0.0000     0.0000E+00    0.0000E+00    1.800000E+10  0.00040  2.469E-05    0   0.4819   age213_m32            0.0000     1.2133E+01     3.3267   0.6718   103.9288
 51      0.0000     0.0000E+00    0.0000E+00    1.000000E+06  0.00400  1.114E-02    0   1.0000   age020_m42            0.0000     4.2086E+02    21.3780   4.0000    68.9366
 52      0.0000     0.0000E+00    0.0000E+00    3.160000E+06  0.00400  4.073E-02    0   0.9999   age045_m42            0.0000     2.6514E+01     4.0719   3.4176    88.9008
 53      0.0000     0.0000E+00    0.0000E+00    5.010000E+06  0.00400  2.534E-02    0   0.9488   age055_m42            0.0000     7.4490E+01     7.6950   3.9593    78.2055
 54      0.0011     2.8788E-06    5.3623E-06    6.610000E+06  0.00400  2.583E-02    0   0.9220   age061_m42            0.0000     1.9112E+01     3.0582   3.1888    91.5071
 55      0.0006     2.2851E-06    4.1471E-06    8.710000E+06  0.00400  1.706E-02    0   0.8983   age067_m42            0.0000     3.4689E+01     5.2134   3.1116    86.1978
 56      0.0000     0.0000E+00    0.0000E+00    1.000000E+07  0.00400  1.271E-02    0   0.8862   age070_m42            0.0000     5.6835E+01     7.2338   3.1551    82.7544
 57      0.0000     0.0000E+00    0.0000E+00    1.445000E+07  0.00400  7.666E-03    0   0.8571   age078_m42            0.0000     8.7499E+01     8.6570   3.6135    77.7964
 58      0.0000     0.0000E+00    0.0000E+00    2.512000E+07  0.00400  5.070E-03    0   0.8174   age090_m42            0.0000     5.1576E+01     6.6886   3.0088    84.8885
 59      0.0000     0.0000E+00    0.0000E+00    4.000000E+07  0.00400  3.505E-03    0   0.7851   age104_m42            0.0000     3.4569E+01     4.5874   2.6274    90.2500
 60      0.0000     0.0000E+00    0.0000E+00    5.500000E+07  0.00400  3.059E-03    0   0.7629   age110_m42            0.0000     1.9531E+01     3.0413   2.4789   102.8368
 61      0.0000     0.0000E+00    0.0000E+00    1.015200E+08  0.00400  2.268E-03    0   0.7207   age116_m42            0.0000     1.2580E+02    10.1234   2.0628   121.9087
 62      0.0000     0.0000E+00    0.0000E+00    1.609000E+08  0.00400  1.720E-03    0   0.6930   age120_m42            0.0000     1.4660E+02    11.2451   1.8654   126.1272
 63      0.0000     0.0000E+00    0.0000E+00    2.861200E+08  0.00400  1.079E-03    0   0.6613   age125_m42            0.0000     1.4369E+02    11.2802   1.5114   126.8382
 64      0.0000     0.0000E+00    0.0000E+00    5.088000E+08  0.00400  6.261E-04    0   0.6313   age130_m42            0.0000     1.8198E+02    12.4967   1.2520   133.1764
 65      0.0000     0.0000E+00    0.0000E+00    9.047900E+08  0.00400  3.535E-04    0   0.6024   age135_m42            0.0000     1.0061E+02     9.5711   1.0035   126.5848
 66      0.0000     0.0000E+00    0.0000E+00    1.278050E+09  0.00400  2.677E-04    0   0.5837   age138_m42            0.0000     7.1292E+01     7.5526   0.4881   116.0924
 67      0.0000     0.0000E+00    0.0000E+00    1.434000E+09  0.00400  1.910E-04    0   0.5716   age139_m42            0.0000     6.4179E+01     7.8258   0.6137   118.8900
 68      0.0000     0.0000E+00    0.0000E+00    2.500000E+09  0.00400  9.818E-05    0   0.5463   age150_m42            0.0000     5.1183E+01     6.1166   0.5138   106.4969
 69      0.0000     0.0000E+00    0.0000E+00    4.250000E+09  0.00400  5.491E-05    0   0.5269   age158_m42            0.0000     6.2402E+01     5.7765   0.4592   100.8312
 70      0.0000     0.0000E+00    0.0000E+00    6.250000E+09  0.00400  3.857E-05    0   0.5151   age166_m42            0.0000     7.7457E+01     6.3462   0.3534    98.7120
 71      0.0000     0.0000E+00    0.0000E+00    7.500000E+09  0.00400  3.243E-05    0   0.5110   age171_m42            0.0000     8.8712E+01     6.7445   0.2814    97.9467
 72      0.0000     0.0000E+00    0.0000E+00    1.000000E+10  0.00400  2.424E-05    0   0.5028   age181_m42            0.0000     1.0884E+02     7.2400   0.2097    97.0196
 73      0.0000     0.0000E+00    0.0000E+00    1.300000E+10  0.00400  1.883E-05    0   0.4927   age193_m42            0.0000     1.2962E+02     7.5489   0.1802    96.3615
 74      0.0000     0.0000E+00    0.0000E+00    1.500000E+10  0.00400  1.685E-05    0   0.4919   age201_m42            0.0000     1.2421E+02     7.4310   0.1852    96.3612
 75      0.0000     0.0000E+00    0.0000E+00    1.800000E+10  0.00400  1.452E-05    0   0.4874   age213_m42            0.0000     1.1531E+02     7.2246   0.1995    96.6376
 76      0.0000     0.0000E+00    0.0000E+00    1.000000E+06  0.00800  1.286E-02    0   1.0000   age020_m52            0.0000     3.7051E+02    19.7823   4.0000    71.2616
 77      0.0000     0.0000E+00    0.0000E+00    3.160000E+06  0.00800  3.147E-02    0   0.9966   age045_m52            0.0000     2.9633E+02    17.4719   4.0000    72.9658
 78      0.0000     0.0000E+00    0.0000E+00    5.010000E+06  0.00800  2.664E-02    0   0.9443   age055_m52            0.0000     1.0355E+02     8.5649   4.0000    77.0340
 79      0.0000     0.0000E+00    0.0000E+00    6.610000E+06  0.00800  2.151E-02    0   0.9177   age061_m52            0.0000     5.9683E+01     6.6411   2.7530    84.2934
 80      0.0000     0.0000E+00    0.0000E+00    8.710000E+06  0.00800  1.628E-02    0   0.8948   age067_m52            0.0000     4.9074E+01     6.0061   3.0924    85.8461
 81      0.0000     0.0000E+00    0.0000E+00    1.000000E+07  0.00800  1.215E-02    0   0.8827   age070_m52            0.0000     6.3401E+01     6.8678   3.4605    83.1128
 82      0.0000     0.0000E+00    0.0000E+00    1.445000E+07  0.00800  8.739E-03    0   0.8552   age078_m52            0.0000     4.6596E+01     5.5438   3.4546    85.9952
 83      0.0000     0.0000E+00    0.0000E+00    2.512000E+07  0.00800  5.676E-03    0   0.8162   age090_m52            0.0000     2.5320E+01     3.2587   2.9343    95.2116
 84      0.0000     0.0000E+00    0.0000E+00    4.000000E+07  0.00800  3.939E-03    0   0.7841   age104_m52            0.0000     2.6104E+01     2.6044   2.6808   101.4090
 85      0.0000     0.0000E+00    0.0000E+00    5.500000E+07  0.00800  3.155E-03    0   0.7627   age110_m52            0.0000     3.6966E+01     4.2083   2.5675   106.5418
 86      0.0000     0.0000E+00    0.0000E+00    1.015200E+08  0.00800  2.206E-03    0   0.7226   age116_m52            0.0000     8.3283E+01     8.2004   2.2144   117.7632
 87      0.0000     0.0000E+00    0.0000E+00    1.609000E+08  0.00800  1.596E-03    0   0.6963   age120_m52            0.0000     1.0826E+02     9.7075   1.9335   122.5384
 88      0.0000     0.0000E+00    0.0000E+00    2.861200E+08  0.00800  1.002E-03    0   0.6665   age125_m52            0.0000     1.9728E+02    13.3945   1.4708   133.3389
 89      0.0000     0.0000E+00    0.0000E+00    5.088000E+08  0.00800  5.759E-04    0   0.6377   age130_m52            0.0000     2.1945E+02    14.4477   1.0766   140.2411
 90      0.0000     0.0000E+00    0.0000E+00    9.047900E+08  0.00800  2.972E-04    0   0.6086   age135_m52            0.0000     1.1557E+02    10.9339   0.7500   129.0753
 91      0.0000     0.0000E+00    0.0000E+00    1.278050E+09  0.00800  2.242E-04    0   0.5907   age138_m52            0.0000     9.1637E+01     8.5919   0.3316   118.6456
 92      0.0000     0.0000E+00    0.0000E+00    1.434000E+09  0.00800  1.645E-04    0   0.5787   age139_m52            0.0000     7.8464E+01     7.8607   0.4972   117.2181
 93      0.0000     0.0000E+00    0.0000E+00    2.500000E+09  0.00800  7.723E-05    0   0.5519   age150_m52            0.0000     9.5716E+01     7.4163   0.2652   108.5784
 94      0.0000     0.0000E+00    0.0000E+00    4.250000E+09  0.00800  4.151E-05    0   0.5320   age158_m52            0.0000     9.7361E+01     7.2366   0.2383   104.1862
 95      0.0000     0.0000E+00    0.0000E+00    6.250000E+09  0.00800  3.010E-05    0   0.5197   age166_m52            0.0000     1.3052E+02     8.0158   0.0645   101.9639
 96      0.0000     0.0000E+00    0.0000E+00    7.500000E+09  0.00800  2.467E-05    0   0.5139   age171_m52            0.0000     1.4064E+02     8.3776   0.0000   101.7123
 97      0.0000     0.0000E+00    0.0000E+00    1.000000E+10  0.00800  1.862E-05    0   0.5054   age181_m52            0.0000     1.7066E+02     9.0372  -0.1084   101.2672
