###################################################################
## OUTPUT of StarlightChains_v04.for    [Cid@UFSC - 01/Apr/2007] ##
###################################################################

## Some input info
NGC6304_a_1.cxt                          [arq_obs]
Base.BC03.S                              [arq_base]
NGC6304_a_1.msk                          [arq_masks]
StCv04.C99.config                        [arq_config]
  150                                    [N_base]
    0                                    [N_YAV_components = # of components with extra extinction!]
    0                                    [i_FitPowerLaw (1/0 = Yes/No)]
-9.99                                    [alpha_PowerLaw]
CCM                                      [red_law_option]
 1.458241                                [q_norm = A(l_norm)/A(V)]

## (Re)Sampling Parameters
 3359.00                                 [l_ini (A)]
 6428.00                                 [l_fin (A)]
    1.00                                 [dl    (A)]     (OBS: dl_cushion =    50.00 A)

## Normalization info
 4020.00                                 [l_norm (A) - for base]
 4010.00                                 [llow_norm (A) - window for f_obs]
 4060.00                                 [lupp_norm (A) - window for f_obs]
6.037552E-15                             [fobs_norm (in input units)]

## S/N
 4730.00                                 [llow_SN (A) - window for S/N]
 4780.00                                 [lupp_SN (A) - window for S/N]
  34.026                                 [S/N in S/N window]
  19.978                                 [S/N in norm. window]
 118.990                                 [S/N_err in S/N window]
  69.864                                 [S/N_err in norm. window]
  1.0000                                 [fscale_chi2]

## etc...
  2147483619                             [idum_orig]
  3064                                   [NOl_eff]
  1365                                   [Nl_eff]
  1699    NSIGMA                         [Ntot_cliped & clip_method]
  3732960                                [Nglobal_steps]
   7                                     [N_chains]
  21                                     [NEX0s_base = N_base in EX0s-fits]
 0   0   1      178   2.0   5.094E+02    [Clip-Bug, RC-Crash & Burn-In warning-flags, n_censored_weights, wei_nsig_threshold & wei_limit]
   149    149.670    149.658      0.012  [idt_all, wdt_TotTime, wdt_UsrTime & wdt_SysTime (sec)]

## Synthesis Results - Best model ##

 2.51966E+00                             [chi2/Nl_eff]
     2.29500                             [adev (%)]

    98.68722                             [sum-of-x (%)]
 3.54198E-14                             [Flux_tot (units of input spectrum!)]
 1.99544E-09                             [Mini_tot (???)]
 1.00045E-09                             [Mcor_tot (???)]

   8.55                                  [v0_min  (km/s)]
  33.17                                  [vd_min  (km/s)]
 1.3272                                  [AV_min  (mag)]
 0.0000                                  [YAV_min (mag)]

# j     x_j(%)      Mini_j(%)     Mcor_j(%)     age_j(yr)     Z_j      (L/M)_j    YAV?  Mstars   component_j        a/Fe...       SSP_chi2r SSP_adev(%)   SSP_AV   SSP_x(%)
  1      2.8132     6.2009E-03    1.2368E-02    1.000000E+06  0.00010  8.160E-03    0   1.0000   age020_m22            0.0000     2.2419E+03    36.5353   4.0000    90.2429
  2      7.7460     2.9276E-03    5.8392E-03    3.160000E+06  0.00010  4.759E-02    0   1.0000   age045_m22            0.0000     2.6707E+02     9.6042   3.6231    96.9681
  3      6.5702     6.1167E-03    1.1690E-02    5.010000E+06  0.00010  1.932E-02    0   0.9582   age055_m22            0.0000     4.2218E+02    16.1177   4.0000    86.2145
  4      0.0000     0.0000E+00    0.0000E+00    6.610000E+06  0.00010  9.973E-03    0   0.9297   age061_m22            0.0000     2.1678E+03    36.1771   4.0000    92.7331
  5      0.3707     8.6707E-04    1.5617E-03    8.710000E+06  0.00010  7.690E-03    0   0.9030   age067_m22            0.0000     2.1119E+03    35.8834   4.0000    93.1653
  6      0.0000     0.0000E+00    0.0000E+00    1.000000E+07  0.00010  6.375E-03    0   0.8902   age070_m22            0.0000     2.0862E+03    36.0448   4.0000    93.3218
  7      0.0000     0.0000E+00    0.0000E+00    1.445000E+07  0.00010  4.874E-03    0   0.8589   age078_m22            0.0000     1.6559E+03    31.7023   4.0000    95.9915
  8      0.0000     0.0000E+00    0.0000E+00    2.512000E+07  0.00010  4.103E-03    0   0.8174   age090_m22            0.0000     9.5478E+02    22.1523   4.0000   100.4178
  9      0.0000     0.0000E+00    0.0000E+00    4.000000E+07  0.00010  3.654E-03    0   0.7830   age104_m22            0.0000     6.9247E+02    15.4445   4.0000   102.3677
 10      0.0000     0.0000E+00    0.0000E+00    5.500000E+07  0.00010  3.093E-03    0   0.7597   age110_m22            0.0000     6.2056E+02    13.5327   4.0000   102.5399
 11      0.0000     0.0000E+00    0.0000E+00    1.015200E+08  0.00010  2.431E-03    0   0.7138   age116_m22            0.0000     5.4553E+02     8.6850   4.0000   101.1922
 12      0.0000     0.0000E+00    0.0000E+00    1.609000E+08  0.00010  1.319E-03    0   0.6775   age120_m22            0.0000     5.1144E+02     8.7170   3.7273   100.4372
 13      0.0000     0.0000E+00    0.0000E+00    2.861200E+08  0.00010  1.075E-03    0   0.6412   age125_m22            0.0000     8.0555E+02     9.5656   3.7120   103.0188
 14      0.0000     0.0000E+00    0.0000E+00    5.088000E+08  0.00010  7.183E-04    0   0.6083   age130_m22            0.0000     8.9677E+02    10.5170   3.4405   104.6078
 15      0.0000     0.0000E+00    0.0000E+00    9.047900E+08  0.00010  4.524E-04    0   0.5785   age135_m22            0.0000     8.9567E+02    10.5404   3.2366   105.8479
 16      0.0000     0.0000E+00    0.0000E+00    1.278050E+09  0.00010  3.018E-04    0   0.5588   age138_m22            0.0000     5.7457E+02     8.2528   2.7274   104.6213
 17      0.0000     0.0000E+00    0.0000E+00    1.434000E+09  0.00010  2.691E-04    0   0.5532   age139_m22            0.0000     5.1297E+02     7.8451   2.5780   104.1444
 18      0.0000     0.0000E+00    0.0000E+00    2.500000E+09  0.00010  1.582E-04    0   0.5296   age150_m22            0.0000     4.8917E+02     7.7983   2.5004   104.9703
 19      0.0000     0.0000E+00    0.0000E+00    4.250000E+09  0.00010  1.007E-04    0   0.5110   age158_m22            0.0000     3.6977E+02     7.1464   2.3674   103.6778
 20      0.0000     0.0000E+00    0.0000E+00    6.250000E+09  0.00010  6.869E-05    0   0.4985   age166_m22            0.0000     2.7340E+02     6.8346   2.3268   101.2949
 21      0.0000     0.0000E+00    0.0000E+00    7.500000E+09  0.00010  5.873E-05    0   0.4931   age171_m22            0.0000     2.6638E+02     7.0193   2.3268   100.8081
 22      0.0000     0.0000E+00    0.0000E+00    1.000000E+10  0.00010  4.481E-05    0   0.4854   age181_m22            0.0000     2.5953E+02     6.9057   2.2838   100.4469
 23      0.0000     0.0000E+00    0.0000E+00    1.300000E+10  0.00010  3.489E-05    0   0.4791   age193_m22            0.0000     2.4448E+02     6.7146   2.2217    99.9193
 24      0.0000     0.0000E+00    0.0000E+00    1.500000E+10  0.00010  3.035E-05    0   0.4766   age201_m22            0.0000     2.3604E+02     6.6367   2.1819    99.7655
 25      0.0000     0.0000E+00    0.0000E+00    1.800000E+10  0.00010  2.510E-05    0   0.4735   age213_m22            0.0000     2.1745E+02     6.4947   2.1130    99.2447
 26      2.3297     4.9543E-03    9.8816E-03    1.000000E+06  0.00040  8.458E-03    0   1.0000   age020_m32            0.0000     2.2449E+03    36.9154   4.0000    90.8118
 27      0.0000     0.0000E+00    0.0000E+00    3.160000E+06  0.00040  3.973E-02    0   1.0000   age045_m32            0.0000     8.5795E+02    19.8236   4.0000    99.9535
 28      0.0000     0.0000E+00    0.0000E+00    5.010000E+06  0.00040  1.935E-02    0   0.9532   age055_m32            0.0000     1.3608E+03    26.0525   4.0000    95.5024
 29      0.0000     0.0000E+00    0.0000E+00    6.610000E+06  0.00040  1.204E-02    0   0.9243   age061_m32            0.0000     1.8436E+03    32.8615   4.0000    94.6167
 30      0.0000     0.0000E+00    0.0000E+00    8.710000E+06  0.00040  9.433E-03    0   0.9001   age067_m32            0.0000     1.7393E+03    32.0615   4.0000    95.4775
 31      0.0000     0.0000E+00    0.0000E+00    1.000000E+07  0.00040  8.053E-03    0   0.8877   age070_m32            0.0000     1.6642E+03    31.2257   4.0000    95.8548
 32      0.0000     0.0000E+00    0.0000E+00    1.445000E+07  0.00040  7.027E-03    0   0.8578   age078_m32            0.0000     8.9032E+02    19.3009   4.0000    98.4788
 33      0.0000     0.0000E+00    0.0000E+00    2.512000E+07  0.00040  4.707E-03    0   0.8166   age090_m32            0.0000     5.8683E+02    12.6183   4.0000    99.5791
 34      0.0000     0.0000E+00    0.0000E+00    4.000000E+07  0.00040  3.714E-03    0   0.7827   age104_m32            0.0000     4.9058E+02     9.2193   4.0000   100.2565
 35      0.0000     0.0000E+00    0.0000E+00    5.500000E+07  0.00040  2.982E-03    0   0.7593   age110_m32            0.0000     4.8839E+02     8.7795   4.0000   100.3638
 36      0.0000     0.0000E+00    0.0000E+00    1.015200E+08  0.00040  2.188E-03    0   0.7143   age116_m32            0.0000     5.9798E+02     9.0538   3.9763   100.1378
 37      0.0000     0.0000E+00    0.0000E+00    1.609000E+08  0.00040  1.690E-03    0   0.6856   age120_m32            0.0000     7.1988E+02     9.1349   3.7332   102.4300
 38      0.0000     0.0000E+00    0.0000E+00    2.861200E+08  0.00040  1.152E-03    0   0.6509   age125_m32            0.0000     8.2428E+02     9.7357   3.4523   104.0450
 39      0.0000     0.0000E+00    0.0000E+00    5.088000E+08  0.00040  7.331E-04    0   0.6182   age130_m32            0.0000     8.5150E+02    10.2978   3.2556   104.8584
 40      0.0000     0.0000E+00    0.0000E+00    9.047900E+08  0.00040  3.960E-04    0   0.5890   age135_m32            0.0000     5.7976E+02     8.5062   2.7982   104.0252
 41      0.0000     0.0000E+00    0.0000E+00    1.278050E+09  0.00040  2.854E-04    0   0.5687   age138_m32            0.0000     5.2387E+02     7.8767   2.5557   105.9439
 42      0.0000     0.0000E+00    0.0000E+00    1.434000E+09  0.00040  2.531E-04    0   0.5632   age139_m32            0.0000     5.1394E+02     7.8256   2.4981   105.8727
 43      0.0000     0.0000E+00    0.0000E+00    2.500000E+09  0.00040  1.488E-04    0   0.5386   age150_m32            0.0000     4.1154E+02     7.1487   2.2418   104.2479
 44      0.0000     0.0000E+00    0.0000E+00    4.250000E+09  0.00040  9.082E-05    0   0.5199   age158_m32            0.0000     2.5206E+02     6.2246   2.1641   101.4888
 45      1.4936     4.2226E-01    4.2751E-01    6.250000E+09  0.00040  6.362E-05    0   0.5076   age166_m32            0.0000     1.7465E+02     6.3523   2.1573    98.6423
 46      0.5272     1.7930E-01    1.7977E-01    7.500000E+09  0.00040  5.289E-05    0   0.5027   age171_m32            0.0000     1.5725E+02     6.2084   2.1176    97.4723
 47      0.0000     0.0000E+00    0.0000E+00    1.000000E+10  0.00040  3.972E-05    0   0.4948   age181_m32            0.0000     1.4117E+02     5.9133   2.0436    96.1572
 48      0.0000     0.0000E+00    0.0000E+00    1.300000E+10  0.00040  3.283E-05    0   0.4870   age193_m32            0.0000     1.7119E+02     5.6806   1.9815    98.6603
 49      0.0000     0.0000E+00    0.0000E+00    1.500000E+10  0.00040  2.925E-05    0   0.4854   age201_m32            0.0000     1.9604E+02     5.6732   1.9541   100.1146
 50      0.0000     0.0000E+00    0.0000E+00    1.800000E+10  0.00040  2.469E-05    0   0.4819   age213_m32            0.0000     2.0376E+02     5.5992   1.9061   100.5769
 51      0.0000     0.0000E+00    0.0000E+00    1.000000E+06  0.00400  1.114E-02    0   1.0000   age020_m42            0.0000     2.1011E+03    35.2561   4.0000    91.2556
 52      0.0000     0.0000E+00    0.0000E+00    3.160000E+06  0.00400  4.073E-02    0   0.9999   age045_m42            0.0000     5.0123E+02    12.8609   4.0000    99.7057
 53      0.0000     0.0000E+00    0.0000E+00    5.010000E+06  0.00400  2.534E-02    0   0.9488   age055_m42            0.0000     1.0379E+03    22.3738   4.0000    97.1790
 54      0.0000     0.0000E+00    0.0000E+00    6.610000E+06  0.00400  2.583E-02    0   0.9220   age061_m42            0.0000     4.3799E+02     9.4769   4.0000    98.6197
 55      0.0000     0.0000E+00    0.0000E+00    8.710000E+06  0.00400  1.706E-02    0   0.8983   age067_m42            0.0000     3.9261E+02     9.2242   4.0000    95.7863
 56      0.0000     0.0000E+00    0.0000E+00    1.000000E+07  0.00400  1.271E-02    0   0.8862   age070_m42            0.0000     4.3176E+02    10.1788   4.0000    94.7089
 57      0.0000     0.0000E+00    0.0000E+00    1.445000E+07  0.00400  7.666E-03    0   0.8571   age078_m42            0.0000     7.1766E+02    14.2046   4.0000    95.4256
 58      0.0000     0.0000E+00    0.0000E+00    2.512000E+07  0.00400  5.070E-03    0   0.8174   age090_m42            0.0000     3.5998E+02    10.7001   4.0000    94.7223
 59      0.0000     0.0000E+00    0.0000E+00    4.000000E+07  0.00400  3.505E-03    0   0.7851   age104_m42            0.0000     2.9125E+02    10.4617   3.7931    95.3776
 60      0.0000     0.0000E+00    0.0000E+00    5.500000E+07  0.00400  3.059E-03    0   0.7629   age110_m42            0.0000     3.7428E+02     7.9983   3.7789    99.0107
 61      0.0000     0.0000E+00    0.0000E+00    1.015200E+08  0.00400  2.268E-03    0   0.7207   age116_m42            0.0000     6.3047E+02     8.2637   3.6209   103.4441
 62      0.0000     0.0000E+00    0.0000E+00    1.609000E+08  0.00400  1.720E-03    0   0.6930   age120_m42            0.0000     6.5050E+02     8.4511   3.4487   105.0996
 63      0.0000     0.0000E+00    0.0000E+00    2.861200E+08  0.00400  1.079E-03    0   0.6613   age125_m42            0.0000     6.4532E+02     8.6435   3.0672   105.4257
 64      0.0000     0.0000E+00    0.0000E+00    5.088000E+08  0.00400  6.261E-04    0   0.6313   age130_m42            0.0000     7.0322E+02     8.7976   2.8818   108.4186
 65      0.0000     0.0000E+00    0.0000E+00    9.047900E+08  0.00400  3.535E-04    0   0.6024   age135_m42            0.0000     4.8475E+02     7.2642   2.4848   109.1516
 66      0.0000     0.0000E+00    0.0000E+00    1.278050E+09  0.00400  2.677E-04    0   0.5837   age138_m42            0.0000     1.9406E+02     6.2499   1.7133   107.0125
 67      0.0000     0.0000E+00    0.0000E+00    1.434000E+09  0.00400  1.910E-04    0   0.5716   age139_m42            0.0000     2.5858E+02     6.2552   1.9010   107.8323
 68      0.0000     0.0000E+00    0.0000E+00    2.500000E+09  0.00400  9.818E-05    0   0.5463   age150_m42            0.0000     9.3683E+01     4.5641   1.6289   103.2423
 69      0.0000     0.0000E+00    0.0000E+00    4.250000E+09  0.00400  5.491E-05    0   0.5269   age158_m42            0.0000     4.6387E+01     3.6882   1.5137   100.5424
 70      0.0000     0.0000E+00    0.0000E+00    6.250000E+09  0.00400  3.857E-05    0   0.5151   age166_m42            0.0000     3.1060E+01     3.9200   1.3666    99.2423
 71      0.0015     8.2653E-04    8.4241E-04    7.500000E+09  0.00400  3.243E-05    0   0.5110   age171_m42            0.0000     2.7438E+01     4.2636   1.2712    98.6909
 72      0.0000     0.0000E+00    0.0000E+00    1.000000E+10  0.00400  2.424E-05    0   0.5028   age181_m42            0.0000     2.5618E+01     4.6978   1.1738    98.0491
 73      0.0164     1.5711E-02    1.5440E-02    1.300000E+10  0.00400  1.883E-05    0   0.4927   age193_m42            0.0000     2.5901E+01     5.0294   1.1236    97.7519
 74      0.0000     0.0000E+00    0.0000E+00    1.500000E+10  0.00400  1.685E-05    0   0.4919   age201_m42            0.0000     2.5102E+01     4.8897   1.1318    97.7654
 75      0.0000     0.0000E+00    0.0000E+00    1.800000E+10  0.00400  1.452E-05    0   0.4874   age213_m42            0.0000     2.4087E+01     4.6716   1.1529    98.0444
 76      0.0000     0.0000E+00    0.0000E+00    1.000000E+06  0.00800  1.286E-02    0   1.0000   age020_m52            0.0000     1.9659E+03    34.5745   4.0000    92.9094
 77      0.0000     0.0000E+00    0.0000E+00    3.160000E+06  0.00800  3.147E-02    0   0.9966   age045_m52            0.0000     1.8446E+03    32.7858   4.0000    94.3717
 78      0.0000     0.0000E+00    0.0000E+00    5.010000E+06  0.00800  2.664E-02    0   0.9443   age055_m52            0.0000     1.2454E+03    25.1008   4.0000    96.9474
 79      0.0000     0.0000E+00    0.0000E+00    6.610000E+06  0.00800  2.151E-02    0   0.9177   age061_m52            0.0000     2.7225E+02    12.5132   3.8747    93.0127
 80      0.0000     0.0000E+00    0.0000E+00    8.710000E+06  0.00800  1.628E-02    0   0.8948   age067_m52            0.0000     3.8897E+02     9.5816   4.0000    95.9770
 81      0.0000     0.0000E+00    0.0000E+00    1.000000E+07  0.00800  1.215E-02    0   0.8827   age070_m52            0.0000     6.1162E+02    12.1871   4.0000    97.5670
 82      0.0000     0.0000E+00    0.0000E+00    1.445000E+07  0.00800  8.739E-03    0   0.8552   age078_m52            0.0000     6.2810E+02    12.8785   4.0000    99.0150
 83      0.0000     0.0000E+00    0.0000E+00    2.512000E+07  0.00800  5.676E-03    0   0.8162   age090_m52            0.0000     4.4118E+02     8.7833   4.0000    98.8533
 84      0.0000     0.0000E+00    0.0000E+00    4.000000E+07  0.00800  3.939E-03    0   0.7841   age104_m52            0.0000     4.3065E+02     9.3561   4.0000    98.4464
 85      0.0000     0.0000E+00    0.0000E+00    5.500000E+07  0.00800  3.155E-03    0   0.7627   age110_m52            0.0000     4.6994E+02     8.8311   3.9593    99.7172
 86      0.0000     0.0000E+00    0.0000E+00    1.015200E+08  0.00800  2.206E-03    0   0.7226   age116_m52            0.0000     5.5456E+02     8.1225   3.7044   103.5845
 87      0.0000     0.0000E+00    0.0000E+00    1.609000E+08  0.00800  1.596E-03    0   0.6963   age120_m52            0.0000     5.9576E+02     8.1046   3.4560   105.2436
 88      0.0000     0.0000E+00    0.0000E+00    2.861200E+08  0.00800  1.002E-03    0   0.6665   age125_m52            0.0000     7.1861E+02     9.4956   3.0805   107.7482
 89      0.0000     0.0000E+00    0.0000E+00    5.088000E+08  0.00800  5.759E-04    0   0.6377   age130_m52            0.0000     7.1159E+02    10.3420   2.6762   112.0507
 90      0.0000     0.0000E+00    0.0000E+00    9.047900E+08  0.00800  2.972E-04    0   0.6086   age135_m52            0.0000     4.2515E+02     9.3230   2.0998   111.1080
 91      0.0000     0.0000E+00    0.0000E+00    1.278050E+09  0.00800  2.242E-04    0   0.5907   age138_m52            0.0000     1.6969E+02     7.0108   1.4982   109.8400
 92      0.0000     0.0000E+00    0.0000E+00    1.434000E+09  0.00800  1.645E-04    0   0.5787   age139_m52            0.0000     1.6370E+02     6.2568   1.6712   109.3056
 93      0.0000     0.0000E+00    0.0000E+00    2.500000E+09  0.00800  7.723E-05    0   0.5519   age150_m52            0.0000     6.3897E+01     5.1348   1.3378   105.6683
 94      0.2508     1.0867E-01    1.1531E-01    4.250000E+09  0.00800  4.151E-05    0   0.5320   age158_m52            0.0000     4.0519E+01     4.6296   1.2794   103.0565
 95      0.9920     5.9280E-01    6.1448E-01    6.250000E+09  0.00800  3.010E-05    0   0.5197   age166_m52            0.0000     2.9895E+01     5.1382   1.0614   101.6637
 96      0.0000     0.0000E+00    0.0000E+00    7.500000E+09  0.00800  2.467E-05    0   0.5139   age171_m52            0.0000     3.0321E+01     5.4148   1.0103   101.2827
 97      7.4677     7.2136E+00    7.2717E+00    1.000000E+10  0.00800  1.862E-05    0   0.5054   age181_m52            0.0000     3.7735E+01     6.3901   0.8508   100.9699
