###################################################################
## OUTPUT of StarlightChains_v04.for    [Cid@UFSC - 01/Apr/2007] ##
###################################################################

## Some input info
NGC6522_a_1.cxt                          [arq_obs]
Base.BC03.S                              [arq_base]
NGC6522_a_1.msk                          [arq_masks]
StCv04.C99.config                        [arq_config]
  150                                    [N_base]
    0                                    [N_YAV_components = # of components with extra extinction!]
    0                                    [i_FitPowerLaw (1/0 = Yes/No)]
-9.99                                    [alpha_PowerLaw]
CCM                                      [red_law_option]
 1.458241                                [q_norm = A(l_norm)/A(V)]

## (Re)Sampling Parameters
 3359.00                                 [l_ini (A)]
 6428.00                                 [l_fin (A)]
    1.00                                 [dl    (A)]     (OBS: dl_cushion =    50.00 A)

## Normalization info
 4020.00                                 [l_norm (A) - for base]
 4010.00                                 [llow_norm (A) - window for f_obs]
 4060.00                                 [lupp_norm (A) - window for f_obs]
8.861070E-15                             [fobs_norm (in input units)]

## S/N
 4730.00                                 [llow_SN (A) - window for S/N]
 4780.00                                 [lupp_SN (A) - window for S/N]
  58.057                                 [S/N in S/N window]
  38.566                                 [S/N in norm. window]
  50.435                                 [S/N_err in S/N window]
  33.502                                 [S/N_err in norm. window]
  1.0000                                 [fscale_chi2]

## etc...
  2147483607                             [idum_orig]
  3065                                   [NOl_eff]
  1655                                   [Nl_eff]
  1410    NSIGMA                         [Ntot_cliped & clip_method]
  4381090                                [Nglobal_steps]
   7                                     [N_chains]
  29                                     [NEX0s_base = N_base in EX0s-fits]
 0   0   1      235   2.0   7.152E+02    [Clip-Bug, RC-Crash & Burn-In warning-flags, n_censored_weights, wei_nsig_threshold & wei_limit]
   179    178.840    178.824      0.016  [idt_all, wdt_TotTime, wdt_UsrTime & wdt_SysTime (sec)]

## Synthesis Results - Best model ##

 2.10448E+00                             [chi2/Nl_eff]
     1.76406                             [adev (%)]

    99.50661                             [sum-of-x (%)]
 9.69523E-14                             [Flux_tot (units of input spectrum!)]
 2.64391E-09                             [Mini_tot (???)]
 1.32116E-09                             [Mcor_tot (???)]

  -8.35                                  [v0_min  (km/s)]
  66.94                                  [vd_min  (km/s)]
 1.7851                                  [AV_min  (mag)]
 0.0000                                  [YAV_min (mag)]

# j     x_j(%)      Mini_j(%)     Mcor_j(%)     age_j(yr)     Z_j      (L/M)_j    YAV?  Mstars   component_j        a/Fe...       SSP_chi2r SSP_adev(%)   SSP_AV   SSP_x(%)
  1      0.0000     0.0000E+00    0.0000E+00    1.000000E+06  0.00010  8.160E-03    0   1.0000   age020_m22            0.0000     1.6334E+03    33.8598   4.0000    75.0779
  2     16.0128     1.2400E-02    2.4814E-02    3.160000E+06  0.00010  4.759E-02    0   1.0000   age045_m22            0.0000     5.1259E+01     3.5026   3.1888    95.2515
  3      0.0000     0.0000E+00    0.0000E+00    5.010000E+06  0.00010  1.932E-02    0   0.9582   age055_m22            0.0000     3.6253E+02     9.7670   3.6689    80.8692
  4      0.0000     0.0000E+00    0.0000E+00    6.610000E+06  0.00010  9.973E-03    0   0.9297   age061_m22            0.0000     1.5019E+03    33.4873   4.0000    77.5359
  5      0.0000     0.0000E+00    0.0000E+00    8.710000E+06  0.00010  7.690E-03    0   0.9030   age067_m22            0.0000     1.4487E+03    33.0861   4.0000    78.0831
  6      0.0000     0.0000E+00    0.0000E+00    1.000000E+07  0.00010  6.375E-03    0   0.8902   age070_m22            0.0000     1.4321E+03    33.1702   4.0000    78.3049
  7      0.0000     0.0000E+00    0.0000E+00    1.445000E+07  0.00010  4.874E-03    0   0.8589   age078_m22            0.0000     1.0175E+03    28.1347   4.0000    82.0773
  8      0.0000     0.0000E+00    0.0000E+00    2.512000E+07  0.00010  4.103E-03    0   0.8174   age090_m22            0.0000     3.3408E+02    16.4460   4.0000    89.7051
  9      4.7684     4.8091E-02    7.5356E-02    4.000000E+07  0.00010  3.654E-03    0   0.7830   age104_m22            0.0000     1.5058E+02     8.0888   4.0000    94.3274
 10      4.5372     5.4059E-02    8.2186E-02    5.500000E+07  0.00010  3.093E-03    0   0.7597   age110_m22            0.0000     1.5798E+02     5.7094   4.0000    95.8048
 11      9.6555     1.4637E-01    2.0908E-01    1.015200E+08  0.00010  2.431E-03    0   0.7138   age116_m22            0.0000     2.5148E+02     5.7974   3.6583    98.8237
 12      0.0000     0.0000E+00    0.0000E+00    1.609000E+08  0.00010  1.319E-03    0   0.6775   age120_m22            0.0000     2.6723E+02     6.2941   3.1367   101.5688
 13      0.0000     0.0000E+00    0.0000E+00    2.861200E+08  0.00010  1.075E-03    0   0.6412   age125_m22            0.0000     7.5390E+02    11.3662   2.9837   107.3261
 14      0.0000     0.0000E+00    0.0000E+00    5.088000E+08  0.00010  7.183E-04    0   0.6083   age130_m22            0.0000     9.3223E+02    13.2914   2.6621   110.0796
 15      0.0000     0.0000E+00    0.0000E+00    9.047900E+08  0.00010  4.524E-04    0   0.5785   age135_m22            0.0000     9.4552E+02    13.7037   2.4419   111.4860
 16      0.0000     0.0000E+00    0.0000E+00    1.278050E+09  0.00010  3.018E-04    0   0.5588   age138_m22            0.0000     4.5111E+02     9.5661   2.0842   107.8028
 17      0.0000     0.0000E+00    0.0000E+00    1.434000E+09  0.00010  2.691E-04    0   0.5532   age139_m22            0.0000     3.6636E+02     8.7250   1.9609   106.8806
 18      0.0000     0.0000E+00    0.0000E+00    2.500000E+09  0.00010  1.582E-04    0   0.5296   age150_m22            0.0000     3.1298E+02     8.0117   1.8883   107.0205
 19      0.0000     0.0000E+00    0.0000E+00    4.250000E+09  0.00010  1.007E-04    0   0.5110   age158_m22            0.0000     1.6553E+02     5.8497   1.8161   104.5910
 20      0.0000     0.0000E+00    0.0000E+00    6.250000E+09  0.00010  6.869E-05    0   0.4985   age166_m22            0.0000     6.6021E+01     3.8819   1.8353   101.1714
 21      0.0000     0.0000E+00    0.0000E+00    7.500000E+09  0.00010  5.873E-05    0   0.4931   age171_m22            0.0000     5.4259E+01     3.5487   1.8412   100.4392
 22      0.0000     0.0000E+00    0.0000E+00    1.000000E+10  0.00010  4.481E-05    0   0.4854   age181_m22            0.0000     5.1741E+01     3.4930   1.8019   100.1444
 23      0.0000     0.0000E+00    0.0000E+00    1.300000E+10  0.00010  3.489E-05    0   0.4791   age193_m22            0.0000     4.4896E+01     3.3235   1.7486    99.6509
 24      0.0000     0.0000E+00    0.0000E+00    1.500000E+10  0.00010  3.035E-05    0   0.4766   age201_m22            0.0000     4.0094E+01     3.1833   1.7142    99.4619
 25     14.9774     2.1990E+01    2.0837E+01    1.800000E+10  0.00010  2.510E-05    0   0.4735   age213_m22            0.0000     2.9809E+01     2.8790   1.6576    98.8142
 26      0.0000     0.0000E+00    0.0000E+00    1.000000E+06  0.00040  8.458E-03    0   1.0000   age020_m32            0.0000     1.6255E+03    34.2415   4.0000    75.5929
 27      0.0000     0.0000E+00    0.0000E+00    3.160000E+06  0.00040  3.973E-02    0   1.0000   age045_m32            0.0000     2.9134E+02    14.2106   4.0000    89.5244
 28      0.0000     0.0000E+00    0.0000E+00    5.010000E+06  0.00040  1.935E-02    0   0.9532   age055_m32            0.0000     7.6014E+02    22.4218   4.0000    82.5403
 29      0.0000     0.0000E+00    0.0000E+00    6.610000E+06  0.00040  1.204E-02    0   0.9243   age061_m32            0.0000     1.1835E+03    29.7562   4.0000    80.1535
 30      0.0000     0.0000E+00    0.0000E+00    8.710000E+06  0.00040  9.433E-03    0   0.9001   age067_m32            0.0000     1.0774E+03    28.7205   4.0000    81.2850
 31      0.0000     0.0000E+00    0.0000E+00    1.000000E+07  0.00040  8.053E-03    0   0.8877   age070_m32            0.0000     1.0094E+03    27.7508   4.0000    81.8904
 32      0.0000     0.0000E+00    0.0000E+00    1.445000E+07  0.00040  7.027E-03    0   0.8578   age078_m32            0.0000     3.2133E+02    14.0288   4.0000    87.8009
 33      0.0000     0.0000E+00    0.0000E+00    2.512000E+07  0.00040  4.707E-03    0   0.8166   age090_m32            0.0000     1.1338E+02     5.8121   4.0000    91.4300
 34      0.0000     0.0000E+00    0.0000E+00    4.000000E+07  0.00040  3.714E-03    0   0.7827   age104_m32            0.0000     1.0828E+02     4.1996   3.8747    94.6699
 35      0.0000     0.0000E+00    0.0000E+00    5.500000E+07  0.00040  2.982E-03    0   0.7593   age110_m32            0.0000     1.3847E+02     4.3987   3.7753    96.1514
 36      0.0000     0.0000E+00    0.0000E+00    1.015200E+08  0.00040  2.188E-03    0   0.7143   age116_m32            0.0000     3.8625E+02     7.4150   3.3482   101.9620
 37      0.0000     0.0000E+00    0.0000E+00    1.609000E+08  0.00040  1.690E-03    0   0.6856   age120_m32            0.0000     6.0208E+02     9.7111   3.0458   105.5008
 38      0.0000     0.0000E+00    0.0000E+00    2.861200E+08  0.00040  1.152E-03    0   0.6509   age125_m32            0.0000     7.9819E+02    12.0515   2.7073   108.6901
 39      0.0000     0.0000E+00    0.0000E+00    5.088000E+08  0.00040  7.331E-04    0   0.6182   age130_m32            0.0000     8.7122E+02    12.9390   2.4953   110.0535
 40      0.0000     0.0000E+00    0.0000E+00    9.047900E+08  0.00040  3.960E-04    0   0.5890   age135_m32            0.0000     4.6472E+02     9.7596   2.1523   107.5878
 41      0.0000     0.0000E+00    0.0000E+00    1.278050E+09  0.00040  2.854E-04    0   0.5687   age138_m32            0.0000     3.7033E+02     8.6379   1.9253   108.4046
 42      0.0000     0.0000E+00    0.0000E+00    1.434000E+09  0.00040  2.531E-04    0   0.5632   age139_m32            0.0000     3.5791E+02     8.5706   1.8691   108.2584
 43      4.0883     1.0125E+00    1.0913E+00    2.500000E+09  0.00040  1.488E-04    0   0.5386   age150_m32            0.0000     2.3834E+02     7.1992   1.6608   105.9404
 44     12.9210     5.2429E+00    5.4549E+00    4.250000E+09  0.00040  9.082E-05    0   0.5199   age158_m32            0.0000     6.7141E+01     3.9996   1.6805   101.6656
 45      1.1591     6.7140E-01    6.8201E-01    6.250000E+09  0.00040  6.362E-05    0   0.5076   age166_m32            0.0000     1.3431E+01     2.3495   1.7311    97.6543
 46      0.0407     2.8388E-02    2.8558E-02    7.500000E+09  0.00040  5.289E-05    0   0.5027   age171_m32            0.0000     1.2740E+01     2.3105   1.7060    96.4479
 47      0.0000     0.0000E+00    0.0000E+00    1.000000E+10  0.00040  3.972E-05    0   0.4948   age181_m32            0.0000     1.4871E+01     2.3550   1.6467    95.2271
 48      0.0156     1.7564E-02    1.7118E-02    1.300000E+10  0.00040  3.283E-05    0   0.4870   age193_m32            0.0000     1.8379E+01     2.6196   1.5557    98.3113
 49      0.0000     0.0000E+00    0.0000E+00    1.500000E+10  0.00040  2.925E-05    0   0.4854   age201_m32            0.0000     3.2800E+01     3.1358   1.5086   100.1192
 50      0.0000     0.0000E+00    0.0000E+00    1.800000E+10  0.00040  2.469E-05    0   0.4819   age213_m32            0.0000     4.0659E+01     3.3747   1.4561   100.7773
 51      0.0000     0.0000E+00    0.0000E+00    1.000000E+06  0.00400  1.114E-02    0   1.0000   age020_m42            0.0000     1.5052E+03    32.5037   4.0000    76.3622
 52      0.9106     8.2386E-04    1.6485E-03    3.160000E+06  0.00400  4.073E-02    0   0.9999   age045_m42            0.0000     1.0249E+02     5.9178   4.0000    92.0211
 53      0.0000     0.0000E+00    0.0000E+00    5.010000E+06  0.00400  2.534E-02    0   0.9488   age055_m42            0.0000     4.9350E+02    17.7770   4.0000    85.6037
 54      0.0047     6.6990E-06    1.2360E-05    6.610000E+06  0.00400  2.583E-02    0   0.9220   age061_m42            0.0000     8.2381E+01     4.0529   3.9799    92.1771
 55      0.0000     0.0000E+00    0.0000E+00    8.710000E+06  0.00400  1.706E-02    0   0.8983   age067_m42            0.0000     1.0229E+02     5.3176   3.8717    89.6621
 56      0.0000     0.0000E+00    0.0000E+00    1.000000E+07  0.00400  1.271E-02    0   0.8862   age070_m42            0.0000     1.5153E+02     6.4769   3.8958    87.7807
 57      0.0000     0.0000E+00    0.0000E+00    1.445000E+07  0.00400  7.666E-03    0   0.8571   age078_m42            0.0000     3.1168E+02     9.0369   4.0000    85.5457
 58      0.0000     0.0000E+00    0.0000E+00    2.512000E+07  0.00400  5.070E-03    0   0.8174   age090_m42            0.0000     1.2772E+02     5.7213   3.7428    89.7789
 59      0.0000     0.0000E+00    0.0000E+00    4.000000E+07  0.00400  3.505E-03    0   0.7851   age104_m42            0.0000     7.6836E+01     3.9215   3.3687    93.5516
 60      0.0000     0.0000E+00    0.0000E+00    5.500000E+07  0.00400  3.059E-03    0   0.7629   age110_m42            0.0000     1.2851E+02     3.6955   3.2768    99.4020
 61      0.0000     0.0000E+00    0.0000E+00    1.015200E+08  0.00400  2.268E-03    0   0.7207   age116_m42            0.0000     5.1428E+02     8.7312   2.9763   106.5508
 62      0.0000     0.0000E+00    0.0000E+00    1.609000E+08  0.00400  1.720E-03    0   0.6930   age120_m42            0.0000     5.7335E+02     9.4904   2.7937   108.7053
 63      0.0267     9.1109E-04    1.2057E-03    2.861200E+08  0.00400  1.079E-03    0   0.6613   age125_m42            0.0000     5.7655E+02    10.1762   2.4131   109.4775
 64      0.0000     0.0000E+00    0.0000E+00    5.088000E+08  0.00400  6.261E-04    0   0.6313   age130_m42            0.0000     6.7731E+02    11.4172   2.1751   112.7132
 65      0.0000     0.0000E+00    0.0000E+00    9.047900E+08  0.00400  3.535E-04    0   0.6024   age135_m42            0.0000     3.8894E+02     8.8560   1.8722   112.0109
 66      0.0000     0.0000E+00    0.0000E+00    1.278050E+09  0.00400  2.677E-04    0   0.5837   age138_m42            0.0000     1.3321E+02     7.0438   1.2921   109.3349
 67      0.0000     0.0000E+00    0.0000E+00    1.434000E+09  0.00400  1.910E-04    0   0.5716   age139_m42            0.0000     1.7322E+02     7.2360   1.4279   110.3306
 68      0.0000     0.0000E+00    0.0000E+00    2.500000E+09  0.00400  9.818E-05    0   0.5463   age150_m42            0.0000     5.8430E+01     5.5773   1.2802   104.5845
 69      0.0000     0.0000E+00    0.0000E+00    4.250000E+09  0.00400  5.491E-05    0   0.5269   age158_m42            0.0000     6.3821E+01     5.0664   1.2136   101.3811
 70      0.0000     0.0000E+00    0.0000E+00    6.250000E+09  0.00400  3.857E-05    0   0.5151   age166_m42            0.0000     9.2743E+01     5.5713   1.1032   100.1206
 71      1.8975     2.1563E+00    2.2050E+00    7.500000E+09  0.00400  3.243E-05    0   0.5110   age171_m42            0.0000     1.1566E+02     5.9587   1.0287    99.6523
 72      1.3680     2.0798E+00    2.0926E+00    1.000000E+10  0.00400  2.424E-05    0   0.5028   age181_m42            0.0000     1.5443E+02     6.4491   0.9559    99.0918
 73      0.0000     0.0000E+00    0.0000E+00    1.300000E+10  0.00400  1.883E-05    0   0.4927   age193_m42            0.0000     1.9212E+02     6.7555   0.9250    98.8030
 74      1.7668     3.8641E+00    3.8037E+00    1.500000E+10  0.00400  1.685E-05    0   0.4919   age201_m42            0.0000     1.8157E+02     6.6177   0.9296    98.7994
 75      0.0000     0.0000E+00    0.0000E+00    1.800000E+10  0.00400  1.452E-05    0   0.4874   age213_m42            0.0000     1.6382E+02     6.3822   0.9440    99.0406
 76      0.0000     0.0000E+00    0.0000E+00    1.000000E+06  0.00800  1.286E-02    0   1.0000   age020_m52            0.0000     1.3500E+03    31.4770   4.0000    78.3759
 77      0.0000     0.0000E+00    0.0000E+00    3.160000E+06  0.00800  3.147E-02    0   0.9966   age045_m52            0.0000     1.1934E+03    29.5921   4.0000    80.0345
 78      0.0000     0.0000E+00    0.0000E+00    5.010000E+06  0.00800  2.664E-02    0   0.9443   age055_m52            0.0000     6.6234E+02    20.8311   4.0000    84.5763
 79      0.0000     0.0000E+00    0.0000E+00    6.610000E+06  0.00800  2.151E-02    0   0.9177   age061_m52            0.0000     1.2914E+02     5.7393   3.4752    90.1872
 80      0.0000     0.0000E+00    0.0000E+00    8.710000E+06  0.00800  1.628E-02    0   0.8948   age067_m52            0.0000     1.1780E+02     5.4337   3.8292    90.2859
 81      0.0000     0.0000E+00    0.0000E+00    1.000000E+07  0.00800  1.215E-02    0   0.8827   age070_m52            0.0000     1.8018E+02     6.2955   4.0000    88.8825
 82      0.0000     0.0000E+00    0.0000E+00    1.445000E+07  0.00800  8.739E-03    0   0.8552   age078_m52            0.0000     1.5244E+02     6.3967   4.0000    90.4102
 83      0.0000     0.0000E+00    0.0000E+00    2.512000E+07  0.00800  5.676E-03    0   0.8162   age090_m52            0.0000     1.1586E+02     4.1531   3.7250    94.7206
 84      0.0000     0.0000E+00    0.0000E+00    4.000000E+07  0.00800  3.939E-03    0   0.7841   age104_m52            0.0000     1.5180E+02     4.0859   3.4907    97.8961
 85      0.0000     0.0000E+00    0.0000E+00    5.500000E+07  0.00800  3.155E-03    0   0.7627   age110_m52            0.0000     2.1704E+02     5.1023   3.3961   100.3393
 86      0.0000     0.0000E+00    0.0000E+00    1.015200E+08  0.00800  2.206E-03    0   0.7226   age116_m52            0.0000     3.8976E+02     7.4577   3.0910   105.6923
 87      0.0000     0.0000E+00    0.0000E+00    1.609000E+08  0.00800  1.596E-03    0   0.6963   age120_m52            0.0000     4.7655E+02     8.6005   2.8197   108.0909
 88      0.0000     0.0000E+00    0.0000E+00    2.861200E+08  0.00800  1.002E-03    0   0.6665   age125_m52            0.0000     7.2577E+02    11.7296   2.3807   112.7774
 89      0.0000     0.0000E+00    0.0000E+00    5.088000E+08  0.00800  5.759E-04    0   0.6377   age130_m52            0.0000     7.6642E+02    12.9363   1.9659   117.8789
 90      0.0000     0.0000E+00    0.0000E+00    9.047900E+08  0.00800  2.972E-04    0   0.6086   age135_m52            0.0000     3.9351E+02    10.6652   1.5388   115.6624
 91      0.0000     0.0000E+00    0.0000E+00    1.278050E+09  0.00800  2.242E-04    0   0.5907   age138_m52            0.0000     1.5282E+02     8.0788   1.0995   112.8892
 92      0.0000     0.0000E+00    0.0000E+00    1.434000E+09  0.00800  1.645E-04    0   0.5787   age139_m52            0.0000     1.2779E+02     7.3640   1.2689   111.9427
 93      0.0000     0.0000E+00    0.0000E+00    2.500000E+09  0.00800  7.723E-05    0   0.5519   age150_m52            0.0000     1.0900E+02     6.8332   1.0231   107.5029
 94      0.6081     5.3983E-01    5.7472E-01    4.250000E+09  0.00800  4.151E-05    0   0.5320   age158_m52            0.0000     1.1674E+02     6.6005   0.9883   104.5244
 95      0.0000     0.0000E+00    0.0000E+00    6.250000E+09  0.00800  3.010E-05    0   0.5197   age166_m52            0.0000     1.8036E+02     7.3590   0.8093   103.2763
 96      1.6226     2.4238E+00    2.4927E+00    7.500000E+09  0.00800  2.467E-05    0   0.5139   age171_m52            0.0000     2.0048E+02     7.6087   0.7687   102.9395
 97     10.2060     2.0199E+01    2.0430E+01    1.000000E+10  0.00800  1.862E-05    0   0.5054   age181_m52            0.0000     2.6303E+02     8.4279   0.6335   102.8793
