###################################################################
## OUTPUT of StarlightChains_v04.for    [Cid@UFSC - 01/Apr/2007] ##
###################################################################

## Some input info
NGC6528_b_1.cxt                          [arq_obs]
Base.BC03.S                              [arq_base]
NGC6528_b_1.msk                          [arq_masks]
StCv04.C99.config                        [arq_config]
  150                                    [N_base]
    0                                    [N_YAV_components = # of components with extra extinction!]
    0                                    [i_FitPowerLaw (1/0 = Yes/No)]
-9.99                                    [alpha_PowerLaw]
CCM                                      [red_law_option]
 1.458241                                [q_norm = A(l_norm)/A(V)]

## (Re)Sampling Parameters
 3359.00                                 [l_ini (A)]
 6428.00                                 [l_fin (A)]
    1.00                                 [dl    (A)]     (OBS: dl_cushion =    50.00 A)

## Normalization info
 4020.00                                 [l_norm (A) - for base]
 4010.00                                 [llow_norm (A) - window for f_obs]
 4060.00                                 [lupp_norm (A) - window for f_obs]
2.920007E-15                             [fobs_norm (in input units)]

## S/N
 4730.00                                 [llow_SN (A) - window for S/N]
 4780.00                                 [lupp_SN (A) - window for S/N]
  27.543                                 [S/N in S/N window]
  15.038                                 [S/N in norm. window]
 201.971                                 [S/N_err in S/N window]
 110.275                                 [S/N_err in norm. window]
  1.0000                                 [fscale_chi2]

## etc...
  2147483604                             [idum_orig]
  3066                                   [NOl_eff]
   821                                   [Nl_eff]
  2245    NSIGMA                         [Ntot_cliped & clip_method]
  5409250                                [Nglobal_steps]
   7                                     [N_chains]
  29                                     [NEX0s_base = N_base in EX0s-fits]
 0   0   1      129   2.0   2.623E+02    [Clip-Bug, RC-Crash & Burn-In warning-flags, n_censored_weights, wei_nsig_threshold & wei_limit]
   210    209.607    209.603      0.004  [idt_all, wdt_TotTime, wdt_UsrTime & wdt_SysTime (sec)]

## Synthesis Results - Best model ##

 2.41813E+00                             [chi2/Nl_eff]
     1.57911                             [adev (%)]

    96.38029                             [sum-of-x (%)]
 2.24616E-14                             [Flux_tot (units of input spectrum!)]
 1.98089E-09                             [Mini_tot (???)]
 9.86593E-10                             [Mcor_tot (???)]

 -32.12                                  [v0_min  (km/s)]
  78.11                                  [vd_min  (km/s)]
 1.5465                                  [AV_min  (mag)]
 0.0000                                  [YAV_min (mag)]

# j     x_j(%)      Mini_j(%)     Mcor_j(%)     age_j(yr)     Z_j      (L/M)_j    YAV?  Mstars   component_j        a/Fe...       SSP_chi2r SSP_adev(%)   SSP_AV   SSP_x(%)
  1      0.0000     0.0000E+00    0.0000E+00    1.000000E+06  0.00010  8.160E-03    0   1.0000   age020_m22            0.0000     7.3299E+03    61.6514   4.0000   117.7028
  2      5.4007     1.3351E-03    2.6807E-03    3.160000E+06  0.00010  4.759E-02    0   1.0000   age045_m22            0.0000     3.5654E+02    11.7556   3.7702    94.9012
  3      9.8195     5.9797E-03    1.1504E-02    5.010000E+06  0.00010  1.932E-02    0   0.9582   age055_m22            0.0000     6.2997E+02    19.1483   3.9128    85.0429
  4      0.0000     0.0000E+00    0.0000E+00    6.610000E+06  0.00010  9.973E-03    0   0.9297   age061_m22            0.0000     7.0109E+03    60.4835   4.0000   120.9400
  5      0.0000     0.0000E+00    0.0000E+00    8.710000E+06  0.00010  7.690E-03    0   0.9030   age067_m22            0.0000     6.9431E+03    60.0321   4.0000   121.4877
  6      0.0177     3.2753E-05    5.8541E-05    1.000000E+07  0.00010  6.375E-03    0   0.8902   age070_m22            0.0000     7.0435E+03    60.0299   4.0000   121.8942
  7      0.0000     0.0000E+00    0.0000E+00    1.445000E+07  0.00010  4.874E-03    0   0.8589   age078_m22            0.0000     5.7014E+03    54.5635   4.0000   123.5952
  8      0.0000     0.0000E+00    0.0000E+00    2.512000E+07  0.00010  4.103E-03    0   0.8174   age090_m22            0.0000     3.2830E+03    41.7556   4.0000   124.2825
  9      0.0000     0.0000E+00    0.0000E+00    4.000000E+07  0.00010  3.654E-03    0   0.7830   age104_m22            0.0000     2.0843E+03    31.7493   4.0000   122.5617
 10      0.0000     0.0000E+00    0.0000E+00    5.500000E+07  0.00010  3.093E-03    0   0.7597   age110_m22            0.0000     1.7697E+03    28.1564   4.0000   121.4226
 11      0.0000     0.0000E+00    0.0000E+00    1.015200E+08  0.00010  2.431E-03    0   0.7138   age116_m22            0.0000     9.0089E+02    18.8214   4.0000   112.9577
 12      0.0000     0.0000E+00    0.0000E+00    1.609000E+08  0.00010  1.319E-03    0   0.6775   age120_m22            0.0000     4.4613E+02    13.2938   3.9785    98.2093
 13      0.0000     0.0000E+00    0.0000E+00    2.861200E+08  0.00010  1.075E-03    0   0.6412   age125_m22            0.0000     6.3289E+02    16.4893   4.0000   104.5070
 14      0.0000     0.0000E+00    0.0000E+00    5.088000E+08  0.00010  7.183E-04    0   0.6083   age130_m22            0.0000     6.3792E+02    17.2616   3.9474    99.6328
 15      0.0000     0.0000E+00    0.0000E+00    9.047900E+08  0.00010  4.524E-04    0   0.5785   age135_m22            0.0000     6.3511E+02    17.2865   3.7465   100.8073
 16      0.0000     0.0000E+00    0.0000E+00    1.278050E+09  0.00010  3.018E-04    0   0.5588   age138_m22            0.0000     4.3943E+02    13.8840   3.1533   100.7898
 17      0.0000     0.0000E+00    0.0000E+00    1.434000E+09  0.00010  2.691E-04    0   0.5532   age139_m22            0.0000     4.0255E+02    13.1982   2.9878   100.5132
 18      0.0000     0.0000E+00    0.0000E+00    2.500000E+09  0.00010  1.582E-04    0   0.5296   age150_m22            0.0000     3.9911E+02    13.0634   2.8485   101.9265
 19      0.0000     0.0000E+00    0.0000E+00    4.250000E+09  0.00010  1.007E-04    0   0.5110   age158_m22            0.0000     3.3455E+02    11.4649   2.6748   100.9151
 20      0.0000     0.0000E+00    0.0000E+00    6.250000E+09  0.00010  6.869E-05    0   0.4985   age166_m22            0.0000     2.8565E+02    10.0098   2.5949    98.7598
 21      0.0000     0.0000E+00    0.0000E+00    7.500000E+09  0.00010  5.873E-05    0   0.4931   age171_m22            0.0000     2.8811E+02     9.9787   2.5712    98.5021
 22      0.0541     1.4199E-02    1.3838E-02    1.000000E+10  0.00010  4.481E-05    0   0.4854   age181_m22            0.0000     2.8206E+02     9.8662   2.5337    98.1294
 23      0.0000     0.0000E+00    0.0000E+00    1.300000E+10  0.00010  3.489E-05    0   0.4791   age193_m22            0.0000     2.7005E+02     9.6001   2.4789    97.5538
 24      0.0000     0.0000E+00    0.0000E+00    1.500000E+10  0.00010  3.035E-05    0   0.4766   age201_m22            0.0000     2.6376E+02     9.4578   2.4383    97.4275
 25      0.0000     0.0000E+00    0.0000E+00    1.800000E+10  0.00010  2.510E-05    0   0.4735   age213_m22            0.0000     2.5122E+02     9.1549   2.3651    96.9851
 26      0.0000     0.0000E+00    0.0000E+00    1.000000E+06  0.00040  8.458E-03    0   1.0000   age020_m32            0.0000     7.4371E+03    61.7850   4.0000   118.7001
 27      0.0000     0.0000E+00    0.0000E+00    3.160000E+06  0.00040  3.973E-02    0   1.0000   age045_m32            0.0000     2.7498E+03    39.1019   4.0000   121.4757
 28      0.1914     1.1637E-04    2.2271E-04    5.010000E+06  0.00040  1.935E-02    0   0.9532   age055_m32            0.0000     3.8541E+03    47.8160   4.0000   118.5348
 29      0.0000     0.0000E+00    0.0000E+00    6.610000E+06  0.00040  1.204E-02    0   0.9243   age061_m32            0.0000     5.9384E+03    56.4292   4.0000   121.9549
 30      0.0000     0.0000E+00    0.0000E+00    8.710000E+06  0.00040  9.433E-03    0   0.9001   age067_m32            0.0000     5.7299E+03    55.2905   4.0000   122.8421
 31      0.0000     0.0000E+00    0.0000E+00    1.000000E+07  0.00040  8.053E-03    0   0.8877   age070_m32            0.0000     5.4770E+03    54.2185   4.0000   122.9107
 32      0.0000     0.0000E+00    0.0000E+00    1.445000E+07  0.00040  7.027E-03    0   0.8578   age078_m32            0.0000     2.4815E+03    38.6400   4.0000   118.1651
 33      0.0000     0.0000E+00    0.0000E+00    2.512000E+07  0.00040  4.707E-03    0   0.8166   age090_m32            0.0000     1.4213E+03    29.2459   4.0000   114.4287
 34      0.2848     9.0224E-04    1.4179E-03    4.000000E+07  0.00040  3.714E-03    0   0.7827   age104_m32            0.0000     9.7216E+02    22.5362   4.0000   112.1056
 35      0.0000     0.0000E+00    0.0000E+00    5.500000E+07  0.00040  2.982E-03    0   0.7593   age110_m32            0.0000     8.8222E+02    20.5249   4.0000   111.5141
 36      0.0000     0.0000E+00    0.0000E+00    1.015200E+08  0.00040  2.188E-03    0   0.7143   age116_m32            0.0000     6.4006E+02    15.5398   4.0000   107.4450
 37      0.0000     0.0000E+00    0.0000E+00    1.609000E+08  0.00040  1.690E-03    0   0.6856   age120_m32            0.0000     5.7006E+02    15.9642   4.0000   102.6273
 38      0.0000     0.0000E+00    0.0000E+00    2.861200E+08  0.00040  1.152E-03    0   0.6509   age125_m32            0.0000     5.9819E+02    16.6297   3.9128    99.6414
 39      0.0000     0.0000E+00    0.0000E+00    5.088000E+08  0.00040  7.331E-04    0   0.6182   age130_m32            0.0000     6.0981E+02    16.8420   3.7679    99.7873
 40      0.0000     0.0000E+00    0.0000E+00    9.047900E+08  0.00040  3.960E-04    0   0.5890   age135_m32            0.0000     4.4258E+02    13.9583   3.2728    99.4662
 41      0.0000     0.0000E+00    0.0000E+00    1.278050E+09  0.00040  2.854E-04    0   0.5687   age138_m32            0.0000     4.1722E+02    13.4647   2.9320   102.5218
 42      0.0000     0.0000E+00    0.0000E+00    1.434000E+09  0.00040  2.531E-04    0   0.5632   age139_m32            0.0000     4.0998E+02    13.3931   2.8676   102.5593
 43      0.0000     0.0000E+00    0.0000E+00    2.500000E+09  0.00040  1.488E-04    0   0.5386   age150_m32            0.0000     3.4710E+02    12.2591   2.6082   100.9667
 44      0.9520     1.2332E-01    1.2873E-01    4.250000E+09  0.00040  9.082E-05    0   0.5199   age158_m32            0.0000     2.5900E+02     9.6825   2.4744    98.6291
 45      6.5127     1.2044E+00    1.2274E+00    6.250000E+09  0.00040  6.362E-05    0   0.5076   age166_m32            0.0000     2.2835E+02     8.4695   2.3917    96.3324
 46      5.9601     1.3258E+00    1.3381E+00    7.500000E+09  0.00040  5.289E-05    0   0.5027   age171_m32            0.0000     2.1521E+02     8.2038   2.3547    95.1213
 47      0.1397     4.1386E-02    4.1115E-02    1.000000E+10  0.00040  3.972E-05    0   0.4948   age181_m32            0.0000     1.9931E+02     7.8922   2.2971    93.6948
 48      0.0000     0.0000E+00    0.0000E+00    1.300000E+10  0.00040  3.283E-05    0   0.4870   age193_m32            0.0000     2.0501E+02     8.1201   2.2706    95.9938
 49      0.0000     0.0000E+00    0.0000E+00    1.500000E+10  0.00040  2.925E-05    0   0.4854   age201_m32            0.0000     2.1397E+02     8.5121   2.2624    97.3163
 50      0.0190     9.0737E-03    8.7793E-03    1.800000E+10  0.00040  2.469E-05    0   0.4819   age213_m32            0.0000     2.1338E+02     8.6258   2.2263    97.7472
 51      0.0000     0.0000E+00    0.0000E+00    1.000000E+06  0.00400  1.114E-02    0   1.0000   age020_m42            0.0000     6.8861E+03    59.9173   4.0000   118.5625
 52      0.0000     0.0000E+00    0.0000E+00    3.160000E+06  0.00400  4.073E-02    0   0.9999   age045_m42            0.0000     1.6037E+03    29.5174   4.0000   116.2253
 53      0.0000     0.0000E+00    0.0000E+00    5.010000E+06  0.00400  2.534E-02    0   0.9488   age055_m42            0.0000     3.2344E+03    43.0907   4.0000   119.2325
 54      0.0000     0.0000E+00    0.0000E+00    6.610000E+06  0.00400  2.583E-02    0   0.9220   age061_m42            0.0000     1.0778E+03    24.2892   4.0000   111.4072
 55      0.3767     2.5981E-04    4.6860E-04    8.710000E+06  0.00400  1.706E-02    0   0.8983   age067_m42            0.0000     6.6140E+02    21.0110   4.0000   102.4531
 56      1.4267     1.3206E-03    2.3498E-03    1.000000E+07  0.00400  1.271E-02    0   0.8862   age070_m42            0.0000     6.5953E+02    21.6782   4.0000    99.7550
 57      0.0000     0.0000E+00    0.0000E+00    1.445000E+07  0.00400  7.666E-03    0   0.8571   age078_m42            0.0000     1.5510E+03    32.9799   4.0000   109.0306
 58      0.0000     0.0000E+00    0.0000E+00    2.512000E+07  0.00400  5.070E-03    0   0.8174   age090_m42            0.0000     5.0758E+02    18.3619   4.0000    97.1251
 59      0.0000     0.0000E+00    0.0000E+00    4.000000E+07  0.00400  3.505E-03    0   0.7851   age104_m42            0.0000     3.6545E+02    14.0634   3.8588    94.4585
 60      0.0000     0.0000E+00    0.0000E+00    5.500000E+07  0.00400  3.059E-03    0   0.7629   age110_m42            0.0000     3.4927E+02    11.8529   4.0000    97.1440
 61      0.0000     0.0000E+00    0.0000E+00    1.015200E+08  0.00400  2.268E-03    0   0.7207   age116_m42            0.0000     4.8041E+02    14.7383   4.0000   100.1873
 62      0.0000     0.0000E+00    0.0000E+00    1.609000E+08  0.00400  1.720E-03    0   0.6930   age120_m42            0.0000     4.9074E+02    14.8957   3.8972   100.6159
 63      0.0000     0.0000E+00    0.0000E+00    2.861200E+08  0.00400  1.079E-03    0   0.6613   age125_m42            0.0000     4.6001E+02    14.4321   3.5336   101.1640
 64      0.0000     0.0000E+00    0.0000E+00    5.088000E+08  0.00400  6.261E-04    0   0.6313   age130_m42            0.0000     5.0065E+02    15.2876   3.3400   103.9758
 65      0.0000     0.0000E+00    0.0000E+00    9.047900E+08  0.00400  3.535E-04    0   0.6024   age135_m42            0.0000     3.6669E+02    12.7225   2.9188   104.9134
 66      0.0383     1.6848E-03    1.9745E-03    1.278050E+09  0.00400  2.677E-04    0   0.5837   age138_m42            0.0000     1.4594E+02     8.0319   2.2542   101.9084
 67      0.0000     0.0000E+00    0.0000E+00    1.434000E+09  0.00400  1.910E-04    0   0.5716   age139_m42            0.0000     1.9372E+02     9.0950   2.4264   102.7215
 68      0.0000     0.0000E+00    0.0000E+00    2.500000E+09  0.00400  9.818E-05    0   0.5463   age150_m42            0.0000     8.7394E+01     5.5831   2.1559    98.1209
 69      0.0546     1.1692E-02    1.2369E-02    4.250000E+09  0.00400  5.491E-05    0   0.5269   age158_m42            0.0000     5.3345E+01     4.2032   2.0171    95.7814
 70      0.1132     3.4530E-02    3.5712E-02    6.250000E+09  0.00400  3.857E-05    0   0.5151   age166_m42            0.0000     3.6739E+01     3.6558   1.9038    94.2286
 71      0.3633     1.3182E-01    1.3524E-01    7.500000E+09  0.00400  3.243E-05    0   0.5110   age171_m42            0.0000     3.0450E+01     3.5045   1.8367    93.4345
 72      0.0000     0.0000E+00    0.0000E+00    1.000000E+10  0.00400  2.424E-05    0   0.5028   age181_m42            0.0000     2.5682E+01     3.4849   1.7686    92.5637
 73      0.0000     0.0000E+00    0.0000E+00    1.300000E+10  0.00400  1.883E-05    0   0.4927   age193_m42            0.0000     2.3596E+01     3.5161   1.7325    92.1633
 74      0.5404     3.7729E-01    3.7263E-01    1.500000E+10  0.00400  1.685E-05    0   0.4919   age201_m42            0.0000     2.3106E+01     3.4267   1.7339    92.2601
 75      1.3822     1.1199E+00    1.0960E+00    1.800000E+10  0.00400  1.452E-05    0   0.4874   age213_m42            0.0000     2.2791E+01     3.3245   1.7435    92.6341
 76      0.0000     0.0000E+00    0.0000E+00    1.000000E+06  0.00800  1.286E-02    0   1.0000   age020_m52            0.0000     6.7030E+03    58.8408   4.0000   120.8326
 77      0.0000     0.0000E+00    0.0000E+00    3.160000E+06  0.00800  3.147E-02    0   0.9966   age045_m52            0.0000     6.0479E+03    56.7378   4.0000   121.8202
 78      0.0000     0.0000E+00    0.0000E+00    5.010000E+06  0.00800  2.664E-02    0   0.9443   age055_m52            0.0000     3.8771E+03    47.0499   4.0000   120.7033
 79      0.0000     0.0000E+00    0.0000E+00    6.610000E+06  0.00800  2.151E-02    0   0.9177   age061_m52            0.0000     3.9815E+02    15.2652   3.8747    92.2175
 80      0.0000     0.0000E+00    0.0000E+00    8.710000E+06  0.00800  1.628E-02    0   0.8948   age067_m52            0.0000     5.8572E+02    20.3621   4.0000   101.2167
 81      0.0000     0.0000E+00    0.0000E+00    1.000000E+07  0.00800  1.215E-02    0   0.8827   age070_m52            0.0000     1.2680E+03    29.9791   4.0000   110.4723
 82      0.0000     0.0000E+00    0.0000E+00    1.445000E+07  0.00800  8.739E-03    0   0.8552   age078_m52            0.0000     1.4146E+03    30.5734   4.0000   113.6526
 83      0.0000     0.0000E+00    0.0000E+00    2.512000E+07  0.00800  5.676E-03    0   0.8162   age090_m52            0.0000     6.0602E+02    18.8285   4.0000   105.6927
 84      0.0000     0.0000E+00    0.0000E+00    4.000000E+07  0.00800  3.939E-03    0   0.7841   age104_m52            0.0000     4.6892E+02    14.8430   4.0000   102.9361
 85      0.0000     0.0000E+00    0.0000E+00    5.500000E+07  0.00800  3.155E-03    0   0.7627   age110_m52            0.0000     4.7494E+02    13.9197   4.0000   104.0773
 86      0.0000     0.0000E+00    0.0000E+00    1.015200E+08  0.00800  2.206E-03    0   0.7226   age116_m52            0.0000     4.5198E+02    13.6602   4.0000   101.9101
 87      0.0000     0.0000E+00    0.0000E+00    1.609000E+08  0.00800  1.596E-03    0   0.6963   age120_m52            0.0000     4.5404E+02    14.0370   3.8433   101.5614
 88      0.0000     0.0000E+00    0.0000E+00    2.861200E+08  0.00800  1.002E-03    0   0.6665   age125_m52            0.0000     4.9235E+02    15.2066   3.6076   102.6963
 89      0.0000     0.0000E+00    0.0000E+00    5.088000E+08  0.00800  5.759E-04    0   0.6377   age130_m52            0.0000     4.7469E+02    14.9023   3.2993   105.4916
 90      0.0000     0.0000E+00    0.0000E+00    9.047900E+08  0.00800  2.972E-04    0   0.6086   age135_m52            0.0000     2.9536E+02    11.2167   2.7767   103.8906
 91      0.0000     0.0000E+00    0.0000E+00    1.278050E+09  0.00800  2.242E-04    0   0.5907   age138_m52            0.0000     1.1152E+02     6.9416   2.1249   103.6718
 92      0.0000     0.0000E+00    0.0000E+00    1.434000E+09  0.00800  1.645E-04    0   0.5787   age139_m52            0.0000     1.1241E+02     6.8382   2.2638   103.3500
 93      0.0000     0.0000E+00    0.0000E+00    2.500000E+09  0.00800  7.723E-05    0   0.5519   age150_m52            0.0000     4.7718E+01     4.6337   1.9276    99.8368
 94      0.0000     0.0000E+00    0.0000E+00    4.250000E+09  0.00800  4.151E-05    0   0.5320   age158_m52            0.0000     3.7556E+01     4.0907   1.8536    97.5169
 95      1.1040     4.3152E-01    4.5027E-01    6.250000E+09  0.00800  3.010E-05    0   0.5197   age166_m52            0.0000     2.5846E+01     3.8017   1.6791    95.7831
 96      0.0000     0.0000E+00    0.0000E+00    7.500000E+09  0.00800  2.467E-05    0   0.5139   age171_m52            0.0000     2.5616E+01     3.9102   1.6444    95.2444
 97      0.0000     0.0000E+00    0.0000E+00    1.000000E+10  0.00800  1.862E-05    0   0.5054   age181_m52            0.0000     3.0270E+01     4.5976   1.5374    94.3857
