###################################################################
## OUTPUT of StarlightChains_v04.for    [Cid@UFSC - 01/Apr/2007] ##
###################################################################

## Some input info
NGC6121_a_1.cxt                          [arq_obs]
Base.BC03.S                              [arq_base]
NGC6121_a_1.msk                          [arq_masks]
StCv04.C99.config                        [arq_config]
  150                                    [N_base]
    0                                    [N_YAV_components = # of components with extra extinction!]
    0                                    [i_FitPowerLaw (1/0 = Yes/No)]
-9.99                                    [alpha_PowerLaw]
CCM                                      [red_law_option]
 1.458241                                [q_norm = A(l_norm)/A(V)]

## (Re)Sampling Parameters
 3359.00                                 [l_ini (A)]
 6428.00                                 [l_fin (A)]
    1.00                                 [dl    (A)]     (OBS: dl_cushion =    50.00 A)

## Normalization info
 4020.00                                 [l_norm (A) - for base]
 4010.00                                 [llow_norm (A) - window for f_obs]
 4060.00                                 [lupp_norm (A) - window for f_obs]
2.192402E-14                             [fobs_norm (in input units)]

## S/N
 4730.00                                 [llow_SN (A) - window for S/N]
 4780.00                                 [lupp_SN (A) - window for S/N]
  81.858                                 [S/N in S/N window]
  65.062                                 [S/N in norm. window]
 104.198                                 [S/N_err in S/N window]
  82.818                                 [S/N_err in norm. window]
  1.0000                                 [fscale_chi2]

## etc...
  2147483628                             [idum_orig]
  3067                                   [NOl_eff]
  2170                                   [Nl_eff]
   897    NSIGMA                         [Ntot_cliped & clip_method]
  3955280                                [Nglobal_steps]
   7                                     [N_chains]
  25                                     [NEX0s_base = N_base in EX0s-fits]
 0   0   1      121   2.0   2.018E+02    [Clip-Bug, RC-Crash & Burn-In warning-flags, n_censored_weights, wei_nsig_threshold & wei_limit]
   165    164.902    164.882      0.020  [idt_all, wdt_TotTime, wdt_UsrTime & wdt_SysTime (sec)]

## Synthesis Results - Best model ##

 2.00303E+00                             [chi2/Nl_eff]
     1.16440                             [adev (%)]

    98.05707                             [sum-of-x (%)]
 8.49616E-14                             [Flux_tot (units of input spectrum!)]
 1.60827E-09                             [Mini_tot (???)]
 8.13231E-10                             [Mcor_tot (???)]

 -26.62                                  [v0_min  (km/s)]
  35.09                                  [vd_min  (km/s)]
 1.0232                                  [AV_min  (mag)]
 0.0000                                  [YAV_min (mag)]

# j     x_j(%)      Mini_j(%)     Mcor_j(%)     age_j(yr)     Z_j      (L/M)_j    YAV?  Mstars   component_j        a/Fe...       SSP_chi2r SSP_adev(%)   SSP_AV   SSP_x(%)
  1      0.0000     0.0000E+00    0.0000E+00    1.000000E+06  0.00010  8.160E-03    0   1.0000   age020_m22            0.0000     2.0269E+02    11.6139   4.0000    84.0524
  2      8.9447     1.0126E-02    2.0025E-02    3.160000E+06  0.00010  4.759E-02    0   1.0000   age045_m22            0.0000     1.8521E+01     3.5245   2.3821    95.1281
  3      0.7521     2.0972E-03    3.9741E-03    5.010000E+06  0.00010  1.932E-02    0   0.9582   age055_m22            0.0000     1.2344E+02     9.5763   2.6461    82.7710
  4      0.0000     0.0000E+00    0.0000E+00    6.610000E+06  0.00010  9.973E-03    0   0.9297   age061_m22            0.0000     1.8900E+02    11.0695   4.0000    86.2411
  5      0.0000     0.0000E+00    0.0000E+00    8.710000E+06  0.00010  7.690E-03    0   0.9030   age067_m22            0.0000     1.7879E+02    10.7851   4.0000    86.5228
  6      0.0000     0.0000E+00    0.0000E+00    1.000000E+07  0.00010  6.375E-03    0   0.8902   age070_m22            0.0000     1.7709E+02    10.7457   4.0000    87.0007
  7      0.0000     0.0000E+00    0.0000E+00    1.445000E+07  0.00010  4.874E-03    0   0.8589   age078_m22            0.0000     1.0088E+02     8.3493   4.0000    85.8096
  8      0.0003     4.2631E-06    6.8913E-06    2.512000E+07  0.00010  4.103E-03    0   0.8174   age090_m22            0.0000     4.1533E+01     5.7222   3.7465    88.6416
  9      0.3133     4.6187E-03    7.1519E-03    4.000000E+07  0.00010  3.654E-03    0   0.7830   age104_m22            0.0000     2.6535E+01     4.1761   3.4656    93.2082
 10      0.0000     0.0000E+00    0.0000E+00    5.500000E+07  0.00010  3.093E-03    0   0.7597   age110_m22            0.0000     2.5311E+01     3.8706   3.3710    94.6802
 11      0.6581     1.4584E-02    2.0588E-02    1.015200E+08  0.00010  2.431E-03    0   0.7138   age116_m22            0.0000     3.1259E+01     3.9942   3.0280    97.7206
 12      0.0000     0.0000E+00    0.0000E+00    1.609000E+08  0.00010  1.319E-03    0   0.6775   age120_m22            0.0000     3.0189E+01     3.8368   2.5543   100.0067
 13      0.0000     0.0000E+00    0.0000E+00    2.861200E+08  0.00010  1.075E-03    0   0.6412   age125_m22            0.0000     8.9555E+01     6.6359   2.6424   103.2077
 14      0.0000     0.0000E+00    0.0000E+00    5.088000E+08  0.00010  7.183E-04    0   0.6083   age130_m22            0.0000     1.1450E+02     7.6840   2.4227   104.6795
 15      0.0000     0.0000E+00    0.0000E+00    9.047900E+08  0.00010  4.524E-04    0   0.5785   age135_m22            0.0000     1.1672E+02     7.8421   2.2268   105.7629
 16      0.0000     0.0000E+00    0.0000E+00    1.278050E+09  0.00010  3.018E-04    0   0.5588   age138_m22            0.0000     5.1270E+01     5.2757   1.6859   104.0000
 17      0.0000     0.0000E+00    0.0000E+00    1.434000E+09  0.00010  2.691E-04    0   0.5532   age139_m22            0.0000     4.0954E+01     4.7625   1.5301   103.3524
 18      0.0000     0.0000E+00    0.0000E+00    2.500000E+09  0.00010  1.582E-04    0   0.5296   age150_m22            0.0000     3.3036E+01     4.2693   1.4087   104.2553
 19      0.0000     0.0000E+00    0.0000E+00    4.250000E+09  0.00010  1.007E-04    0   0.5110   age158_m22            0.0000     1.5881E+01     3.0986   1.2537   102.4304
 20      0.0000     0.0000E+00    0.0000E+00    6.250000E+09  0.00010  6.869E-05    0   0.4985   age166_m22            0.0000     6.4885E+00     2.0475   1.1907    99.5872
 21      0.0000     0.0000E+00    0.0000E+00    7.500000E+09  0.00010  5.873E-05    0   0.4931   age171_m22            0.0000     5.8575E+00     1.9283   1.1752    99.1146
 22      0.0002     1.8233E-04    1.7503E-04    1.000000E+10  0.00010  4.481E-05    0   0.4854   age181_m22            0.0000     5.5293E+00     1.8777   1.1374    98.7424
 23      0.0000     0.0000E+00    0.0000E+00    1.300000E+10  0.00010  3.489E-05    0   0.4791   age193_m22            0.0000     4.8623E+00     1.7665   1.0820    98.1448
 24      0.0000     0.0000E+00    0.0000E+00    1.500000E+10  0.00010  3.035E-05    0   0.4766   age201_m22            0.0000     4.4820E+00     1.6997   1.0428    97.9550
 25      0.0000     0.0000E+00    0.0000E+00    1.800000E+10  0.00010  2.510E-05    0   0.4735   age213_m22            0.0000     3.8353E+00     1.5801   0.9742    97.3241
 26      0.0000     0.0000E+00    0.0000E+00    1.000000E+06  0.00040  8.458E-03    0   1.0000   age020_m32            0.0000     2.0671E+02    11.6943   4.0000    85.0793
 27      0.0000     0.0000E+00    0.0000E+00    3.160000E+06  0.00040  3.973E-02    0   1.0000   age045_m32            0.0000     4.6708E+01     5.9947   3.6423    88.6312
 28      0.0000     0.0000E+00    0.0000E+00    5.010000E+06  0.00040  1.935E-02    0   0.9532   age055_m32            0.0000     1.0427E+02     8.9108   3.8529    83.0212
 29      0.0000     0.0000E+00    0.0000E+00    6.610000E+06  0.00040  1.204E-02    0   0.9243   age061_m32            0.0000     1.2945E+02     9.3434   4.0000    85.1033
 30      0.0000     0.0000E+00    0.0000E+00    8.710000E+06  0.00040  9.433E-03    0   0.9001   age067_m32            0.0000     1.1312E+02     8.8248   4.0000    85.3647
 31      0.0000     0.0000E+00    0.0000E+00    1.000000E+07  0.00040  8.053E-03    0   0.8877   age070_m32            0.0000     1.0378E+02     8.5495   4.0000    84.9758
 32      0.0000     0.0000E+00    0.0000E+00    1.445000E+07  0.00040  7.027E-03    0   0.8578   age078_m32            0.0000     6.0548E+01     6.9090   3.5912    87.5583
 33      0.0000     0.0000E+00    0.0000E+00    2.512000E+07  0.00040  4.707E-03    0   0.8166   age090_m32            0.0000     3.6001E+01     5.3329   3.3052    91.4248
 34      0.0003     4.0737E-06    6.3056E-06    4.000000E+07  0.00040  3.714E-03    0   0.7827   age104_m32            0.0000     2.4082E+01     4.0450   3.1131    94.6914
 35      0.0000     0.0000E+00    0.0000E+00    5.500000E+07  0.00040  2.982E-03    0   0.7593   age110_m32            0.0000     2.3409E+01     3.7929   3.0575    95.8096
 36      0.0000     0.0000E+00    0.0000E+00    1.015200E+08  0.00040  2.188E-03    0   0.7143   age116_m32            0.0000     4.3989E+01     4.6234   2.8123    99.9037
 37      0.2094     6.6742E-03    9.0494E-03    1.609000E+08  0.00040  1.690E-03    0   0.6856   age120_m32            0.0000     6.8025E+01     5.6249   2.6105   102.6215
 38      0.0000     0.0000E+00    0.0000E+00    2.861200E+08  0.00040  1.152E-03    0   0.6509   age125_m32            0.0000     9.5447E+01     6.9063   2.3990   104.2422
 39      0.0000     0.0000E+00    0.0000E+00    5.088000E+08  0.00040  7.331E-04    0   0.6182   age130_m32            0.0000     1.0697E+02     7.4676   2.2446   104.7464
 40      0.0000     0.0000E+00    0.0000E+00    9.047900E+08  0.00040  3.960E-04    0   0.5890   age135_m32            0.0000     5.6576E+01     5.7141   1.7869   103.0018
 41      0.0000     0.0000E+00    0.0000E+00    1.278050E+09  0.00040  2.854E-04    0   0.5687   age138_m32            0.0000     4.0223E+01     4.7513   1.4812   105.0876
 42      0.0000     0.0000E+00    0.0000E+00    1.434000E+09  0.00040  2.531E-04    0   0.5632   age139_m32            0.0000     3.8371E+01     4.6153   1.4183   105.1011
 43      6.2714     2.2706E+00    2.4186E+00    2.500000E+09  0.00040  1.488E-04    0   0.5386   age150_m32            0.0000     2.4516E+01     3.7562   1.1611   103.1906
 44     43.3306     2.5704E+01    2.6428E+01    4.250000E+09  0.00040  9.082E-05    0   0.5199   age158_m32            0.0000     5.6815E+00     1.9834   1.0578    99.6801
 45     25.4655     2.1565E+01    2.1648E+01    6.250000E+09  0.00040  6.362E-05    0   0.5076   age166_m32            0.0000     3.8021E+00     1.5745   1.0075    96.2873
 46      0.0000     0.0000E+00    0.0000E+00    7.500000E+09  0.00040  5.289E-05    0   0.5027   age171_m32            0.0000     4.6456E+00     1.6985   0.9719    94.9842
 47      0.0000     0.0000E+00    0.0000E+00    1.000000E+10  0.00040  3.972E-05    0   0.4948   age181_m32            0.0000     5.4341E+00     1.8020   0.9126    93.5705
 48      0.0000     0.0000E+00    0.0000E+00    1.300000E+10  0.00040  3.283E-05    0   0.4870   age193_m32            0.0000     2.9699E+00     1.4561   0.8723    96.3109
 49      0.0003     5.8620E-04    5.6272E-04    1.500000E+10  0.00040  2.925E-05    0   0.4854   age201_m32            0.0000     3.3248E+00     1.5716   0.8559    97.9174
 50      0.0003     6.8960E-04    6.5720E-04    1.800000E+10  0.00040  2.469E-05    0   0.4819   age213_m32            0.0000     3.8302E+00     1.6922   0.8170    98.4320
 51      0.0000     0.0000E+00    0.0000E+00    1.000000E+06  0.00400  1.114E-02    0   1.0000   age020_m42            0.0000     1.7577E+02    10.7247   4.0000    84.0332
 52      0.6498     8.5951E-04    1.6996E-03    3.160000E+06  0.00400  4.073E-02    0   0.9999   age045_m42            0.0000     2.9486E+01     4.7286   3.3532    91.0731
 53      0.0000     0.0000E+00    0.0000E+00    5.010000E+06  0.00400  2.534E-02    0   0.9488   age055_m42            0.0000     6.7974E+01     7.1868   3.7428    85.0466
 54      0.5469     1.1406E-03    2.0797E-03    6.610000E+06  0.00400  2.583E-02    0   0.9220   age061_m42            0.0000     2.4390E+01     4.1845   3.1734    92.0283
 55      0.0000     0.0000E+00    0.0000E+00    8.710000E+06  0.00400  1.706E-02    0   0.8983   age067_m42            0.0000     4.0693E+01     5.6177   2.9845    90.4706
 56      0.0000     0.0000E+00    0.0000E+00    1.000000E+07  0.00400  1.271E-02    0   0.8862   age070_m42            0.0000     6.2247E+01     7.1038   2.9622    89.1665
 57      0.0000     0.0000E+00    0.0000E+00    1.445000E+07  0.00400  7.666E-03    0   0.8571   age078_m42            0.0000     8.0689E+01     7.8625   3.3637    85.8096
 58      0.0000     0.0000E+00    0.0000E+00    2.512000E+07  0.00400  5.070E-03    0   0.8174   age090_m42            0.0000     5.2465E+01     6.5350   2.8329    90.8008
 59      0.0000     0.0000E+00    0.0000E+00    4.000000E+07  0.00400  3.505E-03    0   0.7851   age104_m42            0.0000     3.0303E+01     4.8242   2.5269    93.5882
 60      0.0000     0.0000E+00    0.0000E+00    5.500000E+07  0.00400  3.059E-03    0   0.7629   age110_m42            0.0000     1.5717E+01     2.8464   2.6009    98.0661
 61      0.0000     0.0000E+00    0.0000E+00    1.015200E+08  0.00400  2.268E-03    0   0.7207   age116_m42            0.0000     5.7092E+01     5.2075   2.5328   103.0678
 62      0.0000     0.0000E+00    0.0000E+00    1.609000E+08  0.00400  1.720E-03    0   0.6930   age120_m42            0.0000     6.6331E+01     5.8105   2.3962   104.5379
 63      0.0000     0.0000E+00    0.0000E+00    2.861200E+08  0.00400  1.079E-03    0   0.6613   age125_m42            0.0000     6.7384E+01     5.9729   2.0422   105.0222
 64      0.0000     0.0000E+00    0.0000E+00    5.088000E+08  0.00400  6.261E-04    0   0.6313   age130_m42            0.0000     7.9047E+01     6.4805   1.8485   107.9366
 65      0.0000     0.0000E+00    0.0000E+00    9.047900E+08  0.00400  3.535E-04    0   0.6024   age135_m42            0.0000     4.3854E+01     5.1229   1.4547   107.6771
 66      0.0000     0.0000E+00    0.0000E+00    1.278050E+09  0.00400  2.677E-04    0   0.5837   age138_m42            0.0000     2.7439E+01     4.4828   0.7961   103.8709
 67      0.0054     1.5228E-03    1.7214E-03    1.434000E+09  0.00400  1.910E-04    0   0.5716   age139_m42            0.0000     2.7571E+01     4.4721   0.9601   104.9728
 68      0.0000     0.0000E+00    0.0000E+00    2.500000E+09  0.00400  9.818E-05    0   0.5463   age150_m42            0.0000     2.1540E+01     3.8251   0.7038    99.3753
 69      0.0000     0.0000E+00    0.0000E+00    4.250000E+09  0.00400  5.491E-05    0   0.5269   age158_m42            0.0000     2.5416E+01     3.8845   0.5781    96.5079
 70      0.0000     0.0000E+00    0.0000E+00    6.250000E+09  0.00400  3.857E-05    0   0.5151   age166_m42            0.0000     3.5487E+01     4.4771   0.4609    94.9012
 71      0.0000     0.0000E+00    0.0000E+00    7.500000E+09  0.00400  3.243E-05    0   0.5110   age171_m42            0.0000     4.2768E+01     4.8590   0.3890    94.1656
 72      2.6120     5.8052E+00    5.7724E+00    1.000000E+10  0.00400  2.424E-05    0   0.5028   age181_m42            0.0000     5.3204E+01     5.3530   0.3175    93.2997
 73      1.5161     4.3378E+00    4.2267E+00    1.300000E+10  0.00400  1.883E-05    0   0.4927   age193_m42            0.0000     6.1552E+01     5.7197   0.2814    92.8532
 74      1.7488     5.5914E+00    5.4393E+00    1.500000E+10  0.00400  1.685E-05    0   0.4919   age201_m42            0.0000     5.9280E+01     5.6265   0.2840    92.9317
 75      2.7358     1.0151E+01    9.7845E+00    1.800000E+10  0.00400  1.452E-05    0   0.4874   age213_m42            0.0000     5.5154E+01     5.4583   0.2948    93.3154
 76      0.0000     0.0000E+00    0.0000E+00    1.000000E+06  0.00800  1.286E-02    0   1.0000   age020_m52            0.0000     1.5334E+02    10.0196   4.0000    85.3807
 77      0.0000     0.0000E+00    0.0000E+00    3.160000E+06  0.00800  3.147E-02    0   0.9966   age045_m52            0.0000     1.2829E+02     9.1998   4.0000    85.0027
 78      0.0000     0.0000E+00    0.0000E+00    5.010000E+06  0.00800  2.664E-02    0   0.9443   age055_m52            0.0000     8.0687E+01     7.6915   3.8622    83.9984
 79      0.0000     0.0000E+00    0.0000E+00    6.610000E+06  0.00800  2.151E-02    0   0.9177   age061_m52            0.0000     4.9340E+01     5.9532   2.5670    90.4952
 80      0.0000     0.0000E+00    0.0000E+00    8.710000E+06  0.00800  1.628E-02    0   0.8948   age067_m52            0.0000     4.7553E+01     6.0315   2.9380    90.9837
 81      0.0000     0.0000E+00    0.0000E+00    1.000000E+07  0.00800  1.215E-02    0   0.8827   age070_m52            0.0000     5.9375E+01     6.7529   3.2764    89.1067
 82      0.0000     0.0000E+00    0.0000E+00    1.445000E+07  0.00800  8.739E-03    0   0.8552   age078_m52            0.0000     4.7865E+01     5.9978   3.3208    90.3608
 83      0.0000     0.0000E+00    0.0000E+00    2.512000E+07  0.00800  5.676E-03    0   0.8162   age090_m52            0.0000     3.1380E+01     4.5917   2.9261    95.2827
 84      0.0000     0.0000E+00    0.0000E+00    4.000000E+07  0.00800  3.939E-03    0   0.7841   age104_m52            0.0000     2.3709E+01     3.6500   2.7753    97.6352
 85      0.0000     0.0000E+00    0.0000E+00    5.500000E+07  0.00800  3.155E-03    0   0.7627   age110_m52            0.0000     2.5224E+01     3.4730   2.7530    99.2772
 86      0.0000     0.0000E+00    0.0000E+00    1.015200E+08  0.00800  2.206E-03    0   0.7226   age116_m52            0.0000     4.2039E+01     4.4407   2.5862   102.8845
 87      0.0000     0.0000E+00    0.0000E+00    1.609000E+08  0.00800  1.596E-03    0   0.6963   age120_m52            0.0000     5.2638E+01     5.1421   2.3761   104.5080
 88      0.0000     0.0000E+00    0.0000E+00    2.861200E+08  0.00800  1.002E-03    0   0.6665   age125_m52            0.0000     8.8979E+01     7.0867   2.1020   106.9303
 89      0.0000     0.0000E+00    0.0000E+00    5.088000E+08  0.00800  5.759E-04    0   0.6377   age130_m52            0.0000     1.0188E+02     7.8675   1.7731   110.2791
 90      0.0000     0.0000E+00    0.0000E+00    9.047900E+08  0.00800  2.972E-04    0   0.6086   age135_m52            0.0000     6.6573E+01     6.7667   1.2616   107.8388
 91      0.0000     0.0000E+00    0.0000E+00    1.278050E+09  0.00800  2.242E-04    0   0.5907   age138_m52            0.0000     4.4689E+01     5.5382   0.6502   105.8881
 92      0.0000     0.0000E+00    0.0000E+00    1.434000E+09  0.00800  1.645E-04    0   0.5787   age139_m52            0.0000     3.6146E+01     5.0279   0.7921   105.4245
 93      0.0000     0.0000E+00    0.0000E+00    2.500000E+09  0.00800  7.723E-05    0   0.5519   age150_m52            0.0000     4.4214E+01     5.2294   0.4644   101.0798
 94      0.0000     0.0000E+00    0.0000E+00    4.250000E+09  0.00800  4.151E-05    0   0.5320   age158_m52            0.0000     4.6967E+01     5.2510   0.3974    98.3942
 95      0.0000     0.0000E+00    0.0000E+00    6.250000E+09  0.00800  3.010E-05    0   0.5197   age166_m52            0.0000     6.6134E+01     6.0682   0.2174    96.5818
 96      0.0000     0.0000E+00    0.0000E+00    7.500000E+09  0.00800  2.467E-05    0   0.5139   age171_m52            0.0000     7.1554E+01     6.2882   0.1791    96.1010
 97      0.0000     0.0000E+00    0.0000E+00    1.000000E+10  0.00800  1.862E-05    0   0.5054   age181_m52            0.0000     8.9891E+01     6.9894   0.0630    95.3423
