###################################################################
## OUTPUT of StarlightChains_v04.for    [Cid@UFSC - 01/Apr/2007] ##
###################################################################

## Some input info
NGC6342_a_2.cxt                          [arq_obs]
Base.BC03.S                              [arq_base]
NGC6342_a_2.msk                          [arq_masks]
StCv04.C99.config                        [arq_config]
  150                                    [N_base]
    0                                    [N_YAV_components = # of components with extra extinction!]
    0                                    [i_FitPowerLaw (1/0 = Yes/No)]
-9.99                                    [alpha_PowerLaw]
CCM                                      [red_law_option]
 1.458241                                [q_norm = A(l_norm)/A(V)]

## (Re)Sampling Parameters
 3359.00                                 [l_ini (A)]
 6428.00                                 [l_fin (A)]
    1.00                                 [dl    (A)]     (OBS: dl_cushion =    50.00 A)

## Normalization info
 4020.00                                 [l_norm (A) - for base]
 4010.00                                 [llow_norm (A) - window for f_obs]
 4060.00                                 [lupp_norm (A) - window for f_obs]
3.704827E-15                             [fobs_norm (in input units)]

## S/N
 4730.00                                 [llow_SN (A) - window for S/N]
 4780.00                                 [lupp_SN (A) - window for S/N]
  43.866                                 [S/N in S/N window]
  28.421                                 [S/N in norm. window]
 215.944                                 [S/N_err in S/N window]
 139.911                                 [S/N_err in norm. window]
  1.0000                                 [fscale_chi2]

## etc...
  2147483614                             [idum_orig]
  3064                                   [NOl_eff]
   735                                   [Nl_eff]
  2329    NSIGMA                         [Ntot_cliped & clip_method]
  3283700                                [Nglobal_steps]
   7                                     [N_chains]
  16                                     [NEX0s_base = N_base in EX0s-fits]
 0   0   1      176   2.0   3.169E+02    [Clip-Bug, RC-Crash & Burn-In warning-flags, n_censored_weights, wei_nsig_threshold & wei_limit]
   148    148.098    148.094      0.004  [idt_all, wdt_TotTime, wdt_UsrTime & wdt_SysTime (sec)]

## Synthesis Results - Best model ##

 2.75306E+00                             [chi2/Nl_eff]
     1.45406                             [adev (%)]

    97.05508                             [sum-of-x (%)]
 1.75427E-14                             [Flux_tot (units of input spectrum!)]
 8.35528E-10                             [Mini_tot (???)]
 4.16868E-10                             [Mcor_tot (???)]

 -19.85                                  [v0_min  (km/s)]
  41.54                                  [vd_min  (km/s)]
 1.1800                                  [AV_min  (mag)]
 0.0000                                  [YAV_min (mag)]

# j     x_j(%)      Mini_j(%)     Mcor_j(%)     age_j(yr)     Z_j      (L/M)_j    YAV?  Mstars   component_j        a/Fe...       SSP_chi2r SSP_adev(%)   SSP_AV   SSP_x(%)
  1      0.0000     0.0000E+00    0.0000E+00    1.000000E+06  0.00010  8.160E-03    0   1.0000   age020_m22            0.0000     3.3634E+03    39.0192   4.0000    99.8965
  2      0.0000     0.0000E+00    0.0000E+00    3.160000E+06  0.00010  4.759E-02    0   1.0000   age045_m22            0.0000     1.5850E+02     8.5383   3.1072    96.1199
  3      1.8780     2.1028E-03    4.0386E-03    5.010000E+06  0.00010  1.932E-02    0   0.9582   age055_m22            0.0000     5.3414E+02    16.6742   3.3422    83.8005
  4      0.0000     0.0000E+00    0.0000E+00    6.610000E+06  0.00010  9.973E-03    0   0.9297   age061_m22            0.0000     3.1732E+03    38.0278   4.0000   102.7706
  5      0.0000     0.0000E+00    0.0000E+00    8.710000E+06  0.00010  7.690E-03    0   0.9030   age067_m22            0.0000     3.1018E+03    37.6056   4.0000   103.2297
  6      0.0000     0.0000E+00    0.0000E+00    1.000000E+07  0.00010  6.375E-03    0   0.8902   age070_m22            0.0000     3.1460E+03    37.6674   4.0000   103.7002
  7      0.0000     0.0000E+00    0.0000E+00    1.445000E+07  0.00010  4.874E-03    0   0.8589   age078_m22            0.0000     2.1757E+03    32.2550   4.0000   104.2027
  8      0.0000     0.0000E+00    0.0000E+00    2.512000E+07  0.00010  4.103E-03    0   0.8174   age090_m22            0.0000     7.5000E+02    20.4923   4.0000   102.7770
  9      0.0000     0.0000E+00    0.0000E+00    4.000000E+07  0.00010  3.654E-03    0   0.7830   age104_m22            0.0000     3.2281E+02    12.6848   4.0000   100.1124
 10      0.0000     0.0000E+00    0.0000E+00    5.500000E+07  0.00010  3.093E-03    0   0.7597   age110_m22            0.0000     2.7549E+02    10.8485   4.0000    98.8137
 11      0.0000     0.0000E+00    0.0000E+00    1.015200E+08  0.00010  2.431E-03    0   0.7138   age116_m22            0.0000     2.9850E+02    10.1886   3.7538    98.7656
 12      0.0000     0.0000E+00    0.0000E+00    1.609000E+08  0.00010  1.319E-03    0   0.6775   age120_m22            0.0000     2.8396E+02     9.5795   3.2801   100.7886
 13      0.0000     0.0000E+00    0.0000E+00    2.861200E+08  0.00010  1.075E-03    0   0.6412   age125_m22            0.0000     5.5122E+02    13.1759   3.3984   103.0962
 14      0.0000     0.0000E+00    0.0000E+00    5.088000E+08  0.00010  7.183E-04    0   0.6083   age130_m22            0.0000     6.5185E+02    14.2667   3.1888   104.2047
 15      0.0000     0.0000E+00    0.0000E+00    9.047900E+08  0.00010  4.524E-04    0   0.5785   age135_m22            0.0000     6.5990E+02    14.3462   2.9905   105.3122
 16      0.0000     0.0000E+00    0.0000E+00    1.278050E+09  0.00010  3.018E-04    0   0.5588   age138_m22            0.0000     3.6417E+02    10.4512   2.4264   104.4372
 17      0.0000     0.0000E+00    0.0000E+00    1.434000E+09  0.00010  2.691E-04    0   0.5532   age139_m22            0.0000     3.1260E+02     9.6802   2.2646   104.0247
 18      0.0000     0.0000E+00    0.0000E+00    2.500000E+09  0.00010  1.582E-04    0   0.5296   age150_m22            0.0000     2.8717E+02     9.3371   2.1354   105.1126
 19      0.0000     0.0000E+00    0.0000E+00    4.250000E+09  0.00010  1.007E-04    0   0.5110   age158_m22            0.0000     1.9586E+02     7.5429   1.9755   103.4644
 20      0.0000     0.0000E+00    0.0000E+00    6.250000E+09  0.00010  6.869E-05    0   0.4985   age166_m22            0.0000     1.3213E+02     6.1156   1.9098   100.7150
 21      0.0000     0.0000E+00    0.0000E+00    7.500000E+09  0.00010  5.873E-05    0   0.4931   age171_m22            0.0000     1.2926E+02     6.0957   1.8906   100.3375
 22      0.0000     0.0000E+00    0.0000E+00    1.000000E+10  0.00010  4.481E-05    0   0.4854   age181_m22            0.0000     1.2517E+02     6.0058   1.8536    99.9490
 23      0.0000     0.0000E+00    0.0000E+00    1.300000E+10  0.00010  3.489E-05    0   0.4791   age193_m22            0.0000     1.1605E+02     5.7821   1.7991    99.3388
 24      0.0000     0.0000E+00    0.0000E+00    1.500000E+10  0.00010  3.035E-05    0   0.4766   age201_m22            0.0000     1.1082E+02     5.6640   1.7599    99.1556
 25      0.0000     0.0000E+00    0.0000E+00    1.800000E+10  0.00010  2.510E-05    0   0.4735   age213_m22            0.0000     9.9941E+01     5.4183   1.6910    98.5432
 26      0.0000     0.0000E+00    0.0000E+00    1.000000E+06  0.00040  8.458E-03    0   1.0000   age020_m32            0.0000     3.4373E+03    39.2348   4.0000   100.9433
 27      0.0000     0.0000E+00    0.0000E+00    3.160000E+06  0.00040  3.973E-02    0   1.0000   age045_m32            0.0000     5.6188E+02    18.2051   4.0000    99.9266
 28      0.0000     0.0000E+00    0.0000E+00    5.010000E+06  0.00040  1.935E-02    0   0.9532   age055_m32            0.0000     1.2320E+03    26.0361   4.0000    98.5205
 29      0.0000     0.0000E+00    0.0000E+00    6.610000E+06  0.00040  1.204E-02    0   0.9243   age061_m32            0.0000     2.4043E+03    33.9633   4.0000   102.9033
 30      0.0000     0.0000E+00    0.0000E+00    8.710000E+06  0.00040  9.433E-03    0   0.9001   age067_m32            0.0000     2.2347E+03    32.8612   4.0000   103.5510
 31      0.0000     0.0000E+00    0.0000E+00    1.000000E+07  0.00040  8.053E-03    0   0.8877   age070_m32            0.0000     2.0697E+03    31.8381   4.0000   103.4209
 32      0.0000     0.0000E+00    0.0000E+00    1.445000E+07  0.00040  7.027E-03    0   0.8578   age078_m32            0.0000     5.3662E+02    18.2335   4.0000    97.0953
 33      0.0000     0.0000E+00    0.0000E+00    2.512000E+07  0.00040  4.707E-03    0   0.8166   age090_m32            0.0000     2.6934E+02    12.0929   4.0000    93.0012
 34      0.0000     0.0000E+00    0.0000E+00    4.000000E+07  0.00040  3.714E-03    0   0.7827   age104_m32            0.0000     2.4412E+02    10.4003   3.8278    95.8878
 35      0.0000     0.0000E+00    0.0000E+00    5.500000E+07  0.00040  2.982E-03    0   0.7593   age110_m32            0.0000     2.5081E+02    10.0446   3.7753    96.9523
 36      0.0000     0.0000E+00    0.0000E+00    1.015200E+08  0.00040  2.188E-03    0   0.7143   age116_m32            0.0000     3.6005E+02    10.7959   3.5469   100.6186
 37      0.0000     0.0000E+00    0.0000E+00    1.609000E+08  0.00040  1.690E-03    0   0.6856   age120_m32            0.0000     4.6607E+02    12.2287   3.3518   103.0869
 38      0.0000     0.0000E+00    0.0000E+00    2.861200E+08  0.00040  1.152E-03    0   0.6509   age125_m32            0.0000     5.7446E+02    13.3985   3.1610   103.9190
 39      0.0000     0.0000E+00    0.0000E+00    5.088000E+08  0.00040  7.331E-04    0   0.6182   age130_m32            0.0000     6.1654E+02    13.8154   3.0108   104.2776
 40      0.0000     0.0000E+00    0.0000E+00    9.047900E+08  0.00040  3.960E-04    0   0.5890   age135_m32            0.0000     3.7864E+02    10.7203   2.5351   103.2666
 41      0.0000     0.0000E+00    0.0000E+00    1.278050E+09  0.00040  2.854E-04    0   0.5687   age138_m32            0.0000     3.2023E+02     9.8584   2.2144   105.7355
 42      0.0000     0.0000E+00    0.0000E+00    1.434000E+09  0.00040  2.531E-04    0   0.5632   age139_m32            0.0000     3.1175E+02     9.7488   2.1500   105.8012
 43      0.0000     0.0000E+00    0.0000E+00    2.500000E+09  0.00040  1.488E-04    0   0.5386   age150_m32            0.0000     2.3677E+02     8.4782   1.8942   103.9417
 44      0.0000     0.0000E+00    0.0000E+00    4.250000E+09  0.00040  9.082E-05    0   0.5199   age158_m32            0.0000     1.1858E+02     5.7154   1.7813   100.7869
 45     13.3820     4.5504E+00    4.6295E+00    6.250000E+09  0.00040  6.362E-05    0   0.5076   age166_m32            0.0000     7.9224E+01     4.8286   1.7220    97.6402
 46     21.7111     8.8803E+00    8.9474E+00    7.500000E+09  0.00040  5.289E-05    0   0.5027   age171_m32            0.0000     7.1460E+01     4.6673   1.6873    96.3228
 47     16.1813     8.8130E+00    8.7400E+00    1.000000E+10  0.00040  3.972E-05    0   0.4948   age181_m32            0.0000     6.3132E+01     4.4762   1.6297    94.8729
 48      0.0000     0.0000E+00    0.0000E+00    1.300000E+10  0.00040  3.283E-05    0   0.4870   age193_m32            0.0000     6.9180E+01     4.5078   1.5913    97.5962
 49      0.0000     0.0000E+00    0.0000E+00    1.500000E+10  0.00040  2.925E-05    0   0.4854   age201_m32            0.0000     8.0644E+01     4.7844   1.5763    99.1763
 50      0.0000     0.0000E+00    0.0000E+00    1.800000E+10  0.00040  2.469E-05    0   0.4819   age213_m32            0.0000     8.4253E+01     4.8807   1.5380    99.6985
 51      0.0000     0.0000E+00    0.0000E+00    1.000000E+06  0.00400  1.114E-02    0   1.0000   age020_m42            0.0000     3.0511E+03    37.3351   4.0000   100.4086
 52      0.0000     0.0000E+00    0.0000E+00    3.160000E+06  0.00400  4.073E-02    0   0.9999   age045_m42            0.0000     2.1711E+02    11.2949   4.0000    94.4983
 53      0.0000     0.0000E+00    0.0000E+00    5.010000E+06  0.00400  2.534E-02    0   0.9488   age055_m42            0.0000     8.1610E+02    21.6665   4.0000    98.4298
 54      0.0000     0.0000E+00    0.0000E+00    6.610000E+06  0.00400  2.583E-02    0   0.9220   age061_m42            0.0000     2.0300E+02    10.1591   3.8958    93.1347
 55      0.0000     0.0000E+00    0.0000E+00    8.710000E+06  0.00400  1.706E-02    0   0.8983   age067_m42            0.0000     2.5740E+02    12.2994   3.6843    91.9600
 56      0.0000     0.0000E+00    0.0000E+00    1.000000E+07  0.00400  1.271E-02    0   0.8862   age070_m42            0.0000     3.4430E+02    14.3738   3.6499    90.8222
 57      0.0000     0.0000E+00    0.0000E+00    1.445000E+07  0.00400  7.666E-03    0   0.8571   age078_m42            0.0000     4.0817E+02    15.9863   4.0000    88.7350
 58      0.0000     0.0000E+00    0.0000E+00    2.512000E+07  0.00400  5.070E-03    0   0.8174   age090_m42            0.0000     3.0802E+02    13.7299   3.5240    92.4004
 59      0.0000     0.0000E+00    0.0000E+00    4.000000E+07  0.00400  3.505E-03    0   0.7851   age104_m42            0.0000     2.1213E+02    11.5248   3.2262    95.1223
 60      0.0000     0.0000E+00    0.0000E+00    5.500000E+07  0.00400  3.059E-03    0   0.7629   age110_m42            0.0000     1.8481E+02     8.8119   3.3171    99.3733
 61      0.0000     0.0000E+00    0.0000E+00    1.015200E+08  0.00400  2.268E-03    0   0.7207   age116_m42            0.0000     3.9128E+02    11.0540   3.2742   103.6986
 62      0.0000     0.0000E+00    0.0000E+00    1.609000E+08  0.00400  1.720E-03    0   0.6930   age120_m42            0.0000     4.3006E+02    11.5378   3.1533   104.6444
 63      0.0000     0.0000E+00    0.0000E+00    2.861200E+08  0.00400  1.079E-03    0   0.6613   age125_m42            0.0000     4.2416E+02    11.2348   2.7991   104.9943
 64      0.0000     0.0000E+00    0.0000E+00    5.088000E+08  0.00400  6.261E-04    0   0.6313   age130_m42            0.0000     4.8627E+02    12.0976   2.6031   107.9350
 65      0.0000     0.0000E+00    0.0000E+00    9.047900E+08  0.00400  3.535E-04    0   0.6024   age135_m42            0.0000     3.0799E+02     9.4319   2.1952   108.3205
 66      0.0000     0.0000E+00    0.0000E+00    1.278050E+09  0.00400  2.677E-04    0   0.5837   age138_m42            0.0000     1.0132E+02     5.7270   1.5324   105.1613
 67      0.0000     0.0000E+00    0.0000E+00    1.434000E+09  0.00400  1.910E-04    0   0.5716   age139_m42            0.0000     1.4230E+02     6.3396   1.7014   105.9985
 68      0.0000     0.0000E+00    0.0000E+00    2.500000E+09  0.00400  9.818E-05    0   0.5463   age150_m42            0.0000     3.5731E+01     3.3425   1.4411   100.6880
 69      0.0000     0.0000E+00    0.0000E+00    4.250000E+09  0.00400  5.491E-05    0   0.5269   age158_m42            0.0000     1.2782E+01     2.3472   1.3118    97.9861
 70      0.0000     0.0000E+00    0.0000E+00    6.250000E+09  0.00400  3.857E-05    0   0.5151   age166_m42            0.0000     1.4177E+01     2.5724   1.1967    96.3869
 71      0.0067     4.4870E-03    4.5955E-03    7.500000E+09  0.00400  3.243E-05    0   0.5110   age171_m42            0.0000     1.9343E+01     2.9166   1.1258    95.6766
 72      5.2652     4.6989E+00    4.7354E+00    1.000000E+10  0.00400  2.424E-05    0   0.5028   age181_m42            0.0000     2.9049E+01     3.4594   1.0546    94.8675
 73      7.8909     9.0655E+00    8.9524E+00    1.300000E+10  0.00400  1.883E-05    0   0.4927   age193_m42            0.0000     3.9090E+01     3.9764   1.0177    94.4957
 74      1.9675     2.5260E+00    2.4904E+00    1.500000E+10  0.00400  1.685E-05    0   0.4919   age201_m42            0.0000     3.7136E+01     3.8523   1.0194    94.5951
 75      0.0000     0.0000E+00    0.0000E+00    1.800000E+10  0.00400  1.452E-05    0   0.4874   age213_m42            0.0000     3.3853E+01     3.6471   1.0295    94.9978
 76      0.0000     0.0000E+00    0.0000E+00    1.000000E+06  0.00800  1.286E-02    0   1.0000   age020_m52            0.0000     2.8811E+03    36.2929   4.0000   102.3027
 77      0.0000     0.0000E+00    0.0000E+00    3.160000E+06  0.00800  3.147E-02    0   0.9966   age045_m52            0.0000     2.4538E+03    34.1756   4.0000   102.7203
 78      0.0000     0.0000E+00    0.0000E+00    5.010000E+06  0.00800  2.664E-02    0   0.9443   age055_m52            0.0000     1.1562E+03    25.1538   4.0000   100.0573
 79      0.0000     0.0000E+00    0.0000E+00    6.610000E+06  0.00800  2.151E-02    0   0.9177   age061_m52            0.0000     2.6364E+02    12.6605   3.2668    91.8519
 80      0.0000     0.0000E+00    0.0000E+00    8.710000E+06  0.00800  1.628E-02    0   0.8948   age067_m52            0.0000     2.9016E+02    13.2422   3.6316    92.4902
 81      0.0000     0.0000E+00    0.0000E+00    1.000000E+07  0.00800  1.215E-02    0   0.8827   age070_m52            0.0000     3.3742E+02    14.3015   3.9675    90.5785
 82      0.0000     0.0000E+00    0.0000E+00    1.445000E+07  0.00800  8.739E-03    0   0.8552   age078_m52            0.0000     3.0017E+02    13.4667   4.0000    92.3102
 83      0.0000     0.0000E+00    0.0000E+00    2.512000E+07  0.00800  5.676E-03    0   0.8162   age090_m52            0.0000     2.5777E+02    11.4885   3.6186    97.0826
 84      0.0000     0.0000E+00    0.0000E+00    4.000000E+07  0.00800  3.939E-03    0   0.7841   age104_m52            0.0000     2.3534E+02    10.0441   3.4811    99.1631
 85      0.0000     0.0000E+00    0.0000E+00    5.500000E+07  0.00800  3.155E-03    0   0.7627   age110_m52            0.0000     2.5246E+02     9.4829   3.4701   100.5213
 86      0.0000     0.0000E+00    0.0000E+00    1.015200E+08  0.00800  2.206E-03    0   0.7226   age116_m52            0.0000     3.2797E+02     9.9121   3.3171   103.7820
 87      0.0000     0.0000E+00    0.0000E+00    1.609000E+08  0.00800  1.596E-03    0   0.6963   age120_m52            0.0000     3.7155E+02    10.5341   3.1160   105.0982
 88      0.0000     0.0000E+00    0.0000E+00    2.861200E+08  0.00800  1.002E-03    0   0.6665   age125_m52            0.0000     5.0047E+02    12.3939   2.8617   106.8778
 89      0.0000     0.0000E+00    0.0000E+00    5.088000E+08  0.00800  5.759E-04    0   0.6377   age130_m52            0.0000     5.2192E+02    12.6058   2.5419   110.0114
 90      0.0000     0.0000E+00    0.0000E+00    9.047900E+08  0.00800  2.972E-04    0   0.6086   age135_m52            0.0000     3.0282E+02     9.3370   2.0258   107.9759
 91      0.0000     0.0000E+00    0.0000E+00    1.278050E+09  0.00800  2.242E-04    0   0.5907   age138_m52            0.0000     9.6923E+01     5.5882   1.3963   106.9730
 92      0.0000     0.0000E+00    0.0000E+00    1.434000E+09  0.00800  1.645E-04    0   0.5787   age139_m52            0.0000     8.4353E+01     5.1251   1.5360   106.5464
 93      0.0000     0.0000E+00    0.0000E+00    2.500000E+09  0.00800  7.723E-05    0   0.5519   age150_m52            0.0000     3.7780E+01     3.8676   1.2099   102.2923
 94      0.0000     0.0000E+00    0.0000E+00    4.250000E+09  0.00800  4.151E-05    0   0.5320   age158_m52            0.0000     3.0398E+01     3.7212   1.1410    99.6556
 95      0.0000     0.0000E+00    0.0000E+00    6.250000E+09  0.00800  3.010E-05    0   0.5197   age166_m52            0.0000     4.3634E+01     4.4134   0.9637    97.9057
 96      0.0000     0.0000E+00    0.0000E+00    7.500000E+09  0.00800  2.467E-05    0   0.5139   age171_m52            0.0000     4.9128E+01     4.6588   0.9268    97.4248
 97      3.3544     3.8973E+00    3.9478E+00    1.000000E+10  0.00800  1.862E-05    0   0.5054   age181_m52            0.0000     7.2528E+01     5.5628   0.8125    96.7257
