###################################################################
## OUTPUT of StarlightChains_v04.for    [Cid@UFSC - 01/Apr/2007] ##
###################################################################

## Some input info
NGC6624_a_1.cxt                          [arq_obs]
Base.BC03.S                              [arq_base]
NGC6624_a_1.msk                          [arq_masks]
StCv04.C99.config                        [arq_config]
  150                                    [N_base]
    0                                    [N_YAV_components = # of components with extra extinction!]
    0                                    [i_FitPowerLaw (1/0 = Yes/No)]
-9.99                                    [alpha_PowerLaw]
CCM                                      [red_law_option]
 1.458241                                [q_norm = A(l_norm)/A(V)]

## (Re)Sampling Parameters
 3359.00                                 [l_ini (A)]
 6428.00                                 [l_fin (A)]
    1.00                                 [dl    (A)]     (OBS: dl_cushion =    50.00 A)

## Normalization info
 4020.00                                 [l_norm (A) - for base]
 4010.00                                 [llow_norm (A) - window for f_obs]
 4060.00                                 [lupp_norm (A) - window for f_obs]
1.685692E-14                             [fobs_norm (in input units)]

## S/N
 4730.00                                 [llow_SN (A) - window for S/N]
 4780.00                                 [lupp_SN (A) - window for S/N]
  42.348                                 [S/N in S/N window]
  28.608                                 [S/N in norm. window]
  94.289                                 [S/N_err in S/N window]
  63.698                                 [S/N_err in norm. window]
  1.0000                                 [fscale_chi2]

## etc...
  2147483597                             [idum_orig]
  3066                                   [NOl_eff]
  1157                                   [Nl_eff]
  1909    NSIGMA                         [Ntot_cliped & clip_method]
  2590560                                [Nglobal_steps]
   7                                     [N_chains]
  15                                     [NEX0s_base = N_base in EX0s-fits]
 0   0   1      375   2.0   1.181E+03    [Clip-Bug, RC-Crash & Burn-In warning-flags, n_censored_weights, wei_nsig_threshold & wei_limit]
   115    114.657    114.648      0.008  [idt_all, wdt_TotTime, wdt_UsrTime & wdt_SysTime (sec)]

## Synthesis Results - Best model ##

 2.78874E+00                             [chi2/Nl_eff]
     1.41129                             [adev (%)]

   101.54313                             [sum-of-x (%)]
 3.29715E-14                             [Flux_tot (units of input spectrum!)]
 1.51546E-09                             [Mini_tot (???)]
 7.70516E-10                             [Mcor_tot (???)]

  -2.89                                  [v0_min  (km/s)]
  77.62                                  [vd_min  (km/s)]
 0.4881                                  [AV_min  (mag)]
 0.0000                                  [YAV_min (mag)]

# j     x_j(%)      Mini_j(%)     Mcor_j(%)     age_j(yr)     Z_j      (L/M)_j    YAV?  Mstars   component_j        a/Fe...       SSP_chi2r SSP_adev(%)   SSP_AV   SSP_x(%)
  1      0.0000     0.0000E+00    0.0000E+00    1.000000E+06  0.00010  8.160E-03    0   1.0000   age020_m22            0.0000     1.5816E+03    33.3473   4.0000    69.0753
  2      3.6043     1.6228E-03    3.1916E-03    3.160000E+06  0.00010  4.759E-02    0   1.0000   age045_m22            0.0000     4.4255E+02    10.8188   2.9941    85.6263
  3      0.0000     0.0000E+00    0.0000E+00    5.010000E+06  0.00010  1.932E-02    0   0.9582   age055_m22            0.0000     4.9050E+02    16.7068   3.3038    73.2561
  4      0.0000     0.0000E+00    0.0000E+00    6.610000E+06  0.00010  9.973E-03    0   0.9297   age061_m22            0.0000     1.5004E+03    32.5231   4.0000    71.4225
  5      0.0000     0.0000E+00    0.0000E+00    8.710000E+06  0.00010  7.690E-03    0   0.9030   age067_m22            0.0000     1.4738E+03    32.1879   4.0000    71.8822
  6      0.0000     0.0000E+00    0.0000E+00    1.000000E+07  0.00010  6.375E-03    0   0.8902   age070_m22            0.0000     1.4789E+03    32.1984   4.0000    72.1446
  7      0.0000     0.0000E+00    0.0000E+00    1.445000E+07  0.00010  4.874E-03    0   0.8589   age078_m22            0.0000     1.1742E+03    28.1344   4.0000    74.8877
  8      0.0000     0.0000E+00    0.0000E+00    2.512000E+07  0.00010  4.103E-03    0   0.8174   age090_m22            0.0000     7.9649E+02    19.2335   4.0000    79.7653
  9      0.0000     0.0000E+00    0.0000E+00    4.000000E+07  0.00010  3.654E-03    0   0.7830   age104_m22            0.0000     8.5922E+02    13.8861   4.0000    82.0756
 10      0.0000     0.0000E+00    0.0000E+00    5.500000E+07  0.00010  3.093E-03    0   0.7597   age110_m22            0.0000     9.2104E+02    12.4964   4.0000    82.9967
 11      0.0000     0.0000E+00    0.0000E+00    1.015200E+08  0.00010  2.431E-03    0   0.7138   age116_m22            0.0000     1.0968E+03    12.0914   3.6949    85.0974
 12      0.0000     0.0000E+00    0.0000E+00    1.609000E+08  0.00010  1.319E-03    0   0.6775   age120_m22            0.0000     1.0856E+03    11.2756   3.1888    88.2300
 13      0.0000     0.0000E+00    0.0000E+00    2.861200E+08  0.00010  1.075E-03    0   0.6412   age125_m22            0.0000     1.7206E+03    10.9409   3.2461    92.0621
 14      0.0000     0.0000E+00    0.0000E+00    5.088000E+08  0.00010  7.183E-04    0   0.6083   age130_m22            0.0000     1.8770E+03    10.6428   2.9800    95.1083
 15      0.0000     0.0000E+00    0.0000E+00    9.047900E+08  0.00010  4.524E-04    0   0.5785   age135_m22            0.0000     1.8405E+03    10.3988   2.7575    97.1203
 16      0.0000     0.0000E+00    0.0000E+00    1.278050E+09  0.00010  3.018E-04    0   0.5588   age138_m22            0.0000     1.1527E+03     9.1118   2.2025    96.5026
 17      0.0000     0.0000E+00    0.0000E+00    1.434000E+09  0.00010  2.691E-04    0   0.5532   age139_m22            0.0000     1.0166E+03     8.7969   2.0377    96.3828
 18      0.0000     0.0000E+00    0.0000E+00    2.500000E+09  0.00010  1.582E-04    0   0.5296   age150_m22            0.0000     9.5763E+02     9.0540   1.9349    96.4185
 19      0.0000     0.0000E+00    0.0000E+00    4.250000E+09  0.00010  1.007E-04    0   0.5110   age158_m22            0.0000     6.9172E+02     8.4240   1.7731    95.3335
 20      0.0000     0.0000E+00    0.0000E+00    6.250000E+09  0.00010  6.869E-05    0   0.4985   age166_m22            0.0000     4.8314E+02     8.0970   1.7088    93.1302
 21      0.0000     0.0000E+00    0.0000E+00    7.500000E+09  0.00010  5.873E-05    0   0.4931   age171_m22            0.0000     4.6687E+02     8.3706   1.7023    92.3336
 22      0.0000     0.0000E+00    0.0000E+00    1.000000E+10  0.00010  4.481E-05    0   0.4854   age181_m22            0.0000     4.5496E+02     8.2942   1.6613    92.1278
 23      0.0000     0.0000E+00    0.0000E+00    1.300000E+10  0.00010  3.489E-05    0   0.4791   age193_m22            0.0000     4.2703E+02     8.0957   1.6009    91.8713
 24      0.0000     0.0000E+00    0.0000E+00    1.500000E+10  0.00010  3.035E-05    0   0.4766   age201_m22            0.0000     4.1288E+02     8.0394   1.5608    91.7525
 25      0.0000     0.0000E+00    0.0000E+00    1.800000E+10  0.00010  2.510E-05    0   0.4735   age213_m22            0.0000     3.7840E+02     7.9369   1.4900    91.3197
 26      0.0000     0.0000E+00    0.0000E+00    1.000000E+06  0.00040  8.458E-03    0   1.0000   age020_m32            0.0000     1.5913E+03    33.4627   4.0000    69.6870
 27      0.0000     0.0000E+00    0.0000E+00    3.160000E+06  0.00040  3.973E-02    0   1.0000   age045_m32            0.0000     6.7123E+02    17.2231   4.0000    79.4273
 28      0.0000     0.0000E+00    0.0000E+00    5.010000E+06  0.00040  1.935E-02    0   0.9532   age055_m32            0.0000     8.5795E+02    23.2894   4.0000    74.5930
 29      0.0000     0.0000E+00    0.0000E+00    6.610000E+06  0.00040  1.204E-02    0   0.9243   age061_m32            0.0000     1.2589E+03    29.5259   4.0000    73.2438
 30      0.0000     0.0000E+00    0.0000E+00    8.710000E+06  0.00040  9.433E-03    0   0.9001   age067_m32            0.0000     1.2051E+03    28.7403   4.0000    74.0793
 31      0.0000     0.0000E+00    0.0000E+00    1.000000E+07  0.00040  8.053E-03    0   0.8877   age070_m32            0.0000     1.1529E+03    27.9488   4.0000    74.5136
 32      0.0000     0.0000E+00    0.0000E+00    1.445000E+07  0.00040  7.027E-03    0   0.8578   age078_m32            0.0000     6.6527E+02    17.3093   4.0000    77.7845
 33      0.0000     0.0000E+00    0.0000E+00    2.512000E+07  0.00040  4.707E-03    0   0.8166   age090_m32            0.0000     6.6434E+02    14.0106   3.9749    79.7688
 34      0.0000     0.0000E+00    0.0000E+00    4.000000E+07  0.00040  3.714E-03    0   0.7827   age104_m32            0.0000     8.0775E+02    13.0062   3.7835    82.4376
 35      0.0000     0.0000E+00    0.0000E+00    5.500000E+07  0.00040  2.982E-03    0   0.7593   age110_m32            0.0000     8.8932E+02    12.6222   3.7236    83.5015
 36      0.0000     0.0000E+00    0.0000E+00    1.015200E+08  0.00040  2.188E-03    0   0.7143   age116_m32            0.0000     1.2772E+03    11.5325   3.4582    87.6771
 37      0.0000     0.0000E+00    0.0000E+00    1.609000E+08  0.00040  1.690E-03    0   0.6856   age120_m32            0.0000     1.5453E+03    11.2104   3.2461    90.3680
 38      0.0000     0.0000E+00    0.0000E+00    2.861200E+08  0.00040  1.152E-03    0   0.6509   age125_m32            0.0000     1.7333E+03    10.5302   2.9763    94.0163
 39      0.0000     0.0000E+00    0.0000E+00    5.088000E+08  0.00040  7.331E-04    0   0.6182   age130_m32            0.0000     1.7650E+03    10.2196   2.7849    95.9179
 40      0.0000     0.0000E+00    0.0000E+00    9.047900E+08  0.00040  3.960E-04    0   0.5890   age135_m32            0.0000     1.1566E+03     8.8722   2.2779    96.6412
 41      0.0000     0.0000E+00    0.0000E+00    1.278050E+09  0.00040  2.854E-04    0   0.5687   age138_m32            0.0000     1.0193E+03     8.8976   1.9970    97.5885
 42      0.0000     0.0000E+00    0.0000E+00    1.434000E+09  0.00040  2.531E-04    0   0.5632   age139_m32            0.0000     1.0017E+03     8.8867   1.9349    97.5514
 43      0.0000     0.0000E+00    0.0000E+00    2.500000E+09  0.00040  1.488E-04    0   0.5386   age150_m32            0.0000     7.7937E+02     8.1130   1.6636    96.7203
 44      5.3041     1.2513E+00    1.2795E+00    4.250000E+09  0.00040  9.082E-05    0   0.5199   age158_m32            0.0000     4.3989E+02     7.3644   1.5521    94.2964
 45      3.6524     1.2301E+00    1.2280E+00    6.250000E+09  0.00040  6.362E-05    0   0.5076   age166_m32            0.0000     2.7601E+02     7.6353   1.5128    91.0857
 46      3.4369     1.3923E+00    1.3766E+00    7.500000E+09  0.00040  5.289E-05    0   0.5027   age171_m32            0.0000     2.4292E+02     7.5123   1.4708    90.2342
 47      4.2768     2.3070E+00    2.2452E+00    1.000000E+10  0.00040  3.972E-05    0   0.4948   age181_m32            0.0000     2.1624E+02     7.2534   1.3985    89.4669
 48      0.0000     0.0000E+00    0.0000E+00    1.300000E+10  0.00040  3.283E-05    0   0.4870   age193_m32            0.0000     2.8551E+02     7.0131   1.3570    91.8889
 49      0.0000     0.0000E+00    0.0000E+00    1.500000E+10  0.00040  2.925E-05    0   0.4854   age201_m32            0.0000     3.4050E+02     6.9671   1.3415    93.2513
 50      0.0000     0.0000E+00    0.0000E+00    1.800000E+10  0.00040  2.469E-05    0   0.4819   age213_m32            0.0000     3.6156E+02     6.9131   1.3008    93.7660
 51      0.0000     0.0000E+00    0.0000E+00    1.000000E+06  0.00400  1.114E-02    0   1.0000   age020_m42            0.0000     1.4675E+03    31.9514   4.0000    70.3039
 52      0.0000     0.0000E+00    0.0000E+00    3.160000E+06  0.00400  4.073E-02    0   0.9999   age045_m42            0.0000     5.1453E+02    12.1987   3.9904    81.1678
 53      0.0000     0.0000E+00    0.0000E+00    5.010000E+06  0.00400  2.534E-02    0   0.9488   age055_m42            0.0000     6.9049E+02    19.6362   4.0000    76.8642
 54      0.0000     0.0000E+00    0.0000E+00    6.610000E+06  0.00400  2.583E-02    0   0.9220   age061_m42            0.0000     6.2150E+02    12.4538   3.8255    81.1548
 55      0.0000     0.0000E+00    0.0000E+00    8.710000E+06  0.00400  1.706E-02    0   0.8983   age067_m42            0.0000     5.6041E+02    14.2744   3.6547    79.0868
 56      0.0000     0.0000E+00    0.0000E+00    1.000000E+07  0.00400  1.271E-02    0   0.8862   age070_m42            0.0000     5.6454E+02    15.7853   3.6460    77.4078
 57      0.0000     0.0000E+00    0.0000E+00    1.445000E+07  0.00400  7.666E-03    0   0.8571   age078_m42            0.0000     5.5144E+02    16.1445   4.0000    75.3875
 58      0.0000     0.0000E+00    0.0000E+00    2.512000E+07  0.00400  5.070E-03    0   0.8174   age090_m42            0.0000     5.6420E+02    15.2693   3.5062    79.2600
 59      0.0000     0.0000E+00    0.0000E+00    4.000000E+07  0.00400  3.505E-03    0   0.7851   age104_m42            0.0000     5.5300E+02    13.5916   3.1734    82.7988
 60      0.0000     0.0000E+00    0.0000E+00    5.500000E+07  0.00400  3.059E-03    0   0.7629   age110_m42            0.0000     8.2784E+02    11.5565   3.2366    86.8342
 61      0.0000     0.0000E+00    0.0000E+00    1.015200E+08  0.00400  2.268E-03    0   0.7207   age116_m42            0.0000     1.4038E+03    10.5688   3.1515    91.5563
 62      0.0000     0.0000E+00    0.0000E+00    1.609000E+08  0.00400  1.720E-03    0   0.6930   age120_m42            0.0000     1.4079E+03     9.7178   2.9837    94.2415
 63      0.0000     0.0000E+00    0.0000E+00    2.861200E+08  0.00400  1.079E-03    0   0.6613   age125_m42            0.0000     1.3966E+03     9.3584   2.5972    95.9522
 64      0.0000     0.0000E+00    0.0000E+00    5.088000E+08  0.00400  6.261E-04    0   0.6313   age130_m42            0.0000     1.4640E+03     9.3781   2.3925    99.0038
 65      0.0000     0.0000E+00    0.0000E+00    9.047900E+08  0.00400  3.535E-04    0   0.6024   age135_m42            0.0000     9.5206E+02     7.9601   1.9513   101.1475
 66      0.0000     0.0000E+00    0.0000E+00    1.278050E+09  0.00400  2.677E-04    0   0.5837   age138_m42            0.0000     3.2368E+02     4.7348   1.1893   103.3646
 67      0.0000     0.0000E+00    0.0000E+00    1.434000E+09  0.00400  1.910E-04    0   0.5716   age139_m42            0.0000     4.6179E+02     5.3285   1.3739   103.1531
 68      0.0000     0.0000E+00    0.0000E+00    2.500000E+09  0.00400  9.818E-05    0   0.5463   age150_m42            0.0000     1.1634E+02     3.0392   1.0684   100.7664
 69      0.0015     5.9111E-04    6.1257E-04    4.250000E+09  0.00400  5.491E-05    0   0.5269   age158_m42            0.0000     4.4857E+01     2.7047   0.9418    98.4177
 70      0.0000     0.0000E+00    0.0000E+00    6.250000E+09  0.00400  3.857E-05    0   0.5151   age166_m42            0.0000     1.9413E+01     2.1711   0.8037    97.9700
 71      0.0000     0.0000E+00    0.0000E+00    7.500000E+09  0.00400  3.243E-05    0   0.5110   age171_m42            0.0000     1.2023E+01     2.0399   0.7162    98.0323
 72      0.0000     0.0000E+00    0.0000E+00    1.000000E+10  0.00400  2.424E-05    0   0.5028   age181_m42            0.0000     1.0789E+01     2.1250   0.6241    98.2072
 73      0.0000     0.0000E+00    0.0000E+00    1.300000E+10  0.00400  1.883E-05    0   0.4927   age193_m42            0.0000     1.9861E+01     2.3594   0.5769    98.3996
 74      0.0013     1.6344E-03    1.5813E-03    1.500000E+10  0.00400  1.685E-05    0   0.4919   age201_m42            0.0000     1.7538E+01     2.3404   0.5857    98.2037
 75      0.0000     0.0000E+00    0.0000E+00    1.800000E+10  0.00400  1.452E-05    0   0.4874   age213_m42            0.0000     1.4695E+01     2.3391   0.6080    98.0837
 76      0.0000     0.0000E+00    0.0000E+00    1.000000E+06  0.00800  1.286E-02    0   1.0000   age020_m52            0.0000     1.4059E+03    31.0885   4.0000    71.9852
 77      0.0000     0.0000E+00    0.0000E+00    3.160000E+06  0.00800  3.147E-02    0   0.9966   age045_m52            0.0000     1.2738E+03    29.5739   4.0000    73.1504
 78      0.0000     0.0000E+00    0.0000E+00    5.010000E+06  0.00800  2.664E-02    0   0.9443   age055_m52            0.0000     8.4447E+02    22.5570   4.0000    76.0674
 79      0.0000     0.0000E+00    0.0000E+00    6.610000E+06  0.00800  2.151E-02    0   0.9177   age061_m52            0.0000     4.3536E+02    13.8965   3.2030    80.7583
 80      0.0000     0.0000E+00    0.0000E+00    8.710000E+06  0.00800  1.628E-02    0   0.8948   age067_m52            0.0000     5.8125E+02    14.8865   3.6090    79.4749
 81      0.0000     0.0000E+00    0.0000E+00    1.000000E+07  0.00800  1.215E-02    0   0.8827   age070_m52            0.0000     6.1415E+02    15.6394   3.9551    77.4988
 82      0.0000     0.0000E+00    0.0000E+00    1.445000E+07  0.00800  8.739E-03    0   0.8552   age078_m52            0.0000     6.5195E+02    15.0283   4.0000    78.4166
 83      0.0000     0.0000E+00    0.0000E+00    2.512000E+07  0.00800  5.676E-03    0   0.8162   age090_m52            0.0000     8.0129E+02    14.2874   3.6186    81.9299
 84      0.0000     0.0000E+00    0.0000E+00    4.000000E+07  0.00800  3.939E-03    0   0.7841   age104_m52            0.0000     8.9576E+02    12.9269   3.4487    84.7055
 85      0.0000     0.0000E+00    0.0000E+00    5.500000E+07  0.00800  3.155E-03    0   0.7627   age110_m52            0.0000     1.0056E+03    12.0027   3.4103    86.7003
 86      0.0000     0.0000E+00    0.0000E+00    1.015200E+08  0.00800  2.206E-03    0   0.7226   age116_m52            0.0000     1.2018E+03    10.5376   3.2041    91.4337
 87      0.0000     0.0000E+00    0.0000E+00    1.609000E+08  0.00800  1.596E-03    0   0.6963   age120_m52            0.0000     1.2904E+03     9.9701   2.9681    93.9248
 88      0.0000     0.0000E+00    0.0000E+00    2.861200E+08  0.00800  1.002E-03    0   0.6665   age125_m52            0.0000     1.5252E+03     9.1977   2.6237    98.9496
 89      0.0000     0.0000E+00    0.0000E+00    5.088000E+08  0.00800  5.759E-04    0   0.6377   age130_m52            0.0000     1.4063E+03     8.4027   2.2076   105.9816
 90      0.0000     0.0000E+00    0.0000E+00    9.047900E+08  0.00800  2.972E-04    0   0.6086   age135_m52            0.0000     6.8932E+02     6.4944   1.5823   109.5692
 91      0.0000     0.0000E+00    0.0000E+00    1.278050E+09  0.00800  2.242E-04    0   0.5907   age138_m52            0.0000     2.0556E+02     3.9186   0.9519   109.6809
 92      0.0000     0.0000E+00    0.0000E+00    1.434000E+09  0.00800  1.645E-04    0   0.5787   age139_m52            0.0000     2.1603E+02     3.8141   1.1196   108.0210
 93      0.0000     0.0000E+00    0.0000E+00    2.500000E+09  0.00800  7.723E-05    0   0.5519   age150_m52            0.0000     4.2385E+01     2.2039   0.7655   105.5831
 94      0.0521     2.6908E-02    2.8155E-02    4.250000E+09  0.00800  4.151E-05    0   0.5320   age158_m52            0.0000     1.4270E+01     1.7096   0.6956   103.1875
 95      2.5603     1.8225E+00    1.8628E+00    6.250000E+09  0.00800  3.010E-05    0   0.5197   age166_m52            0.0000     5.2986E+00     1.7778   0.4810   103.1966
 96      1.8908     1.6422E+00    1.6598E+00    7.500000E+09  0.00800  2.467E-05    0   0.5139   age171_m52            0.0000     8.2516E+00     1.9487   0.4328   103.2087
 97     69.0765     7.9487E+01    7.9012E+01    1.000000E+10  0.00800  1.862E-05    0   0.5054   age181_m52            0.0000     2.6340E+01     2.6552   0.2814   104.1113
