###################################################################
## OUTPUT of StarlightChains_v04.for    [Cid@UFSC - 01/Apr/2007] ##
###################################################################

## Some input info
NGC6638_a_1.cxt                          [arq_obs]
Base.BC03.S                              [arq_base]
NGC6638_a_1.msk                          [arq_masks]
StCv04.C99.config                        [arq_config]
  150                                    [N_base]
    0                                    [N_YAV_components = # of components with extra extinction!]
    0                                    [i_FitPowerLaw (1/0 = Yes/No)]
-9.99                                    [alpha_PowerLaw]
CCM                                      [red_law_option]
 1.458241                                [q_norm = A(l_norm)/A(V)]

## (Re)Sampling Parameters
 3359.00                                 [l_ini (A)]
 6428.00                                 [l_fin (A)]
    1.00                                 [dl    (A)]     (OBS: dl_cushion =    50.00 A)

## Normalization info
 4020.00                                 [l_norm (A) - for base]
 4010.00                                 [llow_norm (A) - window for f_obs]
 4060.00                                 [lupp_norm (A) - window for f_obs]
7.127479E-15                             [fobs_norm (in input units)]

## S/N
 4730.00                                 [llow_SN (A) - window for S/N]
 4780.00                                 [lupp_SN (A) - window for S/N]
  53.764                                 [S/N in S/N window]
  34.599                                 [S/N in norm. window]
  41.866                                 [S/N_err in S/N window]
  26.942                                 [S/N_err in norm. window]
  1.0000                                 [fscale_chi2]

## etc...
  2147483593                             [idum_orig]
  3064                                   [NOl_eff]
  1634                                   [Nl_eff]
  1430    NSIGMA                         [Ntot_cliped & clip_method]
  3721690                                [Nglobal_steps]
   7                                     [N_chains]
  26                                     [NEX0s_base = N_base in EX0s-fits]
 0   0   1      211   2.0   5.863E+02    [Clip-Bug, RC-Crash & Burn-In warning-flags, n_censored_weights, wei_nsig_threshold & wei_limit]
  2233    147.897    147.890      0.008  [idt_all, wdt_TotTime, wdt_UsrTime & wdt_SysTime (sec)]

## Synthesis Results - Best model ##

 2.29331E+00                             [chi2/Nl_eff]
     2.08943                             [adev (%)]

    99.96007                             [sum-of-x (%)]
 4.68933E-14                             [Flux_tot (units of input spectrum!)]
 1.59724E-09                             [Mini_tot (???)]
 8.05994E-10                             [Mcor_tot (???)]

   7.60                                  [v0_min  (km/s)]
  59.57                                  [vd_min  (km/s)]
 1.4030                                  [AV_min  (mag)]
 0.0000                                  [YAV_min (mag)]

# j     x_j(%)      Mini_j(%)     Mcor_j(%)     age_j(yr)     Z_j      (L/M)_j    YAV?  Mstars   component_j        a/Fe...       SSP_chi2r SSP_adev(%)   SSP_AV   SSP_x(%)
  1      0.0000     0.0000E+00    0.0000E+00    1.000000E+06  0.00010  8.160E-03    0   1.0000   age020_m22            0.0000     1.1071E+03    33.0421   4.0000    78.3017
  2     28.5634     1.7628E-02    3.4934E-02    3.160000E+06  0.00010  4.759E-02    0   1.0000   age045_m22            0.0000     1.1307E+02     5.4057   3.1390    95.9970
  3      0.4446     6.7590E-04    1.2834E-03    5.010000E+06  0.00010  1.932E-02    0   0.9582   age055_m22            0.0000     2.3952E+02    11.7343   3.5720    82.8299
  4      0.0000     0.0000E+00    0.0000E+00    6.610000E+06  0.00010  9.973E-03    0   0.9297   age061_m22            0.0000     1.0187E+03    32.6208   4.0000    80.6266
  5      0.0000     0.0000E+00    0.0000E+00    8.710000E+06  0.00010  7.690E-03    0   0.9030   age067_m22            0.0000     9.8133E+02    32.2813   4.0000    81.1350
  6      0.0000     0.0000E+00    0.0000E+00    1.000000E+07  0.00010  6.375E-03    0   0.8902   age070_m22            0.0000     9.6652E+02    32.4442   4.0000    81.3419
  7      0.0000     0.0000E+00    0.0000E+00    1.445000E+07  0.00010  4.874E-03    0   0.8589   age078_m22            0.0000     6.9456E+02    27.5471   4.0000    84.7260
  8      0.0000     0.0000E+00    0.0000E+00    2.512000E+07  0.00010  4.103E-03    0   0.8174   age090_m22            0.0000     2.9458E+02    16.4887   4.0000    91.0578
  9      5.0665     4.0724E-02    6.3190E-02    4.000000E+07  0.00010  3.654E-03    0   0.7830   age104_m22            0.0000     2.3982E+02     9.0350   4.0000    94.5156
 10      0.0000     0.0000E+00    0.0000E+00    5.500000E+07  0.00010  3.093E-03    0   0.7597   age110_m22            0.0000     2.6149E+02     6.9794   4.0000    95.5519
 11      0.0000     0.0000E+00    0.0000E+00    1.015200E+08  0.00010  2.431E-03    0   0.7138   age116_m22            0.0000     3.5705E+02     6.8742   3.6908    97.8776
 12      0.0000     0.0000E+00    0.0000E+00    1.609000E+08  0.00010  1.319E-03    0   0.6775   age120_m22            0.0000     3.6241E+02     7.3418   3.1705   100.4045
 13      0.0000     0.0000E+00    0.0000E+00    2.861200E+08  0.00010  1.075E-03    0   0.6412   age125_m22            0.0000     7.5092E+02    11.7907   3.0983   104.7024
 14      0.0000     0.0000E+00    0.0000E+00    5.088000E+08  0.00010  7.183E-04    0   0.6083   age130_m22            0.0000     8.8007E+02    13.6313   2.7959   107.0542
 15      0.0000     0.0000E+00    0.0000E+00    9.047900E+08  0.00010  4.524E-04    0   0.5785   age135_m22            0.0000     8.9017E+02    14.1819   2.5712   108.4719
 16      0.0000     0.0000E+00    0.0000E+00    1.278050E+09  0.00010  3.018E-04    0   0.5588   age138_m22            0.0000     5.0416E+02    11.0980   2.1190   106.2346
 17      0.0000     0.0000E+00    0.0000E+00    1.434000E+09  0.00010  2.691E-04    0   0.5532   age139_m22            0.0000     4.3333E+02    10.4701   1.9755   105.6678
 18      0.0000     0.0000E+00    0.0000E+00    2.500000E+09  0.00010  1.582E-04    0   0.5296   age150_m22            0.0000     3.9478E+02     9.7896   1.8942   106.0007
 19      0.0000     0.0000E+00    0.0000E+00    4.250000E+09  0.00010  1.007E-04    0   0.5110   age158_m22            0.0000     2.5845E+02     7.8296   1.7901   104.2552
 20      0.0000     0.0000E+00    0.0000E+00    6.250000E+09  0.00010  6.869E-05    0   0.4985   age166_m22            0.0000     1.5106E+02     5.9002   1.7805   101.5499
 21      0.0000     0.0000E+00    0.0000E+00    7.500000E+09  0.00010  5.873E-05    0   0.4931   age171_m22            0.0000     1.3805E+02     5.6849   1.7836   100.8913
 22      0.0000     0.0000E+00    0.0000E+00    1.000000E+10  0.00010  4.481E-05    0   0.4854   age181_m22            0.0000     1.3313E+02     5.6159   1.7449   100.5559
 23      0.0000     0.0000E+00    0.0000E+00    1.300000E+10  0.00010  3.489E-05    0   0.4791   age193_m22            0.0000     1.2210E+02     5.4456   1.6873   100.0944
 24      0.0010     1.0144E-03    9.5810E-04    1.500000E+10  0.00010  3.035E-05    0   0.4766   age201_m22            0.0000     1.1553E+02     5.3245   1.6503    99.9312
 25      0.0027     3.1181E-03    2.9258E-03    1.800000E+10  0.00010  2.510E-05    0   0.4735   age213_m22            0.0000     1.0008E+02     5.0363   1.5891    99.3687
 26      0.0000     0.0000E+00    0.0000E+00    1.000000E+06  0.00040  8.458E-03    0   1.0000   age020_m32            0.0000     1.0987E+03    33.4485   4.0000    78.8051
 27      0.0000     0.0000E+00    0.0000E+00    3.160000E+06  0.00040  3.973E-02    0   1.0000   age045_m32            0.0000     2.6195E+02    13.9455   4.0000    90.8884
 28      0.0000     0.0000E+00    0.0000E+00    5.010000E+06  0.00040  1.935E-02    0   0.9532   age055_m32            0.0000     5.2377E+02    21.2908   4.0000    84.8884
 29      0.0000     0.0000E+00    0.0000E+00    6.610000E+06  0.00040  1.204E-02    0   0.9243   age061_m32            0.0000     8.1116E+02    28.9547   4.0000    82.9668
 30      0.0000     0.0000E+00    0.0000E+00    8.710000E+06  0.00040  9.433E-03    0   0.9001   age067_m32            0.0000     7.4404E+02    28.0291   4.0000    83.9898
 31      0.0000     0.0000E+00    0.0000E+00    1.000000E+07  0.00040  8.053E-03    0   0.8877   age070_m32            0.0000     6.9860E+02    27.0697   4.0000    84.5222
 32      0.0000     0.0000E+00    0.0000E+00    1.445000E+07  0.00040  7.027E-03    0   0.8578   age078_m32            0.0000     2.6898E+02    13.3218   4.0000    89.3001
 33      0.0000     0.0000E+00    0.0000E+00    2.512000E+07  0.00040  4.707E-03    0   0.8166   age090_m32            0.0000     1.6504E+02     7.2978   4.0000    92.0543
 34      0.0000     0.0000E+00    0.0000E+00    4.000000E+07  0.00040  3.714E-03    0   0.7827   age104_m32            0.0000     2.0785E+02     6.3942   3.8611    94.6967
 35      0.0000     0.0000E+00    0.0000E+00    5.500000E+07  0.00040  2.982E-03    0   0.7593   age110_m32            0.0000     2.4478E+02     6.4305   3.7753    95.8743
 36      0.0000     0.0000E+00    0.0000E+00    1.015200E+08  0.00040  2.188E-03    0   0.7143   age116_m32            0.0000     4.6603E+02     8.1174   3.4080   100.4558
 37      0.0000     0.0000E+00    0.0000E+00    1.609000E+08  0.00040  1.690E-03    0   0.6856   age120_m32            0.0000     6.4037E+02    10.2274   3.1390   103.2852
 38      0.0000     0.0000E+00    0.0000E+00    2.861200E+08  0.00040  1.152E-03    0   0.6509   age125_m32            0.0000     7.8226E+02    12.6072   2.8197   106.0237
 39      0.0000     0.0000E+00    0.0000E+00    5.088000E+08  0.00040  7.331E-04    0   0.6182   age130_m32            0.0000     8.3266E+02    13.5377   2.6119   107.2676
 40      0.0000     0.0000E+00    0.0000E+00    9.047900E+08  0.00040  3.960E-04    0   0.5890   age135_m32            0.0000     5.1320E+02    11.5009   2.1797   106.0927
 41      0.0000     0.0000E+00    0.0000E+00    1.278050E+09  0.00040  2.854E-04    0   0.5687   age138_m32            0.0000     4.4354E+02    10.3976   1.9408   107.1210
 42      0.0000     0.0000E+00    0.0000E+00    1.434000E+09  0.00040  2.531E-04    0   0.5632   age139_m32            0.0000     4.3278E+02    10.3223   1.8832   107.0265
 43      0.0000     0.0000E+00    0.0000E+00    2.500000E+09  0.00040  1.488E-04    0   0.5386   age150_m32            0.0000     3.2216E+02     9.2032   1.6489   105.2827
 44      0.0000     0.0000E+00    0.0000E+00    4.250000E+09  0.00040  9.082E-05    0   0.5199   age158_m32            0.0000     1.4603E+02     6.1046   1.6201   102.0149
 45      9.4088     4.3436E+00    4.3693E+00    6.250000E+09  0.00040  6.362E-05    0   0.5076   age166_m32            0.0000     6.2671E+01     4.3463   1.6430    98.6672
 46      2.6947     1.4964E+00    1.4908E+00    7.500000E+09  0.00040  5.289E-05    0   0.5027   age171_m32            0.0000     4.9902E+01     4.0681   1.6119    97.5575
 47      0.0000     0.0000E+00    0.0000E+00    1.000000E+10  0.00040  3.972E-05    0   0.4948   age181_m32            0.0000     4.1101E+01     3.8523   1.5456    96.4229
 48      0.0000     0.0000E+00    0.0000E+00    1.300000E+10  0.00040  3.283E-05    0   0.4870   age193_m32            0.0000     7.0806E+01     4.3973   1.4694    99.0912
 49      0.0000     0.0000E+00    0.0000E+00    1.500000E+10  0.00040  2.925E-05    0   0.4854   age201_m32            0.0000     9.7099E+01     5.0050   1.4324   100.6331
 50      0.0034     4.0991E-03    3.9146E-03    1.800000E+10  0.00040  2.469E-05    0   0.4819   age213_m32            0.0000     1.0816E+02     5.2963   1.3827   101.1682
 51      0.0000     0.0000E+00    0.0000E+00    1.000000E+06  0.00400  1.114E-02    0   1.0000   age020_m42            0.0000     1.0109E+03    31.6398   4.0000    79.5189
 52      0.0000     0.0000E+00    0.0000E+00    3.160000E+06  0.00400  4.073E-02    0   0.9999   age045_m42            0.0000     1.3767E+02     6.5277   4.0000    92.7490
 53      0.0000     0.0000E+00    0.0000E+00    5.010000E+06  0.00400  2.534E-02    0   0.9488   age055_m42            0.0000     3.5378E+02    16.9242   4.0000    87.6312
 54      2.2032     2.5052E-03    4.5774E-03    6.610000E+06  0.00400  2.583E-02    0   0.9220   age061_m42            0.0000     1.5428E+02     5.9008   3.9475    92.7012
 55      1.0740     1.8489E-03    3.2914E-03    8.710000E+06  0.00400  1.706E-02    0   0.8983   age067_m42            0.0000     1.4188E+02     7.4116   3.8145    90.6145
 56      0.0000     0.0000E+00    0.0000E+00    1.000000E+07  0.00400  1.271E-02    0   0.8862   age070_m42            0.0000     1.6221E+02     8.7917   3.8255    88.9823
 57      0.0000     0.0000E+00    0.0000E+00    1.445000E+07  0.00400  7.666E-03    0   0.8571   age078_m42            0.0000     2.1984E+02     9.1116   4.0000    87.2482
 58      0.0000     0.0000E+00    0.0000E+00    2.512000E+07  0.00400  5.070E-03    0   0.8174   age090_m42            0.0000     1.4667E+02     8.1004   3.6766    90.8330
 59      0.0000     0.0000E+00    0.0000E+00    4.000000E+07  0.00400  3.505E-03    0   0.7851   age104_m42            0.0000     1.2298E+02     6.3100   3.3134    94.1773
 60      0.0000     0.0000E+00    0.0000E+00    5.500000E+07  0.00400  3.059E-03    0   0.7629   age110_m42            0.0000     2.2289E+02     5.5988   3.2721    98.8647
 61      0.0000     0.0000E+00    0.0000E+00    1.015200E+08  0.00400  2.268E-03    0   0.7207   age116_m42            0.0000     5.6313E+02     9.3931   3.0554   104.3797
 62      0.0000     0.0000E+00    0.0000E+00    1.609000E+08  0.00400  1.720E-03    0   0.6930   age120_m42            0.0000     6.0583E+02    10.2534   2.8758   106.4760
 63      0.0000     0.0000E+00    0.0000E+00    2.861200E+08  0.00400  1.079E-03    0   0.6613   age125_m42            0.0000     6.0394E+02    11.2425   2.4812   107.1474
 64      0.0000     0.0000E+00    0.0000E+00    5.088000E+08  0.00400  6.261E-04    0   0.6313   age130_m42            0.0000     6.7858E+02    12.4357   2.2564   110.0386
 65      0.0000     0.0000E+00    0.0000E+00    9.047900E+08  0.00400  3.535E-04    0   0.6024   age135_m42            0.0000     4.3040E+02    10.6174   1.8869   110.3307
 66      0.0000     0.0000E+00    0.0000E+00    1.278050E+09  0.00400  2.677E-04    0   0.5837   age138_m42            0.0000     1.4976E+02     8.1088   1.2131   108.8493
 67      0.0000     0.0000E+00    0.0000E+00    1.434000E+09  0.00400  1.910E-04    0   0.5716   age139_m42            0.0000     2.0926E+02     8.5538   1.3739   109.6191
 68      0.0000     0.0000E+00    0.0000E+00    2.500000E+09  0.00400  9.818E-05    0   0.5463   age150_m42            0.0000     5.8158E+01     5.6456   1.1684   105.0334
 69      0.0000     0.0000E+00    0.0000E+00    4.250000E+09  0.00400  5.491E-05    0   0.5269   age158_m42            0.0000     2.9031E+01     4.4904   1.0834   102.1767
 70      0.0000     0.0000E+00    0.0000E+00    6.250000E+09  0.00400  3.857E-05    0   0.5151   age166_m42            0.0000     3.2627E+01     4.7886   0.9592   101.0643
 71      0.0000     0.0000E+00    0.0000E+00    7.500000E+09  0.00400  3.243E-05    0   0.5110   age171_m42            0.0000     4.0888E+01     5.1868   0.8765   100.6545
 72      0.0000     0.0000E+00    0.0000E+00    1.000000E+10  0.00400  2.424E-05    0   0.5028   age181_m42            0.0000     5.8028E+01     5.6773   0.7938   100.1601
 73      0.0000     0.0000E+00    0.0000E+00    1.300000E+10  0.00400  1.883E-05    0   0.4927   age193_m42            0.0000     7.6730E+01     5.9416   0.7568    99.8880
 74      0.0000     0.0000E+00    0.0000E+00    1.500000E+10  0.00400  1.685E-05    0   0.4919   age201_m42            0.0000     7.0869E+01     5.8004   0.7633    99.8788
 75      0.0000     0.0000E+00    0.0000E+00    1.800000E+10  0.00400  1.452E-05    0   0.4874   age213_m42            0.0000     6.1406E+01     5.5612   0.7814   100.0953
 76      0.0000     0.0000E+00    0.0000E+00    1.000000E+06  0.00800  1.286E-02    0   1.0000   age020_m52            0.0000     9.1592E+02    30.8429   4.0000    81.3387
 77      0.0000     0.0000E+00    0.0000E+00    3.160000E+06  0.00800  3.147E-02    0   0.9966   age045_m52            0.0000     8.1783E+02    28.8731   4.0000    82.8719
 78      0.0000     0.0000E+00    0.0000E+00    5.010000E+06  0.00800  2.664E-02    0   0.9443   age055_m52            0.0000     4.7184E+02    20.0556   4.0000    86.8132
 79      0.0000     0.0000E+00    0.0000E+00    6.610000E+06  0.00800  2.151E-02    0   0.9177   age061_m52            0.0000     1.1706E+02     7.4496   3.3984    91.3404
 80      0.0000     0.0000E+00    0.0000E+00    8.710000E+06  0.00800  1.628E-02    0   0.8948   age067_m52            0.0000     1.4904E+02     7.7206   3.7702    91.1643
 81      0.0000     0.0000E+00    0.0000E+00    1.000000E+07  0.00800  1.215E-02    0   0.8827   age070_m52            0.0000     1.8126E+02     7.8733   4.0000    89.8679
 82      0.0000     0.0000E+00    0.0000E+00    1.445000E+07  0.00800  8.739E-03    0   0.8552   age078_m52            0.0000     1.8500E+02     7.5650   4.0000    91.2366
 83      0.0000     0.0000E+00    0.0000E+00    2.512000E+07  0.00800  5.676E-03    0   0.8162   age090_m52            0.0000     2.1182E+02     6.7455   3.7055    94.7823
 84      0.0000     0.0000E+00    0.0000E+00    4.000000E+07  0.00800  3.939E-03    0   0.7841   age104_m52            0.0000     2.5196E+02     6.2276   3.4930    97.4487
 85      0.0000     0.0000E+00    0.0000E+00    5.500000E+07  0.00800  3.155E-03    0   0.7627   age110_m52            0.0000     3.1149E+02     6.3863   3.4190    99.4785
 86      0.0000     0.0000E+00    0.0000E+00    1.015200E+08  0.00800  2.206E-03    0   0.7226   age116_m52            0.0000     4.5705E+02     8.0949   3.1486   104.0708
 87      0.0000     0.0000E+00    0.0000E+00    1.609000E+08  0.00800  1.596E-03    0   0.6963   age120_m52            0.0000     5.2374E+02     9.2975   2.8891   106.1435
 88      0.0000     0.0000E+00    0.0000E+00    2.861200E+08  0.00800  1.002E-03    0   0.6665   age125_m52            0.0000     7.0593E+02    12.4065   2.4744   110.0900
 89      0.0000     0.0000E+00    0.0000E+00    5.088000E+08  0.00800  5.759E-04    0   0.6377   age130_m52            0.0000     7.2012E+02    13.7074   2.0495   115.2472
 90      0.0000     0.0000E+00    0.0000E+00    9.047900E+08  0.00800  2.972E-04    0   0.6086   age135_m52            0.0000     3.9149E+02    12.4915   1.4982   114.5400
 91      0.0000     0.0000E+00    0.0000E+00    1.278050E+09  0.00800  2.242E-04    0   0.5907   age138_m52            0.0000     1.4183E+02     9.0415   0.9866   112.8126
 92      0.0000     0.0000E+00    0.0000E+00    1.434000E+09  0.00800  1.645E-04    0   0.5787   age139_m52            0.0000     1.2731E+02     8.1635   1.1661   111.8877
 93      0.0000     0.0000E+00    0.0000E+00    2.500000E+09  0.00800  7.723E-05    0   0.5519   age150_m52            0.0000     6.2419E+01     6.5333   0.8833   108.1216
 94      0.0000     0.0000E+00    0.0000E+00    4.250000E+09  0.00800  4.151E-05    0   0.5320   age158_m52            0.0000     5.3280E+01     6.0476   0.8345   105.4042
 95      0.0000     0.0000E+00    0.0000E+00    6.250000E+09  0.00800  3.010E-05    0   0.5197   age166_m52            0.0000     7.7874E+01     6.6867   0.6368   104.3081
 96      0.0000     0.0000E+00    0.0000E+00    7.500000E+09  0.00800  2.467E-05    0   0.5139   age171_m52            0.0000     8.8347E+01     6.9488   0.5916   103.9932
 97     22.8380     3.6024E+01    3.6080E+01    1.000000E+10  0.00800  1.862E-05    0   0.5054   age181_m52            0.0000     1.2514E+02     7.8591   0.4429   103.9541
