###################################################################
## OUTPUT of StarlightChains_v04.for    [Cid@UFSC - 01/Apr/2007] ##
###################################################################

## Some input info
NGC6528_a_2.cxt                          [arq_obs]
Base.BC03.S                              [arq_base]
NGC6528_a_2.msk                          [arq_masks]
StCv04.C99.config                        [arq_config]
  150                                    [N_base]
    0                                    [N_YAV_components = # of components with extra extinction!]
    0                                    [i_FitPowerLaw (1/0 = Yes/No)]
-9.99                                    [alpha_PowerLaw]
CCM                                      [red_law_option]
 1.458241                                [q_norm = A(l_norm)/A(V)]

## (Re)Sampling Parameters
 3359.00                                 [l_ini (A)]
 6428.00                                 [l_fin (A)]
    1.00                                 [dl    (A)]     (OBS: dl_cushion =    50.00 A)

## Normalization info
 4020.00                                 [l_norm (A) - for base]
 4010.00                                 [llow_norm (A) - window for f_obs]
 4060.00                                 [lupp_norm (A) - window for f_obs]
4.643135E-15                             [fobs_norm (in input units)]

## S/N
 4730.00                                 [llow_SN (A) - window for S/N]
 4780.00                                 [lupp_SN (A) - window for S/N]
  27.089                                 [S/N in S/N window]
  13.711                                 [S/N in norm. window]
 346.459                                 [S/N_err in S/N window]
 175.352                                 [S/N_err in norm. window]
  1.0000                                 [fscale_chi2]

## etc...
  2147483605                             [idum_orig]
  3065                                   [NOl_eff]
  1232                                   [Nl_eff]
  1833    NSIGMA                         [Ntot_cliped & clip_method]
  4202170                                [Nglobal_steps]
   7                                     [N_chains]
  20                                     [NEX0s_base = N_base in EX0s-fits]
 0   0   1      164   2.0   3.957E+02    [Clip-Bug, RC-Crash & Burn-In warning-flags, n_censored_weights, wei_nsig_threshold & wei_limit]
   178    178.069    178.069      0.000  [idt_all, wdt_TotTime, wdt_UsrTime & wdt_SysTime (sec)]

## Synthesis Results - Best model ##

 2.18481E+00                             [chi2/Nl_eff]
     1.84784                             [adev (%)]

    99.00138                             [sum-of-x (%)]
 4.41023E-14                             [Flux_tot (units of input spectrum!)]
 3.92340E-09                             [Mini_tot (???)]
 1.96108E-09                             [Mcor_tot (???)]

   6.42                                  [v0_min  (km/s)]
  16.97                                  [vd_min  (km/s)]
 1.6836                                  [AV_min  (mag)]
 0.0000                                  [YAV_min (mag)]

# j     x_j(%)      Mini_j(%)     Mcor_j(%)     age_j(yr)     Z_j      (L/M)_j    YAV?  Mstars   component_j        a/Fe...       SSP_chi2r SSP_adev(%)   SSP_AV   SSP_x(%)
  1      5.1964     7.2306E-03    1.4466E-02    1.000000E+06  0.00010  8.160E-03    0   1.0000   age020_m22            0.0000     3.4516E+03    45.0686   4.0000    93.9922
  2      7.6118     1.8161E-03    3.6333E-03    3.160000E+06  0.00010  4.759E-02    0   1.0000   age045_m22            0.0000     4.0537E+02    10.5631   4.0000   100.8647
  3      8.7057     5.1163E-03    9.8079E-03    5.010000E+06  0.00010  1.932E-02    0   0.9582   age055_m22            0.0000     7.3289E+02    14.3364   4.0000    93.2593
  4      0.0000     0.0000E+00    0.0000E+00    6.610000E+06  0.00010  9.973E-03    0   0.9297   age061_m22            0.0000     3.4022E+03    44.4763   4.0000    96.7681
  5      0.0000     0.0000E+00    0.0000E+00    8.710000E+06  0.00010  7.690E-03    0   0.9030   age067_m22            0.0000     3.3309E+03    44.1532   4.0000    97.2823
  6      0.0000     0.0000E+00    0.0000E+00    1.000000E+07  0.00010  6.375E-03    0   0.8902   age070_m22            0.0000     3.3055E+03    44.1932   4.0000    97.4501
  7      0.0000     0.0000E+00    0.0000E+00    1.445000E+07  0.00010  4.874E-03    0   0.8589   age078_m22            0.0000     2.7315E+03    40.2609   4.0000   100.8855
  8      0.0000     0.0000E+00    0.0000E+00    2.512000E+07  0.00010  4.103E-03    0   0.8174   age090_m22            0.0000     1.7217E+03    31.2529   4.0000   107.1049
  9      0.0000     0.0000E+00    0.0000E+00    4.000000E+07  0.00010  3.654E-03    0   0.7830   age104_m22            0.0000     1.2418E+03    24.4325   4.0000   110.2368
 10      0.0000     0.0000E+00    0.0000E+00    5.500000E+07  0.00010  3.093E-03    0   0.7597   age110_m22            0.0000     1.1092E+03    22.2095   4.0000   110.7418
 11      0.0000     0.0000E+00    0.0000E+00    1.015200E+08  0.00010  2.431E-03    0   0.7138   age116_m22            0.0000     8.8441E+02    16.3060   4.0000   110.0627
 12      0.0000     0.0000E+00    0.0000E+00    1.609000E+08  0.00010  1.319E-03    0   0.6775   age120_m22            0.0000     6.9381E+02    10.5298   4.0000   106.0069
 13      0.0000     0.0000E+00    0.0000E+00    2.861200E+08  0.00010  1.075E-03    0   0.6412   age125_m22            0.0000     1.0466E+03    13.7135   4.0000   108.7464
 14      0.0000     0.0000E+00    0.0000E+00    5.088000E+08  0.00010  7.183E-04    0   0.6083   age130_m22            0.0000     1.1432E+03    13.3991   3.9114   107.6518
 15      0.0000     0.0000E+00    0.0000E+00    9.047900E+08  0.00010  4.524E-04    0   0.5785   age135_m22            0.0000     1.1358E+03    13.4618   3.7026   108.9217
 16      0.0000     0.0000E+00    0.0000E+00    1.278050E+09  0.00010  3.018E-04    0   0.5588   age138_m22            0.0000     7.5258E+02    11.0505   3.1935   107.4453
 17      0.0000     0.0000E+00    0.0000E+00    1.434000E+09  0.00010  2.691E-04    0   0.5532   age139_m22            0.0000     6.7910E+02    10.5987   3.0444   106.8509
 18      0.0000     0.0000E+00    0.0000E+00    2.500000E+09  0.00010  1.582E-04    0   0.5296   age150_m22            0.0000     6.4434E+02    10.5495   2.9535   107.8815
 19      0.0000     0.0000E+00    0.0000E+00    4.250000E+09  0.00010  1.007E-04    0   0.5110   age158_m22            0.0000     5.0498E+02     9.9025   2.8256   106.3578
 20      0.0000     0.0000E+00    0.0000E+00    6.250000E+09  0.00010  6.869E-05    0   0.4985   age166_m22            0.0000     3.9621E+02     9.5155   2.7945   103.6746
 21      0.0000     0.0000E+00    0.0000E+00    7.500000E+09  0.00010  5.873E-05    0   0.4931   age171_m22            0.0000     3.8703E+02     9.6766   2.7931   103.2108
 22      0.0000     0.0000E+00    0.0000E+00    1.000000E+10  0.00010  4.481E-05    0   0.4854   age181_m22            0.0000     3.7832E+02     9.5667   2.7530   102.8096
 23      0.0000     0.0000E+00    0.0000E+00    1.300000E+10  0.00010  3.489E-05    0   0.4791   age193_m22            0.0000     3.5866E+02     9.3348   2.6918   102.2619
 24      0.0000     0.0000E+00    0.0000E+00    1.500000E+10  0.00010  3.035E-05    0   0.4766   age201_m22            0.0000     3.4602E+02     9.2217   2.6511   102.1278
 25      0.0000     0.0000E+00    0.0000E+00    1.800000E+10  0.00010  2.510E-05    0   0.4735   age213_m22            0.0000     3.2035E+02     9.0228   2.5831   101.5788
 26      2.8799     3.8661E-03    7.7346E-03    1.000000E+06  0.00040  8.458E-03    0   1.0000   age020_m32            0.0000     3.4740E+03    45.2574   4.0000    94.5815
 27      0.0039     1.1007E-06    2.2021E-06    3.160000E+06  0.00040  3.973E-02    0   1.0000   age045_m32            0.0000     1.6019E+03    29.4405   4.0000   106.8210
 28      0.0000     0.0000E+00    0.0000E+00    5.010000E+06  0.00040  1.935E-02    0   0.9532   age055_m32            0.0000     2.3258E+03    35.6950   4.0000   100.8873
 29      0.0000     0.0000E+00    0.0000E+00    6.610000E+06  0.00040  1.204E-02    0   0.9243   age061_m32            0.0000     2.9746E+03    41.5437   4.0000    99.2297
 30      0.0000     0.0000E+00    0.0000E+00    8.710000E+06  0.00040  9.433E-03    0   0.9001   age067_m32            0.0000     2.8380E+03    40.7278   4.0000   100.2999
 31      0.0000     0.0000E+00    0.0000E+00    1.000000E+07  0.00040  8.053E-03    0   0.8877   age070_m32            0.0000     2.7374E+03    39.9703   4.0000   100.8083
 32      0.0000     0.0000E+00    0.0000E+00    1.445000E+07  0.00040  7.027E-03    0   0.8578   age078_m32            0.0000     1.6434E+03    29.2174   4.0000   105.0638
 33      0.0000     0.0000E+00    0.0000E+00    2.512000E+07  0.00040  4.707E-03    0   0.8166   age090_m32            0.0000     1.1447E+03    22.5622   4.0000   107.0600
 34      0.0000     0.0000E+00    0.0000E+00    4.000000E+07  0.00040  3.714E-03    0   0.7827   age104_m32            0.0000     9.0938E+02    17.9272   4.0000   108.4718
 35      0.0000     0.0000E+00    0.0000E+00    5.500000E+07  0.00040  2.982E-03    0   0.7593   age110_m32            0.0000     8.6829E+02    16.7064   4.0000   108.8148
 36      0.0000     0.0000E+00    0.0000E+00    1.015200E+08  0.00040  2.188E-03    0   0.7143   age116_m32            0.0000     8.4855E+02    13.7615   4.0000   109.1287
 37      0.0000     0.0000E+00    0.0000E+00    1.609000E+08  0.00040  1.690E-03    0   0.6856   age120_m32            0.0000     9.3053E+02    12.7090   4.0000   108.3861
 38      0.0000     0.0000E+00    0.0000E+00    2.861200E+08  0.00040  1.152E-03    0   0.6509   age125_m32            0.0000     1.0527E+03    12.7566   3.9173   107.1870
 39      0.0000     0.0000E+00    0.0000E+00    5.088000E+08  0.00040  7.331E-04    0   0.6182   age130_m32            0.0000     1.0849E+03    13.1491   3.7287   107.8561
 40      0.0000     0.0000E+00    0.0000E+00    9.047900E+08  0.00040  3.960E-04    0   0.5890   age135_m32            0.0000     7.6591E+02    11.2449   3.2705   106.6265
 41      0.0000     0.0000E+00    0.0000E+00    1.278050E+09  0.00040  2.854E-04    0   0.5687   age138_m32            0.0000     6.7838E+02    10.6907   3.0074   108.9721
 42      0.0000     0.0000E+00    0.0000E+00    1.434000E+09  0.00040  2.531E-04    0   0.5632   age139_m32            0.0000     6.6559E+02    10.6185   2.9467   108.9399
 43      0.0000     0.0000E+00    0.0000E+00    2.500000E+09  0.00040  1.488E-04    0   0.5386   age150_m32            0.0000     5.4652E+02     9.8975   2.6991   107.0214
 44      0.0000     0.0000E+00    0.0000E+00    4.250000E+09  0.00040  9.082E-05    0   0.5199   age158_m32            0.0000     3.6564E+02     8.9025   2.6342   103.8331
 45      0.0000     0.0000E+00    0.0000E+00    6.250000E+09  0.00040  6.362E-05    0   0.5076   age166_m32            0.0000     2.7233E+02     8.7805   2.6319   100.7378
 46      0.0000     0.0000E+00    0.0000E+00    7.500000E+09  0.00040  5.289E-05    0   0.5027   age171_m32            0.0000     2.5141E+02     8.5800   2.5958    99.4385
 47      0.0000     0.0000E+00    0.0000E+00    1.000000E+10  0.00040  3.972E-05    0   0.4948   age181_m32            0.0000     2.3219E+02     8.2543   2.5278    97.9543
 48      0.0000     0.0000E+00    0.0000E+00    1.300000E+10  0.00040  3.283E-05    0   0.4870   age193_m32            0.0000     2.6546E+02     8.0842   2.4597   100.7092
 49      0.0001     3.9583E-05    3.8440E-05    1.500000E+10  0.00040  2.925E-05    0   0.4854   age201_m32            0.0000     2.9228E+02     8.1412   2.4273   102.3413
 50      0.0000     0.0000E+00    0.0000E+00    1.800000E+10  0.00040  2.469E-05    0   0.4819   age213_m32            0.0000     2.9849E+02     8.0662   2.3770   102.8951
 51      1.7020     1.7347E-03    3.4706E-03    1.000000E+06  0.00400  1.114E-02    0   1.0000   age020_m42            0.0000     3.2866E+03    43.8794   4.0000    95.1765
 52      0.0000     0.0000E+00    0.0000E+00    3.160000E+06  0.00400  4.073E-02    0   0.9999   age045_m42            0.0000     1.0712E+03    22.8359   4.0000   107.2922
 53      0.0000     0.0000E+00    0.0000E+00    5.010000E+06  0.00400  2.534E-02    0   0.9488   age055_m42            0.0000     1.8769E+03    32.2114   4.0000   103.1774
 54      0.0000     0.0000E+00    0.0000E+00    6.610000E+06  0.00400  2.583E-02    0   0.9220   age061_m42            0.0000     8.9546E+02    18.9926   4.0000   106.5247
 55      0.0000     0.0000E+00    0.0000E+00    8.710000E+06  0.00400  1.706E-02    0   0.8983   age067_m42            0.0000     7.9577E+02    16.1173   4.0000   103.4707
 56      0.0000     0.0000E+00    0.0000E+00    1.000000E+07  0.00400  1.271E-02    0   0.8862   age070_m42            0.0000     8.5528E+02    16.4361   4.0000   102.1113
 57      0.0000     0.0000E+00    0.0000E+00    1.445000E+07  0.00400  7.666E-03    0   0.8571   age078_m42            0.0000     1.3903E+03    25.2200   4.0000   101.7482
 58      0.0000     0.0000E+00    0.0000E+00    2.512000E+07  0.00400  5.070E-03    0   0.8174   age090_m42            0.0000     6.9648E+02    13.5084   4.0000   102.4297
 59      0.0000     0.0000E+00    0.0000E+00    4.000000E+07  0.00400  3.505E-03    0   0.7851   age104_m42            0.0000     4.4501E+02    10.3294   4.0000   101.1890
 60      0.0000     0.0000E+00    0.0000E+00    5.500000E+07  0.00400  3.059E-03    0   0.7629   age110_m42            0.0000     5.4284E+02     9.3984   4.0000   105.0724
 61      0.0000     0.0000E+00    0.0000E+00    1.015200E+08  0.00400  2.268E-03    0   0.7207   age116_m42            0.0000     8.0524E+02    11.2914   4.0000   107.7499
 62      0.0000     0.0000E+00    0.0000E+00    1.609000E+08  0.00400  1.720E-03    0   0.6930   age120_m42            0.0000     8.3258E+02    11.3735   3.9054   108.4217
 63      0.0000     0.0000E+00    0.0000E+00    2.861200E+08  0.00400  1.079E-03    0   0.6613   age125_m42            0.0000     8.1873E+02    11.2081   3.5254   108.8661
 64      0.0000     0.0000E+00    0.0000E+00    5.088000E+08  0.00400  6.261E-04    0   0.6313   age130_m42            0.0000     8.6656E+02    11.5952   3.3244   112.1116
 65      0.0000     0.0000E+00    0.0000E+00    9.047900E+08  0.00400  3.535E-04    0   0.6024   age135_m42            0.0000     6.0652E+02     9.8807   2.9252   112.6341
 66      0.0000     0.0000E+00    0.0000E+00    1.278050E+09  0.00400  2.677E-04    0   0.5837   age138_m42            0.0000     2.5447E+02     7.8232   2.1915   109.4050
 67      0.0000     0.0000E+00    0.0000E+00    1.434000E+09  0.00400  1.910E-04    0   0.5716   age139_m42            0.0000     3.3762E+02     8.2468   2.3702   110.4443
 68      1.1097     1.2834E-01    1.4027E-01    2.500000E+09  0.00400  9.818E-05    0   0.5463   age150_m42            0.0000     1.5000E+02     6.1080   2.1212   105.1021
 69      0.0000     0.0000E+00    0.0000E+00    4.250000E+09  0.00400  5.491E-05    0   0.5269   age158_m42            0.0000     8.8715E+01     4.9252   2.0171   102.0762
 70      0.0000     0.0000E+00    0.0000E+00    6.250000E+09  0.00400  3.857E-05    0   0.5151   age166_m42            0.0000     6.3866E+01     4.7834   1.8759   100.6300
 71      0.8370     2.9305E-01    2.9960E-01    7.500000E+09  0.00400  3.243E-05    0   0.5110   age171_m42            0.0000     5.5949E+01     4.9430   1.7850    99.9805
 72      0.0000     0.0000E+00    0.0000E+00    1.000000E+10  0.00400  2.424E-05    0   0.5028   age181_m42            0.0000     4.9316E+01     5.1291   1.6941    99.2086
 73      0.0000     0.0000E+00    0.0000E+00    1.300000E+10  0.00400  1.883E-05    0   0.4927   age193_m42            0.0000     4.5517E+01     5.2422   1.6503    98.7858
 74      0.1056     7.1180E-02    7.0049E-02    1.500000E+10  0.00400  1.685E-05    0   0.4919   age201_m42            0.0000     4.5141E+01     5.1463   1.6580    98.8137
 75      0.0435     3.3978E-02    3.3133E-02    1.800000E+10  0.00400  1.452E-05    0   0.4874   age213_m42            0.0000     4.4819E+01     5.0041   1.6786    99.1025
 76      0.0000     0.0000E+00    0.0000E+00    1.000000E+06  0.00800  1.286E-02    0   1.0000   age020_m52            0.0000     3.1254E+03    43.0885   4.0000    97.2102
 77      0.0000     0.0000E+00    0.0000E+00    3.160000E+06  0.00800  3.147E-02    0   0.9966   age045_m52            0.0000     2.9577E+03    41.5579   4.0000    98.9679
 78      0.0000     0.0000E+00    0.0000E+00    5.010000E+06  0.00800  2.664E-02    0   0.9443   age055_m52            0.0000     2.1487E+03    34.7505   4.0000   102.6397
 79      0.0000     0.0000E+00    0.0000E+00    6.610000E+06  0.00800  2.151E-02    0   0.9177   age061_m52            0.0000     4.4019E+02    11.0040   4.0000    99.4726
 80      0.0000     0.0000E+00    0.0000E+00    8.710000E+06  0.00800  1.628E-02    0   0.8948   age067_m52            0.0000     7.6968E+02    15.3933   4.0000   103.7414
 81      0.0000     0.0000E+00    0.0000E+00    1.000000E+07  0.00800  1.215E-02    0   0.8827   age070_m52            0.0000     1.1899E+03    22.9594   4.0000   104.7294
 82      0.0000     0.0000E+00    0.0000E+00    1.445000E+07  0.00800  8.739E-03    0   0.8552   age078_m52            0.0000     1.2049E+03    23.3887   4.0000   106.4336
 83      0.0000     0.0000E+00    0.0000E+00    2.512000E+07  0.00800  5.676E-03    0   0.8162   age090_m52            0.0000     7.9427E+02    14.9164   4.0000   107.3896
 84      0.0000     0.0000E+00    0.0000E+00    4.000000E+07  0.00800  3.939E-03    0   0.7841   age104_m52            0.0000     6.9967E+02    11.8384   4.0000   107.3959
 85      0.0000     0.0000E+00    0.0000E+00    5.500000E+07  0.00800  3.155E-03    0   0.7627   age110_m52            0.0000     7.1377E+02    11.6353   4.0000   108.3388
 86      0.0000     0.0000E+00    0.0000E+00    1.015200E+08  0.00800  2.206E-03    0   0.7226   age116_m52            0.0000     7.3682E+02    10.8127   4.0000   109.0288
 87      0.0000     0.0000E+00    0.0000E+00    1.609000E+08  0.00800  1.596E-03    0   0.6963   age120_m52            0.0000     7.6802E+02    10.8914   3.8995   108.6928
 88      0.0000     0.0000E+00    0.0000E+00    2.861200E+08  0.00800  1.002E-03    0   0.6665   age125_m52            0.0000     9.0063E+02    12.1992   3.5300   111.3086
 89      0.0000     0.0000E+00    0.0000E+00    5.088000E+08  0.00800  5.759E-04    0   0.6377   age130_m52            0.0000     8.7918E+02    12.8383   3.1332   115.5258
 90      0.0000     0.0000E+00    0.0000E+00    9.047900E+08  0.00800  2.972E-04    0   0.6086   age135_m52            0.0000     5.4920E+02    11.1027   2.5817   113.6322
 91      0.0000     0.0000E+00    0.0000E+00    1.278050E+09  0.00800  2.242E-04    0   0.5907   age138_m52            0.0000     2.2672E+02     8.3378   1.9919   111.6511
 92      0.0000     0.0000E+00    0.0000E+00    1.434000E+09  0.00800  1.645E-04    0   0.5787   age139_m52            0.0000     2.2846E+02     7.7222   2.1633   111.1231
 93      0.0000     0.0000E+00    0.0000E+00    2.500000E+09  0.00800  7.723E-05    0   0.5519   age150_m52            0.0000     1.0285E+02     6.1243   1.8412   107.0484
 94      0.0000     0.0000E+00    0.0000E+00    4.250000E+09  0.00800  4.151E-05    0   0.5320   age158_m52            0.0000     7.4515E+01     5.4824   1.7791   104.4999
 95      0.0000     0.0000E+00    0.0000E+00    6.250000E+09  0.00800  3.010E-05    0   0.5197   age166_m52            0.0000     5.5278E+01     5.6001   1.5690   102.8598
 96      2.0328     9.3557E-01    9.6188E-01    7.500000E+09  0.00800  2.467E-05    0   0.5139   age171_m52            0.0000     5.4228E+01     5.7891   1.5210   102.3955
 97      6.2634     3.8193E+00    3.8618E+00    1.000000E+10  0.00800  1.862E-05    0   0.5054   age181_m52            0.0000     5.8168E+01     6.5753   1.3697   101.8390
