###################################################################
## OUTPUT of StarlightChains_v04.for    [Cid@UFSC - 01/Apr/2007] ##
###################################################################

## Some input info
NGC6316_b_1.cxt                          [arq_obs]
Base.BC03.S                              [arq_base]
NGC6316_b_1.msk                          [arq_masks]
StCv04.C99.config                        [arq_config]
  150                                    [N_base]
    0                                    [N_YAV_components = # of components with extra extinction!]
    0                                    [i_FitPowerLaw (1/0 = Yes/No)]
-9.99                                    [alpha_PowerLaw]
CCM                                      [red_law_option]
 1.458241                                [q_norm = A(l_norm)/A(V)]

## (Re)Sampling Parameters
 3359.00                                 [l_ini (A)]
 6428.00                                 [l_fin (A)]
    1.00                                 [dl    (A)]     (OBS: dl_cushion =    50.00 A)

## Normalization info
 4020.00                                 [l_norm (A) - for base]
 4010.00                                 [llow_norm (A) - window for f_obs]
 4060.00                                 [lupp_norm (A) - window for f_obs]
4.941922E-15                             [fobs_norm (in input units)]

## S/N
 4730.00                                 [llow_SN (A) - window for S/N]
 4780.00                                 [lupp_SN (A) - window for S/N]
  40.026                                 [S/N in S/N window]
  23.956                                 [S/N in norm. window]
 311.877                                 [S/N_err in S/N window]
 186.662                                 [S/N_err in norm. window]
  1.0000                                 [fscale_chi2]

## etc...
  2147483617                             [idum_orig]
  3067                                   [NOl_eff]
  1173                                   [Nl_eff]
  1894    NSIGMA                         [Ntot_cliped & clip_method]
  5487160                                [Nglobal_steps]
   7                                     [N_chains]
  41                                     [NEX0s_base = N_base in EX0s-fits]
 0   0   1      128   2.0   4.322E+02    [Clip-Bug, RC-Crash & Burn-In warning-flags, n_censored_weights, wei_nsig_threshold & wei_limit]
   190    190.743    190.735      0.008  [idt_all, wdt_TotTime, wdt_UsrTime & wdt_SysTime (sec)]

## Synthesis Results - Best model ##

 2.91855E+00                             [chi2/Nl_eff]
     2.07417                             [adev (%)]

    95.53592                             [sum-of-x (%)]
 6.05368E-14                             [Flux_tot (units of input spectrum!)]
 2.19953E-09                             [Mini_tot (???)]
 1.10106E-09                             [Mcor_tot (???)]

 -12.00                                  [v0_min  (km/s)]
  27.74                                  [vd_min  (km/s)]
 1.8995                                  [AV_min  (mag)]
 0.0000                                  [YAV_min (mag)]

# j     x_j(%)      Mini_j(%)     Mcor_j(%)     age_j(yr)     Z_j      (L/M)_j    YAV?  Mstars   component_j        a/Fe...       SSP_chi2r SSP_adev(%)   SSP_AV   SSP_x(%)
  1      1.8033     6.3666E-03    1.2718E-02    1.000000E+06  0.00010  8.160E-03    0   1.0000   age020_m22            0.0000     2.8466E+03    34.8217   4.0000    97.6449
  2      7.8580     4.7569E-03    9.5026E-03    3.160000E+06  0.00010  4.759E-02    0   1.0000   age045_m22            0.0000     2.1699E+02     5.5866   3.4391    99.3286
  3     13.0319     1.9432E-02    3.7196E-02    5.010000E+06  0.00010  1.932E-02    0   0.9582   age055_m22            0.0000     3.2364E+02    10.5846   3.8958    86.7337
  4      0.6144     1.7747E-03    3.2959E-03    6.610000E+06  0.00010  9.973E-03    0   0.9297   age061_m22            0.0000     2.8621E+03    34.0957   4.0000   100.5348
  5      0.6086     2.2800E-03    4.1129E-03    8.710000E+06  0.00010  7.690E-03    0   0.9030   age067_m22            0.0000     2.7777E+03    33.8015   4.0000   100.9498
  6      1.0534     4.7602E-03    8.4652E-03    1.000000E+07  0.00010  6.375E-03    0   0.8902   age070_m22            0.0000     2.7543E+03    33.9023   4.0000   101.1647
  7      0.9791     5.7874E-03    9.9299E-03    1.445000E+07  0.00010  4.874E-03    0   0.8589   age078_m22            0.0000     2.0353E+03    29.8832   4.0000   103.0863
  8      0.0000     0.0000E+00    0.0000E+00    2.512000E+07  0.00010  4.103E-03    0   0.8174   age090_m22            0.0000     9.4847E+02    20.9678   4.0000   105.5589
  9      0.0000     0.0000E+00    0.0000E+00    4.000000E+07  0.00010  3.654E-03    0   0.7830   age104_m22            0.0000     5.8326E+02    14.7892   4.0000   105.9179
 10      0.0000     0.0000E+00    0.0000E+00    5.500000E+07  0.00010  3.093E-03    0   0.7597   age110_m22            0.0000     5.1649E+02    13.2571   4.0000   105.4511
 11      0.0000     0.0000E+00    0.0000E+00    1.015200E+08  0.00010  2.431E-03    0   0.7138   age116_m22            0.0000     4.8479E+02     9.3073   4.0000   102.0286
 12      0.0000     0.0000E+00    0.0000E+00    1.609000E+08  0.00010  1.319E-03    0   0.6775   age120_m22            0.0000     4.7513E+02     8.8504   3.5610   103.2701
 13      0.0000     0.0000E+00    0.0000E+00    2.861200E+08  0.00010  1.075E-03    0   0.6412   age125_m22            0.0000     8.6445E+02    13.0205   3.5706   106.1502
 14      0.0000     0.0000E+00    0.0000E+00    5.088000E+08  0.00010  7.183E-04    0   0.6083   age130_m22            0.0000     9.9265E+02    14.2159   3.3304   107.3907
 15      0.0000     0.0000E+00    0.0000E+00    9.047900E+08  0.00010  4.524E-04    0   0.5785   age135_m22            0.0000     9.9983E+02    14.4597   3.1255   108.5600
 16      0.0000     0.0000E+00    0.0000E+00    1.278050E+09  0.00010  3.018E-04    0   0.5588   age138_m22            0.0000     6.0960E+02    11.4489   2.6356   106.8171
 17      0.0000     0.0000E+00    0.0000E+00    1.434000E+09  0.00010  2.691E-04    0   0.5532   age139_m22            0.0000     5.3641E+02    10.8565   2.4871   106.2411
 18      0.0000     0.0000E+00    0.0000E+00    2.500000E+09  0.00010  1.582E-04    0   0.5296   age150_m22            0.0000     4.9727E+02    10.0876   2.3917   107.1793
 19      0.0000     0.0000E+00    0.0000E+00    4.250000E+09  0.00010  1.007E-04    0   0.5110   age158_m22            0.0000     3.5481E+02     8.7889   2.2409   105.8264
 20      0.3273     1.3728E-01    1.3671E-01    6.250000E+09  0.00010  6.869E-05    0   0.4985   age166_m22            0.0000     2.3815E+02     7.3837   2.1870   103.3063
 21      0.0000     0.0000E+00    0.0000E+00    7.500000E+09  0.00010  5.873E-05    0   0.4931   age171_m22            0.0000     2.2503E+02     6.9611   2.1847   102.8075
 22      0.0000     0.0000E+00    0.0000E+00    1.000000E+10  0.00010  4.481E-05    0   0.4854   age181_m22            0.0000     2.1870E+02     6.9386   2.1455   102.4087
 23      0.1583     1.3074E-01    1.2513E-01    1.300000E+10  0.00010  3.489E-05    0   0.4791   age193_m22            0.0000     2.0419E+02     6.8646   2.0865   101.8299
 24      0.0135     1.2820E-02    1.2205E-02    1.500000E+10  0.00010  3.035E-05    0   0.4766   age201_m22            0.0000     1.9486E+02     6.7523   2.0481   101.6512
 25      0.0000     0.0000E+00    0.0000E+00    1.800000E+10  0.00010  2.510E-05    0   0.4735   age213_m22            0.0000     1.7397E+02     6.4601   1.9823   101.0435
 26      0.9095     3.0978E-03    6.1882E-03    1.000000E+06  0.00040  8.458E-03    0   1.0000   age020_m32            0.0000     2.9048E+03    35.0400   4.0000    98.4154
 27      0.0000     0.0000E+00    0.0000E+00    3.160000E+06  0.00040  3.973E-02    0   1.0000   age045_m32            0.0000     8.2466E+02    18.8891   4.0000   104.4594
 28      0.4506     6.7082E-04    1.2773E-03    5.010000E+06  0.00040  1.935E-02    0   0.9532   age055_m32            0.0000     1.5284E+03    24.5175   4.0000   101.3984
 29      0.0000     0.0000E+00    0.0000E+00    6.610000E+06  0.00040  1.204E-02    0   0.9243   age061_m32            0.0000     2.3170E+03    31.0220   4.0000   101.8841
 30      0.4362     1.3321E-03    2.3952E-03    8.710000E+06  0.00040  9.433E-03    0   0.9001   age067_m32            0.0000     2.1608E+03    30.2562   4.0000   102.6380
 31      0.0000     0.0000E+00    0.0000E+00    1.000000E+07  0.00040  8.053E-03    0   0.8877   age070_m32            0.0000     2.0378E+03    29.4748   4.0000   102.8479
 32      0.0000     0.0000E+00    0.0000E+00    1.445000E+07  0.00040  7.027E-03    0   0.8578   age078_m32            0.0000     8.4193E+02    18.2741   4.0000   102.8525
 33      0.0000     0.0000E+00    0.0000E+00    2.512000E+07  0.00040  4.707E-03    0   0.8166   age090_m32            0.0000     4.5078E+02    12.0005   4.0000   102.1841
 34      0.0000     0.0000E+00    0.0000E+00    4.000000E+07  0.00040  3.714E-03    0   0.7827   age104_m32            0.0000     3.6697E+02     8.7868   4.0000   101.6398
 35      0.0000     0.0000E+00    0.0000E+00    5.500000E+07  0.00040  2.982E-03    0   0.7593   age110_m32            0.0000     3.8419E+02     8.4163   4.0000   101.3859
 36      0.0000     0.0000E+00    0.0000E+00    1.015200E+08  0.00040  2.188E-03    0   0.7143   age116_m32            0.0000     5.8549E+02    10.3737   3.7871   103.3943
 37      0.0000     0.0000E+00    0.0000E+00    1.609000E+08  0.00040  1.690E-03    0   0.6856   age120_m32            0.0000     7.5036E+02    11.6924   3.5779   105.5991
 38      0.0000     0.0000E+00    0.0000E+00    2.861200E+08  0.00040  1.152E-03    0   0.6509   age125_m32            0.0000     8.9537E+02    13.3593   3.3244   107.0077
 39      0.0000     0.0000E+00    0.0000E+00    5.088000E+08  0.00040  7.331E-04    0   0.6182   age130_m32            0.0000     9.4444E+02    14.0953   3.1467   107.5797
 40      0.0000     0.0000E+00    0.0000E+00    9.047900E+08  0.00040  3.960E-04    0   0.5890   age135_m32            0.0000     6.1675E+02    12.2570   2.6926   106.3118
 41      0.0000     0.0000E+00    0.0000E+00    1.278050E+09  0.00040  2.854E-04    0   0.5687   age138_m32            0.0000     5.4463E+02    10.9180   2.4360   108.3015
 42      0.0000     0.0000E+00    0.0000E+00    1.434000E+09  0.00040  2.531E-04    0   0.5632   age139_m32            0.0000     5.3462E+02    10.6861   2.3843   108.1602
 43      0.0000     0.0000E+00    0.0000E+00    2.500000E+09  0.00040  1.488E-04    0   0.5386   age150_m32            0.0000     4.2400E+02     9.8866   2.1308   106.3559
 44      0.0000     0.0000E+00    0.0000E+00    4.250000E+09  0.00040  9.082E-05    0   0.5199   age158_m32            0.0000     2.2967E+02     7.6717   2.0436   103.3490
 45      7.9848     3.6157E+00    3.6663E+00    6.250000E+09  0.00040  6.362E-05    0   0.5076   age166_m32            0.0000     1.2715E+02     5.6553   2.0207   100.3132
 46      5.0823     2.7683E+00    2.7799E+00    7.500000E+09  0.00040  5.289E-05    0   0.5027   age171_m32            0.0000     1.0857E+02     5.4087   1.9823    99.0464
 47      0.0000     0.0000E+00    0.0000E+00    1.000000E+10  0.00040  3.972E-05    0   0.4948   age181_m32            0.0000     9.4283E+01     5.3732   1.9143    97.6164
 48      0.0000     0.0000E+00    0.0000E+00    1.300000E+10  0.00040  3.283E-05    0   0.4870   age193_m32            0.0000     1.3329E+02     6.2807   1.8654   100.1904
 49      0.0000     0.0000E+00    0.0000E+00    1.500000E+10  0.00040  2.925E-05    0   0.4854   age201_m32            0.0000     1.6494E+02     6.8468   1.8449   101.6934
 50      0.0000     0.0000E+00    0.0000E+00    1.800000E+10  0.00040  2.469E-05    0   0.4819   age213_m32            0.0000     1.7651E+02     7.0541   1.8051   102.1335
 51      0.0000     0.0000E+00    0.0000E+00    1.000000E+06  0.00400  1.114E-02    0   1.0000   age020_m42            0.0000     2.6510E+03    33.5859   4.0000    98.4963
 52      0.3533     2.4991E-04    4.9919E-04    3.160000E+06  0.00400  4.073E-02    0   0.9999   age045_m42            0.0000     3.9754E+02    12.4949   4.0000   102.3281
 53      0.0115     1.3040E-05    2.4716E-05    5.010000E+06  0.00400  2.534E-02    0   0.9488   age055_m42            0.0000     1.0552E+03    21.4300   4.0000   102.0899
 54      0.2187     2.4395E-04    4.4931E-04    6.610000E+06  0.00400  2.583E-02    0   0.9220   age061_m42            0.0000     3.1927E+02     9.2825   4.0000   100.1971
 55      0.0035     5.9271E-06    1.0636E-05    8.710000E+06  0.00400  1.706E-02    0   0.8983   age067_m42            0.0000     2.4996E+02     6.5108   4.0000    96.5552
 56      0.0000     0.0000E+00    0.0000E+00    1.000000E+07  0.00400  1.271E-02    0   0.8862   age070_m42            0.0000     2.6682E+02     7.4741   4.0000    95.7166
 57      0.0000     0.0000E+00    0.0000E+00    1.445000E+07  0.00400  7.666E-03    0   0.8571   age078_m42            0.0000     5.8979E+02    13.6753   4.0000    98.3780
 58      0.0002     1.4142E-06    2.3092E-06    2.512000E+07  0.00400  5.070E-03    0   0.8174   age090_m42            0.0000     2.0930E+02     7.1593   4.0000    94.8891
 59      0.0000     0.0000E+00    0.0000E+00    4.000000E+07  0.00400  3.505E-03    0   0.7851   age104_m42            0.0000     1.6416E+02     5.8643   3.6813    96.9845
 60      0.0000     0.0000E+00    0.0000E+00    5.500000E+07  0.00400  3.059E-03    0   0.7629   age110_m42            0.0000     2.9341E+02     6.2921   3.6642   101.2011
 61      0.0000     0.0000E+00    0.0000E+00    1.015200E+08  0.00400  2.268E-03    0   0.7207   age116_m42            0.0000     6.4848E+02    11.1211   3.4952   106.2309
 62      0.0000     0.0000E+00    0.0000E+00    1.609000E+08  0.00400  1.720E-03    0   0.6930   age120_m42            0.0000     6.9764E+02    12.0559   3.3244   107.9101
 63      0.0000     0.0000E+00    0.0000E+00    2.861200E+08  0.00400  1.079E-03    0   0.6613   age125_m42            0.0000     6.9470E+02    11.8747   2.9919   107.6096
 64      0.0000     0.0000E+00    0.0000E+00    5.088000E+08  0.00400  6.261E-04    0   0.6313   age130_m42            0.0000     7.7742E+02    12.4174   2.8019   110.5171
 65      0.0026     2.1053E-04    2.5334E-04    9.047900E+08  0.00400  3.535E-04    0   0.6024   age135_m42            0.0000     5.3153E+02    10.8656   2.4131   110.8154
 66      0.2213     2.3811E-02    2.7764E-02    1.278050E+09  0.00400  2.677E-04    0   0.5837   age138_m42            0.0000     2.5528E+02     9.5734   1.7449   107.1371
 67      0.0044     6.6054E-04    7.5424E-04    1.434000E+09  0.00400  1.910E-04    0   0.5716   age139_m42            0.0000     3.0752E+02     9.9512   1.8928   108.4716
 68      0.0000     0.0000E+00    0.0000E+00    2.500000E+09  0.00400  9.818E-05    0   0.5463   age150_m42            0.0000     1.3138E+02     8.3200   1.6210   103.4715
 69      0.7335     3.8486E-01    4.0509E-01    4.250000E+09  0.00400  5.491E-05    0   0.5269   age158_m42            0.0000     8.3474E+01     7.1823   1.5188   100.4750
 70      0.0000     0.0000E+00    0.0000E+00    6.250000E+09  0.00400  3.857E-05    0   0.5151   age166_m42            0.0000     8.4880E+01     7.5484   1.3872    98.9296
 71      0.0000     0.0000E+00    0.0000E+00    7.500000E+09  0.00400  3.243E-05    0   0.5110   age171_m42            0.0000     9.5889E+01     7.9196   1.3076    98.1947
 72      5.3701     6.3822E+00    6.4104E+00    1.000000E+10  0.00400  2.424E-05    0   0.5028   age181_m42            0.0000     1.1384E+02     8.3656   1.2297    97.3250
 73      7.8993     1.2085E+01    1.1895E+01    1.300000E+10  0.00400  1.883E-05    0   0.4927   age193_m42            0.0000     1.3049E+02     8.5645   1.1972    96.8207
 74      5.4917     9.3892E+00    9.2262E+00    1.500000E+10  0.00400  1.685E-05    0   0.4919   age201_m42            0.0000     1.2677E+02     8.3827   1.2063    96.8327
 75      2.9813     5.9152E+00    5.7594E+00    1.800000E+10  0.00400  1.452E-05    0   0.4874   age213_m42            0.0000     1.2064E+02     8.0773   1.2283    97.1173
 76      0.0000     0.0000E+00    0.0000E+00    1.000000E+06  0.00800  1.286E-02    0   1.0000   age020_m52            0.0000     2.4927E+03    32.8428   4.0000   100.2062
 77      0.0000     0.0000E+00    0.0000E+00    3.160000E+06  0.00800  3.147E-02    0   0.9966   age045_m52            0.0000     2.2911E+03    31.1911   4.0000   101.4671
 78      0.0000     0.0000E+00    0.0000E+00    5.010000E+06  0.00800  2.664E-02    0   0.9443   age055_m52            0.0000     1.3414E+03    24.1452   4.0000   102.3339
 79      0.0000     0.0000E+00    0.0000E+00    6.610000E+06  0.00800  2.151E-02    0   0.9177   age061_m52            0.0000     1.6824E+02     6.4205   3.7154    94.4444
 80      0.0000     0.0000E+00    0.0000E+00    8.710000E+06  0.00800  1.628E-02    0   0.8948   age067_m52            0.0000     2.3759E+02     6.7154   4.0000    96.4702
 81      0.0000     0.0000E+00    0.0000E+00    1.000000E+07  0.00800  1.215E-02    0   0.8827   age070_m52            0.0000     4.6359E+02    11.5810   4.0000   100.2008
 82      0.0000     0.0000E+00    0.0000E+00    1.445000E+07  0.00800  8.739E-03    0   0.8552   age078_m52            0.0000     4.8911E+02    12.3870   4.0000   101.8552
 83      0.0000     0.0000E+00    0.0000E+00    2.512000E+07  0.00800  5.676E-03    0   0.8162   age090_m52            0.0000     3.0681E+02     6.3161   4.0000    99.7522
 84      0.0000     0.0000E+00    0.0000E+00    4.000000E+07  0.00800  3.939E-03    0   0.7841   age104_m52            0.0000     3.4107E+02     6.2119   3.8728   100.6887
 85      0.0000     0.0000E+00    0.0000E+00    5.500000E+07  0.00800  3.155E-03    0   0.7627   age110_m52            0.0000     4.0596E+02     7.4253   3.8004   102.4660
 86      0.0000     0.0000E+00    0.0000E+00    1.015200E+08  0.00800  2.206E-03    0   0.7226   age116_m52            0.0000     5.4707E+02    10.2421   3.5492   106.5021
 87      0.0000     0.0000E+00    0.0000E+00    1.609000E+08  0.00800  1.596E-03    0   0.6963   age120_m52            0.0000     6.1288E+02    11.1413   3.3194   108.0086
 88      0.0000     0.0000E+00    0.0000E+00    2.861200E+08  0.00800  1.002E-03    0   0.6665   age125_m52            0.0000     7.9895E+02    13.2801   3.0097   109.8835
 89      0.0000     0.0000E+00    0.0000E+00    5.088000E+08  0.00800  5.759E-04    0   0.6377   age130_m52            0.0000     8.3073E+02    14.2752   2.6489   113.4525
 90      0.0000     0.0000E+00    0.0000E+00    9.047900E+08  0.00800  2.972E-04    0   0.6086   age135_m52            0.0000     5.2388E+02    13.1998   2.1043   111.7018
 91      0.0000     0.0000E+00    0.0000E+00    1.278050E+09  0.00800  2.242E-04    0   0.5907   age138_m52            0.0000     2.5495E+02    10.7858   1.5338   109.7372
 92      0.0000     0.0000E+00    0.0000E+00    1.434000E+09  0.00800  1.645E-04    0   0.5787   age139_m52            0.0000     2.2679E+02    10.1533   1.6814   109.4689
 93      0.0000     0.0000E+00    0.0000E+00    2.500000E+09  0.00800  7.723E-05    0   0.5519   age150_m52            0.0000     1.3540E+02     9.3015   1.3384   105.6296
 94      0.0000     0.0000E+00    0.0000E+00    4.250000E+09  0.00800  4.151E-05    0   0.5320   age158_m52            0.0000     1.1291E+02     8.9617   1.2689   103.0544
 95      0.0000     0.0000E+00    0.0000E+00    6.250000E+09  0.00800  3.010E-05    0   0.5197   age166_m52            0.0000     1.3003E+02     9.6344   1.0693   101.3688
 96      1.7305     2.0208E+00    2.0746E+00    7.500000E+09  0.00800  2.467E-05    0   0.5139   age171_m52            0.0000     1.3870E+02     9.9143   1.0241   100.9147
 97     16.6581     2.5773E+01    2.6021E+01    1.000000E+10  0.00800  1.862E-05    0   0.5054   age181_m52            0.0000     1.7345E+02    10.8543   0.8816   100.3770
