###################################################################
## OUTPUT of StarlightChains_v04.for    [Cid@UFSC - 01/Apr/2007] ##
###################################################################

## Some input info
NGC6528_c_2.cxt                          [arq_obs]
Base.BC03.S                              [arq_base]
NGC6528_c_2.msk                          [arq_masks]
StCv04.C99.config                        [arq_config]
  150                                    [N_base]
    0                                    [N_YAV_components = # of components with extra extinction!]
    0                                    [i_FitPowerLaw (1/0 = Yes/No)]
-9.99                                    [alpha_PowerLaw]
CCM                                      [red_law_option]
 1.458241                                [q_norm = A(l_norm)/A(V)]

## (Re)Sampling Parameters
 3359.00                                 [l_ini (A)]
 6428.00                                 [l_fin (A)]
    1.00                                 [dl    (A)]     (OBS: dl_cushion =    50.00 A)

## Normalization info
 4020.00                                 [l_norm (A) - for base]
 4010.00                                 [llow_norm (A) - window for f_obs]
 4060.00                                 [lupp_norm (A) - window for f_obs]
4.572307E-15                             [fobs_norm (in input units)]

## S/N
 4730.00                                 [llow_SN (A) - window for S/N]
 4780.00                                 [lupp_SN (A) - window for S/N]
  26.838                                 [S/N in S/N window]
  13.309                                 [S/N in norm. window]
 348.211                                 [S/N_err in S/N window]
 172.676                                 [S/N_err in norm. window]
  1.0000                                 [fscale_chi2]

## etc...
  2147483601                             [idum_orig]
  3066                                   [NOl_eff]
   532                                   [Nl_eff]
  2534    NSIGMA                         [Ntot_cliped & clip_method]
  4441710                                [Nglobal_steps]
   7                                     [N_chains]
  27                                     [NEX0s_base = N_base in EX0s-fits]
 0   0   1      162   2.0   3.907E+02    [Clip-Bug, RC-Crash & Burn-In warning-flags, n_censored_weights, wei_nsig_threshold & wei_limit]
   164    164.707    164.707      0.000  [idt_all, wdt_TotTime, wdt_UsrTime & wdt_SysTime (sec)]

## Synthesis Results - Best model ##

 2.89727E+00                             [chi2/Nl_eff]
     2.40400                             [adev (%)]

   104.51258                             [sum-of-x (%)]
 1.97748E-14                             [Flux_tot (units of input spectrum!)]
 2.32076E-09                             [Mini_tot (???)]
 1.15342E-09                             [Mcor_tot (???)]

   1.65                                  [v0_min  (km/s)]
 101.49                                  [vd_min  (km/s)]
 1.0575                                  [AV_min  (mag)]
 0.0000                                  [YAV_min (mag)]

# j     x_j(%)      Mini_j(%)     Mcor_j(%)     age_j(yr)     Z_j      (L/M)_j    YAV?  Mstars   component_j        a/Fe...       SSP_chi2r SSP_adev(%)   SSP_AV   SSP_x(%)
  1      3.8272     3.8239E-03    7.6940E-03    1.000000E+06  0.00010  8.160E-03    0   1.0000   age020_m22            0.0000     6.2698E+03    48.6751   4.0000    90.1469
  2      1.8467     3.1636E-04    6.3654E-04    3.160000E+06  0.00010  4.759E-02    0   1.0000   age045_m22            0.0000     8.6150E+02    14.5265   4.0000   101.0061
  3      1.2275     5.1800E-04    9.9867E-04    5.010000E+06  0.00010  1.932E-02    0   0.9582   age055_m22            0.0000     1.5550E+03    24.4148   4.0000    93.2218
  4      0.0000     0.0000E+00    0.0000E+00    6.610000E+06  0.00010  9.973E-03    0   0.9297   age061_m22            0.0000     6.2797E+03    48.0459   4.0000    92.9351
  5      0.0000     0.0000E+00    0.0000E+00    8.710000E+06  0.00010  7.690E-03    0   0.9030   age067_m22            0.0000     6.1481E+03    47.6112   4.0000    93.4929
  6      0.0000     0.0000E+00    0.0000E+00    1.000000E+07  0.00010  6.375E-03    0   0.8902   age070_m22            0.0000     6.1059E+03    47.4211   4.0000    93.7219
  7      0.0000     0.0000E+00    0.0000E+00    1.445000E+07  0.00010  4.874E-03    0   0.8589   age078_m22            0.0000     5.0843E+03    43.6718   4.0000    97.2919
  8      0.0000     0.0000E+00    0.0000E+00    2.512000E+07  0.00010  4.103E-03    0   0.8174   age090_m22            0.0000     3.3447E+03    34.9197   4.0000   103.6533
  9      0.0000     0.0000E+00    0.0000E+00    4.000000E+07  0.00010  3.654E-03    0   0.7830   age104_m22            0.0000     2.4932E+03    27.7244   4.0000   106.9557
 10      0.0000     0.0000E+00    0.0000E+00    5.500000E+07  0.00010  3.093E-03    0   0.7597   age110_m22            0.0000     2.2376E+03    25.2214   4.0000   107.7509
 11      0.0000     0.0000E+00    0.0000E+00    1.015200E+08  0.00010  2.431E-03    0   0.7138   age116_m22            0.0000     1.7933E+03    20.9897   4.0000   107.6901
 12      0.0000     0.0000E+00    0.0000E+00    1.609000E+08  0.00010  1.319E-03    0   0.6775   age120_m22            0.0000     1.2890E+03    17.7416   4.0000   105.0454
 13      0.0000     0.0000E+00    0.0000E+00    2.861200E+08  0.00010  1.075E-03    0   0.6412   age125_m22            0.0000     1.7435E+03    21.3735   4.0000   107.9161
 14      0.0000     0.0000E+00    0.0000E+00    5.088000E+08  0.00010  7.183E-04    0   0.6083   age130_m22            0.0000     1.7592E+03    21.7818   4.0000   106.3139
 15      0.0000     0.0000E+00    0.0000E+00    9.047900E+08  0.00010  4.524E-04    0   0.5785   age135_m22            0.0000     1.7248E+03    21.8889   4.0000   104.7339
 16      0.0000     0.0000E+00    0.0000E+00    1.278050E+09  0.00010  3.018E-04    0   0.5588   age138_m22            0.0000     1.2061E+03    18.4649   3.5218   102.9754
 17      0.1222     3.7011E-03    4.1195E-03    1.434000E+09  0.00010  2.691E-04    0   0.5532   age139_m22            0.0000     1.1048E+03    17.6666   3.3555   102.6772
 18      0.0000     0.0000E+00    0.0000E+00    2.500000E+09  0.00010  1.582E-04    0   0.5296   age150_m22            0.0000     1.0700E+03    17.6577   3.2920   103.2049
 19      0.0000     0.0000E+00    0.0000E+00    4.250000E+09  0.00010  1.007E-04    0   0.5110   age158_m22            0.0000     8.6982E+02    15.9319   3.1409   102.1681
 20      0.0000     0.0000E+00    0.0000E+00    6.250000E+09  0.00010  6.869E-05    0   0.4985   age166_m22            0.0000     7.0246E+02    14.3261   3.0883   100.1015
 21      0.0000     0.0000E+00    0.0000E+00    7.500000E+09  0.00010  5.873E-05    0   0.4931   age171_m22            0.0000     6.8562E+02    14.3035   3.0959    99.5960
 22      0.0000     0.0000E+00    0.0000E+00    1.000000E+10  0.00010  4.481E-05    0   0.4854   age181_m22            0.0000     6.7083E+02    14.1489   3.0499    99.3061
 23      0.0000     0.0000E+00    0.0000E+00    1.300000E+10  0.00010  3.489E-05    0   0.4791   age193_m22            0.0000     6.4244E+02    13.8079   2.9786    98.9143
 24      0.0000     0.0000E+00    0.0000E+00    1.500000E+10  0.00010  3.035E-05    0   0.4766   age201_m22            0.0000     6.2693E+02    13.6276   2.9343    98.8074
 25      0.0000     0.0000E+00    0.0000E+00    1.800000E+10  0.00010  2.510E-05    0   0.4735   age213_m22            0.0000     5.9240E+02    13.2386   2.8594    98.3544
 26      2.0950     2.0194E-03    4.0632E-03    1.000000E+06  0.00040  8.458E-03    0   1.0000   age020_m32            0.0000     6.3338E+03    48.6783   4.0000    90.7791
 27      0.0000     0.0000E+00    0.0000E+00    3.160000E+06  0.00040  3.973E-02    0   1.0000   age045_m32            0.0000     3.2101E+03    33.9146   4.0000   103.3851
 28      0.0000     0.0000E+00    0.0000E+00    5.010000E+06  0.00040  1.935E-02    0   0.9532   age055_m32            0.0000     4.4711E+03    40.8920   4.0000    97.4377
 29      0.0000     0.0000E+00    0.0000E+00    6.610000E+06  0.00040  1.204E-02    0   0.9243   age061_m32            0.0000     5.5402E+03    45.4377   4.0000    95.4273
 30      0.0000     0.0000E+00    0.0000E+00    8.710000E+06  0.00040  9.433E-03    0   0.9001   age067_m32            0.0000     5.3006E+03    44.5055   4.0000    96.5017
 31      0.0000     0.0000E+00    0.0000E+00    1.000000E+07  0.00040  8.053E-03    0   0.8877   age070_m32            0.0000     5.1233E+03    43.8126   4.0000    97.0468
 32      0.0000     0.0000E+00    0.0000E+00    1.445000E+07  0.00040  7.027E-03    0   0.8578   age078_m32            0.0000     3.2599E+03    34.5993   4.0000   101.8339
 33      0.0000     0.0000E+00    0.0000E+00    2.512000E+07  0.00040  4.707E-03    0   0.8166   age090_m32            0.0000     2.3307E+03    28.2192   4.0000   104.3934
 34      0.0000     0.0000E+00    0.0000E+00    4.000000E+07  0.00040  3.714E-03    0   0.7827   age104_m32            0.0000     1.8844E+03    23.2361   4.0000   106.0544
 35      0.0000     0.0000E+00    0.0000E+00    5.500000E+07  0.00040  2.982E-03    0   0.7593   age110_m32            0.0000     1.7880E+03    21.8007   4.0000   106.5084
 36      0.0000     0.0000E+00    0.0000E+00    1.015200E+08  0.00040  2.188E-03    0   0.7143   age116_m32            0.0000     1.6123E+03    19.9742   4.0000   107.3826
 37      0.0000     0.0000E+00    0.0000E+00    1.609000E+08  0.00040  1.690E-03    0   0.6856   age120_m32            0.0000     1.6412E+03    20.8448   4.0000   107.3138
 38      0.0000     0.0000E+00    0.0000E+00    2.861200E+08  0.00040  1.152E-03    0   0.6509   age125_m32            0.0000     1.6504E+03    21.2254   4.0000   105.8973
 39      0.0000     0.0000E+00    0.0000E+00    5.088000E+08  0.00040  7.331E-04    0   0.6182   age130_m32            0.0000     1.6492E+03    21.4133   4.0000   104.1343
 40      0.0000     0.0000E+00    0.0000E+00    9.047900E+08  0.00040  3.960E-04    0   0.5890   age135_m32            0.0000     1.2097E+03    18.3604   3.5528   102.8125
 41      0.0000     0.0000E+00    0.0000E+00    1.278050E+09  0.00040  2.854E-04    0   0.5687   age138_m32            0.0000     1.1269E+03    18.0343   3.3363   104.1936
 42      0.0000     0.0000E+00    0.0000E+00    1.434000E+09  0.00040  2.531E-04    0   0.5632   age139_m32            0.0000     1.1112E+03    17.9616   3.2838   104.1003
 43      0.0000     0.0000E+00    0.0000E+00    2.500000E+09  0.00040  1.488E-04    0   0.5386   age150_m32            0.0000     9.4015E+02    16.6137   3.0037   102.9422
 44      0.0000     0.0000E+00    0.0000E+00    4.250000E+09  0.00040  9.082E-05    0   0.5199   age158_m32            0.0000     6.6529E+02    13.7960   2.8987   100.6145
 45      0.0000     0.0000E+00    0.0000E+00    6.250000E+09  0.00040  6.362E-05    0   0.5076   age166_m32            0.0000     5.1458E+02    12.1861   2.8832    97.9536
 46      0.0000     0.0000E+00    0.0000E+00    7.500000E+09  0.00040  5.289E-05    0   0.5027   age171_m32            0.0000     4.7745E+02    11.7331   2.8293    96.9869
 47      6.8446     1.4049E+00    1.3987E+00    1.000000E+10  0.00040  3.972E-05    0   0.4948   age181_m32            0.0000     4.4479E+02    11.2934   2.7370    95.9066
 48      0.0000     0.0000E+00    0.0000E+00    1.300000E+10  0.00040  3.283E-05    0   0.4870   age193_m32            0.0000     5.0654E+02    11.8923   2.6844    98.1802
 49      0.0000     0.0000E+00    0.0000E+00    1.500000E+10  0.00040  2.925E-05    0   0.4854   age201_m32            0.0000     5.5424E+02    12.4188   2.6644    99.4794
 50      0.0000     0.0000E+00    0.0000E+00    1.800000E+10  0.00040  2.469E-05    0   0.4819   age213_m32            0.0000     5.6800E+02    12.5410   2.6173    99.9211
 51      2.3958     1.7534E-03    3.5280E-03    1.000000E+06  0.00400  1.114E-02    0   1.0000   age020_m42            0.0000     5.9781E+03    47.5027   4.0000    91.4967
 52      0.0000     0.0000E+00    0.0000E+00    3.160000E+06  0.00400  4.073E-02    0   0.9999   age045_m42            0.0000     2.2811E+03    27.3278   4.0000   104.8586
 53      0.0000     0.0000E+00    0.0000E+00    5.010000E+06  0.00400  2.534E-02    0   0.9488   age055_m42            0.0000     3.6346E+03    36.8967   4.0000    99.9675
 54      0.0000     0.0000E+00    0.0000E+00    6.610000E+06  0.00400  2.583E-02    0   0.9220   age061_m42            0.0000     1.9077E+03    24.0296   4.0000   104.3298
 55      0.0000     0.0000E+00    0.0000E+00    8.710000E+06  0.00400  1.706E-02    0   0.8983   age067_m42            0.0000     1.7232E+03    23.9594   4.0000   101.6492
 56      1.2656     8.1184E-04    1.4476E-03    1.000000E+07  0.00400  1.271E-02    0   0.8862   age070_m42            0.0000     1.8320E+03    25.6030   4.0000   100.3369
 57      0.0000     0.0000E+00    0.0000E+00    1.445000E+07  0.00400  7.666E-03    0   0.8571   age078_m42            0.0000     2.7284E+03    32.3670   4.0000    99.3944
 58      0.0000     0.0000E+00    0.0000E+00    2.512000E+07  0.00400  5.070E-03    0   0.8174   age090_m42            0.0000     1.5060E+03    23.0676   4.0000   100.9429
 59      0.0000     0.0000E+00    0.0000E+00    4.000000E+07  0.00400  3.505E-03    0   0.7851   age104_m42            0.0000     9.5925E+02    17.1491   4.0000   100.4994
 60      0.0000     0.0000E+00    0.0000E+00    5.500000E+07  0.00400  3.059E-03    0   0.7629   age110_m42            0.0000     1.0946E+03    16.0982   4.0000   104.0819
 61      0.0000     0.0000E+00    0.0000E+00    1.015200E+08  0.00400  2.268E-03    0   0.7207   age116_m42            0.0000     1.4243E+03    19.3180   4.0000   106.7688
 62      0.0000     0.0000E+00    0.0000E+00    1.609000E+08  0.00400  1.720E-03    0   0.6930   age120_m42            0.0000     1.4029E+03    19.3891   4.0000   106.5122
 63      0.0000     0.0000E+00    0.0000E+00    2.861200E+08  0.00400  1.079E-03    0   0.6613   age125_m42            0.0000     1.3054E+03    19.2268   3.8995   103.4486
 64      0.0000     0.0000E+00    0.0000E+00    5.088000E+08  0.00400  6.261E-04    0   0.6313   age130_m42            0.0000     1.4018E+03    19.9531   3.7118   105.9608
 65      0.0000     0.0000E+00    0.0000E+00    9.047900E+08  0.00400  3.535E-04    0   0.6024   age135_m42            0.0000     1.0449E+03    17.0513   3.2572   107.0739
 66      0.0000     0.0000E+00    0.0000E+00    1.278050E+09  0.00400  2.677E-04    0   0.5837   age138_m42            0.0000     4.6561E+02    11.0940   2.3414   106.9234
 67      0.0000     0.0000E+00    0.0000E+00    1.434000E+09  0.00400  1.910E-04    0   0.5716   age139_m42            0.0000     6.0813E+02    12.4710   2.5579   107.2870
 68      0.0000     0.0000E+00    0.0000E+00    2.500000E+09  0.00400  9.818E-05    0   0.5463   age150_m42            0.0000     2.8302E+02     8.2086   2.2062   103.9643
 69      0.0000     0.0000E+00    0.0000E+00    4.250000E+09  0.00400  5.491E-05    0   0.5269   age158_m42            0.0000     1.8142E+02     6.5166   2.0746   101.5887
 70      0.0000     0.0000E+00    0.0000E+00    6.250000E+09  0.00400  3.857E-05    0   0.5151   age166_m42            0.0000     1.2916E+02     5.5588   1.8928   100.7543
 71      0.0000     0.0000E+00    0.0000E+00    7.500000E+09  0.00400  3.243E-05    0   0.5110   age171_m42            0.0000     1.0544E+02     5.1244   1.7796   100.4654
 72      0.0000     0.0000E+00    0.0000E+00    1.000000E+10  0.00400  2.424E-05    0   0.5028   age181_m42            0.0000     8.0285E+01     4.7392   1.6622   100.1443
 73      0.0000     0.0000E+00    0.0000E+00    1.300000E+10  0.00400  1.883E-05    0   0.4927   age193_m42            0.0000     6.5821E+01     4.5445   1.6074    99.9607
 74      0.0000     0.0000E+00    0.0000E+00    1.500000E+10  0.00400  1.685E-05    0   0.4919   age201_m42            0.0000     6.8998E+01     4.5358   1.6229    99.8895
 75      0.0000     0.0000E+00    0.0000E+00    1.800000E+10  0.00400  1.452E-05    0   0.4874   age213_m42            0.0000     7.6031E+01     4.5749   1.6576    99.9891
 76      0.0000     0.0000E+00    0.0000E+00    1.000000E+06  0.00800  1.286E-02    0   1.0000   age020_m52            0.0000     5.7657E+03    46.5862   4.0000    93.4234
 77      0.0000     0.0000E+00    0.0000E+00    3.160000E+06  0.00800  3.147E-02    0   0.9966   age045_m52            0.0000     5.4613E+03    45.3787   4.0000    95.1546
 78      0.0000     0.0000E+00    0.0000E+00    5.010000E+06  0.00800  2.664E-02    0   0.9443   age055_m52            0.0000     4.0784E+03    39.4410   4.0000    99.0155
 79      0.0000     0.0000E+00    0.0000E+00    6.610000E+06  0.00800  2.151E-02    0   0.9177   age061_m52            0.0000     9.6851E+02    18.6089   4.0000    98.8343
 80      0.0000     0.0000E+00    0.0000E+00    8.710000E+06  0.00800  1.628E-02    0   0.8948   age067_m52            0.0000     1.6698E+03    24.2584   4.0000   101.7740
 81      0.0000     0.0000E+00    0.0000E+00    1.000000E+07  0.00800  1.215E-02    0   0.8827   age070_m52            0.0000     2.4581E+03    30.2405   4.0000   101.9034
 82      0.0000     0.0000E+00    0.0000E+00    1.445000E+07  0.00800  8.739E-03    0   0.8552   age078_m52            0.0000     2.4859E+03    29.9165   4.0000   103.2995
 83      0.0000     0.0000E+00    0.0000E+00    2.512000E+07  0.00800  5.676E-03    0   0.8162   age090_m52            0.0000     1.7186E+03    22.3697   4.0000   105.0545
 84      0.0000     0.0000E+00    0.0000E+00    4.000000E+07  0.00800  3.939E-03    0   0.7841   age104_m52            0.0000     1.4543E+03    18.9986   4.0000   105.6900
 85      0.0000     0.0000E+00    0.0000E+00    5.500000E+07  0.00800  3.155E-03    0   0.7627   age110_m52            0.0000     1.4231E+03    18.1533   4.0000   106.6683
 86      0.0000     0.0000E+00    0.0000E+00    1.015200E+08  0.00800  2.206E-03    0   0.7226   age116_m52            0.0000     1.3582E+03    18.0695   4.0000   107.6626
 87      0.0000     0.0000E+00    0.0000E+00    1.609000E+08  0.00800  1.596E-03    0   0.6963   age120_m52            0.0000     1.3033E+03    18.5222   4.0000   106.4212
 88      0.0000     0.0000E+00    0.0000E+00    2.861200E+08  0.00800  1.002E-03    0   0.6665   age125_m52            0.0000     1.4250E+03    19.7687   3.8622   105.9637
 89      0.0000     0.0000E+00    0.0000E+00    5.088000E+08  0.00800  5.759E-04    0   0.6377   age130_m52            0.0000     1.3870E+03    18.8820   3.4080   110.6314
 90      0.0000     0.0000E+00    0.0000E+00    9.047900E+08  0.00800  2.972E-04    0   0.6086   age135_m52            0.0000     8.4325E+02    14.0965   2.7251   111.2050
 91      0.0000     0.0000E+00    0.0000E+00    1.278050E+09  0.00800  2.242E-04    0   0.5907   age138_m52            0.0000     3.6579E+02     9.5684   2.0436   110.8115
 92      0.0000     0.0000E+00    0.0000E+00    1.434000E+09  0.00800  1.645E-04    0   0.5787   age139_m52            0.0000     3.8693E+02     9.5603   2.2373   109.9186
 93      0.0138     1.4554E-03    1.6162E-03    2.500000E+09  0.00800  7.723E-05    0   0.5519   age150_m52            0.0000     1.7571E+02     6.7399   1.8375   107.2233
 94      0.1559     3.0619E-02    3.2776E-02    4.250000E+09  0.00800  4.151E-05    0   0.5320   age158_m52            0.0000     1.2957E+02     5.8985   1.7658   104.8681
 95      0.0000     0.0000E+00    0.0000E+00    6.250000E+09  0.00800  3.010E-05    0   0.5197   age166_m52            0.0000     7.2003E+01     4.9690   1.5004   104.1294
 96      0.0000     0.0000E+00    0.0000E+00    7.500000E+09  0.00800  2.467E-05    0   0.5139   age171_m52            0.0000     6.2492E+01     4.8542   1.4369   103.9133
 97      0.1402     6.1379E-02    6.2416E-02    1.000000E+10  0.00800  1.862E-05    0   0.5054   age181_m52            0.0000     4.4789E+01     4.7688   1.2419   104.0586
