###################################################################
## OUTPUT of StarlightChains_v04.for    [Cid@UFSC - 01/Apr/2007] ##
###################################################################

## Some input info
NGC6637_a_1.cxt                          [arq_obs]
Base.BC03.S                              [arq_base]
NGC6637_a_1.msk                          [arq_masks]
StCv04.C99.config                        [arq_config]
  150                                    [N_base]
    0                                    [N_YAV_components = # of components with extra extinction!]
    0                                    [i_FitPowerLaw (1/0 = Yes/No)]
-9.99                                    [alpha_PowerLaw]
CCM                                      [red_law_option]
 1.458241                                [q_norm = A(l_norm)/A(V)]

## (Re)Sampling Parameters
 3359.00                                 [l_ini (A)]
 6428.00                                 [l_fin (A)]
    1.00                                 [dl    (A)]     (OBS: dl_cushion =    50.00 A)

## Normalization info
 4020.00                                 [l_norm (A) - for base]
 4010.00                                 [llow_norm (A) - window for f_obs]
 4060.00                                 [lupp_norm (A) - window for f_obs]
1.782031E-14                             [fobs_norm (in input units)]

## S/N
 4730.00                                 [llow_SN (A) - window for S/N]
 4780.00                                 [lupp_SN (A) - window for S/N]
  44.619                                 [S/N in S/N window]
  30.665                                 [S/N in norm. window]
  98.004                                 [S/N_err in S/N window]
  67.353                                 [S/N_err in norm. window]
  1.0000                                 [fscale_chi2]

## etc...
  2147483594                             [idum_orig]
  3065                                   [NOl_eff]
  1338                                   [Nl_eff]
  1727    NSIGMA                         [Ntot_cliped & clip_method]
  2994530                                [Nglobal_steps]
   7                                     [N_chains]
  16                                     [NEX0s_base = N_base in EX0s-fits]
 0   0   1      151   2.0   8.105E+02    [Clip-Bug, RC-Crash & Burn-In warning-flags, n_censored_weights, wei_nsig_threshold & wei_limit]
   130    130.630    130.613      0.016  [idt_all, wdt_TotTime, wdt_UsrTime & wdt_SysTime (sec)]

## Synthesis Results - Best model ##

 2.39971E+00                             [chi2/Nl_eff]
     1.54540                             [adev (%)]

   101.12014                             [sum-of-x (%)]
 4.07463E-14                             [Flux_tot (units of input spectrum!)]
 1.69010E-09                             [Mini_tot (???)]
 8.44275E-10                             [Mcor_tot (???)]

   6.25                                  [v0_min  (km/s)]
  56.49                                  [vd_min  (km/s)]
 0.6075                                  [AV_min  (mag)]
 0.0000                                  [YAV_min (mag)]

# j     x_j(%)      Mini_j(%)     Mcor_j(%)     age_j(yr)     Z_j      (L/M)_j    YAV?  Mstars   component_j        a/Fe...       SSP_chi2r SSP_adev(%)   SSP_AV   SSP_x(%)
  1      0.0000     0.0000E+00    0.0000E+00    1.000000E+06  0.00010  8.160E-03    0   1.0000   age020_m22            0.0000     7.3649E+02    23.2156   4.0000    79.9387
  2      4.6134     2.3112E-03    4.6267E-03    3.160000E+06  0.00010  4.759E-02    0   1.0000   age045_m22            0.0000     8.0655E+01     8.7098   2.6461    98.7265
  3      2.9955     3.6966E-03    7.0907E-03    5.010000E+06  0.00010  1.932E-02    0   0.9582   age055_m22            0.0000     2.5613E+02    14.9285   3.1219    79.7432
  4      0.0000     0.0000E+00    0.0000E+00    6.610000E+06  0.00010  9.973E-03    0   0.9297   age061_m22            0.0000     7.0877E+02    22.5192   4.0000    82.6206
  5      0.0000     0.0000E+00    0.0000E+00    8.710000E+06  0.00010  7.690E-03    0   0.9030   age067_m22            0.0000     6.8074E+02    22.1159   4.0000    83.2604
  6      0.0000     0.0000E+00    0.0000E+00    1.000000E+07  0.00010  6.375E-03    0   0.8902   age070_m22            0.0000     6.7639E+02    22.0528   4.0000    83.7041
  7      0.0000     0.0000E+00    0.0000E+00    1.445000E+07  0.00010  4.874E-03    0   0.8589   age078_m22            0.0000     4.3190E+02    18.0060   4.0000    86.7906
  8      0.0000     0.0000E+00    0.0000E+00    2.512000E+07  0.00010  4.103E-03    0   0.8174   age090_m22            0.0000     1.3476E+02    11.4314   4.0000    91.2172
  9      0.0000     0.0000E+00    0.0000E+00    4.000000E+07  0.00010  3.654E-03    0   0.7830   age104_m22            0.0000     1.1798E+02    10.6056   3.6967    97.9636
 10      0.0000     0.0000E+00    0.0000E+00    5.500000E+07  0.00010  3.093E-03    0   0.7597   age110_m22            0.0000     1.2327E+02    10.3337   3.5610   100.7905
 11      0.0000     0.0000E+00    0.0000E+00    1.015200E+08  0.00010  2.431E-03    0   0.7138   age116_m22            0.0000     1.5235E+02    10.7408   3.1639   105.7289
 12      0.0000     0.0000E+00    0.0000E+00    1.609000E+08  0.00010  1.319E-03    0   0.6775   age120_m22            0.0000     1.4211E+02    10.3977   2.6836   108.2757
 13      0.0000     0.0000E+00    0.0000E+00    2.861200E+08  0.00010  1.075E-03    0   0.6412   age125_m22            0.0000     3.0174E+02    13.3583   2.6068   117.5850
 14      0.0000     0.0000E+00    0.0000E+00    5.088000E+08  0.00010  7.183E-04    0   0.6083   age130_m22            0.0000     3.6143E+02    14.3771   2.3304   121.3162
 15      0.0000     0.0000E+00    0.0000E+00    9.047900E+08  0.00010  4.524E-04    0   0.5785   age135_m22            0.0000     3.7039E+02    14.4026   2.1226   123.0352
 16      0.0000     0.0000E+00    0.0000E+00    1.278050E+09  0.00010  3.018E-04    0   0.5588   age138_m22            0.0000     1.9617E+02    10.7069   1.6859   117.1858
 17      0.0000     0.0000E+00    0.0000E+00    1.434000E+09  0.00010  2.691E-04    0   0.5532   age139_m22            0.0000     1.6776E+02     9.9443   1.5484   115.8046
 18      0.0000     0.0000E+00    0.0000E+00    2.500000E+09  0.00010  1.582E-04    0   0.5296   age150_m22            0.0000     1.5297E+02     9.6563   1.4510   115.9662
 19      0.0000     0.0000E+00    0.0000E+00    4.250000E+09  0.00010  1.007E-04    0   0.5110   age158_m22            0.0000     1.0183E+02     8.1721   1.3446   112.2483
 20      0.0000     0.0000E+00    0.0000E+00    6.250000E+09  0.00010  6.869E-05    0   0.4985   age166_m22            0.0000     6.7167E+01     6.9401   1.3333   107.3871
 21      0.0000     0.0000E+00    0.0000E+00    7.500000E+09  0.00010  5.873E-05    0   0.4931   age171_m22            0.0000     6.4853E+01     6.9463   1.3319   106.4173
 22      0.0000     0.0000E+00    0.0000E+00    1.000000E+10  0.00010  4.481E-05    0   0.4854   age181_m22            0.0000     6.2746E+01     6.8404   1.2949   105.9825
 23      0.0000     0.0000E+00    0.0000E+00    1.300000E+10  0.00010  3.489E-05    0   0.4791   age193_m22            0.0000     5.7977E+01     6.5771   1.2410   105.2757
 24      0.0000     0.0000E+00    0.0000E+00    1.500000E+10  0.00010  3.035E-05    0   0.4766   age201_m22            0.0000     5.5326E+01     6.4469   1.2040   104.9841
 25      0.0000     0.0000E+00    0.0000E+00    1.800000E+10  0.00010  2.510E-05    0   0.4735   age213_m22            0.0000     4.9896E+01     6.1635   1.1428   104.0461
 26      0.0000     0.0000E+00    0.0000E+00    1.000000E+06  0.00040  8.458E-03    0   1.0000   age020_m32            0.0000     7.5122E+02    23.3375   4.0000    80.6787
 27      0.0000     0.0000E+00    0.0000E+00    3.160000E+06  0.00040  3.973E-02    0   1.0000   age045_m32            0.0000     1.3627E+02    11.9005   3.9941    89.4701
 28      0.0000     0.0000E+00    0.0000E+00    5.010000E+06  0.00040  1.935E-02    0   0.9532   age055_m32            0.0000     2.9621E+02    14.9255   4.0000    84.5589
 29      0.0000     0.0000E+00    0.0000E+00    6.610000E+06  0.00040  1.204E-02    0   0.9243   age061_m32            0.0000     5.2054E+02    19.5450   4.0000    84.7065
 30      0.0000     0.0000E+00    0.0000E+00    8.710000E+06  0.00040  9.433E-03    0   0.9001   age067_m32            0.0000     4.6688E+02    18.6476   4.0000    85.8559
 31      0.0000     0.0000E+00    0.0000E+00    1.000000E+07  0.00040  8.053E-03    0   0.8877   age070_m32            0.0000     4.2841E+02    17.9187   4.0000    86.2388
 32      0.0000     0.0000E+00    0.0000E+00    1.445000E+07  0.00040  7.027E-03    0   0.8578   age078_m32            0.0000     1.5958E+02    12.8138   3.9749    87.3905
 33      0.0000     0.0000E+00    0.0000E+00    2.512000E+07  0.00040  4.707E-03    0   0.8166   age090_m32            0.0000     1.2414E+02    11.3901   3.6245    93.2181
 34      0.0000     0.0000E+00    0.0000E+00    4.000000E+07  0.00040  3.714E-03    0   0.7827   age104_m32            0.0000     1.1416E+02    10.5090   3.3555    99.0586
 35      0.0000     0.0000E+00    0.0000E+00    5.500000E+07  0.00040  2.982E-03    0   0.7593   age110_m32            0.0000     1.1930E+02    10.3533   3.2646   101.3481
 36      0.0000     0.0000E+00    0.0000E+00    1.015200E+08  0.00040  2.188E-03    0   0.7143   age116_m32            0.0000     1.8900E+02    11.3749   2.8877   110.0651
 37      0.0000     0.0000E+00    0.0000E+00    1.609000E+08  0.00040  1.690E-03    0   0.6856   age120_m32            0.0000     2.6282E+02    12.5120   2.6150   115.4693
 38      0.0000     0.0000E+00    0.0000E+00    2.861200E+08  0.00040  1.152E-03    0   0.6509   age125_m32            0.0000     3.1824E+02    13.5254   2.3414   119.5647
 39      0.0000     0.0000E+00    0.0000E+00    5.088000E+08  0.00040  7.331E-04    0   0.6182   age130_m32            0.0000     3.4437E+02    13.9356   2.1545   121.2965
 40      0.0000     0.0000E+00    0.0000E+00    9.047900E+08  0.00040  3.960E-04    0   0.5890   age135_m32            0.0000     1.9951E+02    10.8797   1.7681   116.7250
 41      0.0000     0.0000E+00    0.0000E+00    1.278050E+09  0.00040  2.854E-04    0   0.5687   age138_m32            0.0000     1.7051E+02    10.0556   1.4996   117.7212
 42      0.0000     0.0000E+00    0.0000E+00    1.434000E+09  0.00040  2.531E-04    0   0.5632   age139_m32            0.0000     1.6780E+02     9.9451   1.4397   117.6498
 43      0.0000     0.0000E+00    0.0000E+00    2.500000E+09  0.00040  1.488E-04    0   0.5386   age150_m32            0.0000     1.2888E+02     8.7204   1.2063   114.7135
 44      0.0000     0.0000E+00    0.0000E+00    4.250000E+09  0.00040  9.082E-05    0   0.5199   age158_m32            0.0000     6.2048E+01     6.4205   1.1811   108.1181
 45      0.0074     2.7899E-03    2.8349E-03    6.250000E+09  0.00040  6.362E-05    0   0.5076   age166_m32            0.0000     4.0122E+01     5.4719   1.2003   102.1295
 46      0.7449     3.3579E-01    3.3791E-01    7.500000E+09  0.00040  5.289E-05    0   0.5027   age171_m32            0.0000     3.6970E+01     5.2573   1.1743   100.4359
 47     24.2320     1.4545E+01    1.4407E+01    1.000000E+10  0.00040  3.972E-05    0   0.4948   age181_m32            0.0000     3.3686E+01     4.9955   1.1162    98.8880
 48      0.0000     0.0000E+00    0.0000E+00    1.300000E+10  0.00040  3.283E-05    0   0.4870   age193_m32            0.0000     3.6890E+01     5.1684   1.0377   103.0179
 49      0.0000     0.0000E+00    0.0000E+00    1.500000E+10  0.00040  2.925E-05    0   0.4854   age201_m32            0.0000     4.3279E+01     5.5356   0.9988   105.4807
 50      0.0000     0.0000E+00    0.0000E+00    1.800000E+10  0.00040  2.469E-05    0   0.4819   age213_m32            0.0000     4.5652E+01     5.6319   0.9491   106.3772
 51      0.0000     0.0000E+00    0.0000E+00    1.000000E+06  0.00400  1.114E-02    0   1.0000   age020_m42            0.0000     6.6541E+02    21.9918   4.0000    81.0437
 52      0.0000     0.0000E+00    0.0000E+00    3.160000E+06  0.00400  4.073E-02    0   0.9999   age045_m42            0.0000     1.0202E+02    10.1847   3.6583    93.4128
 53      0.0000     1.4273E-09    2.7109E-09    5.010000E+06  0.00400  2.534E-02    0   0.9488   age055_m42            0.0000     1.8104E+02    12.5313   4.0000    86.3458
 54      0.0000     0.0000E+00    0.0000E+00    6.610000E+06  0.00400  2.583E-02    0   0.9220   age061_m42            0.0000     1.0015E+02    10.1312   3.4413    95.4442
 55      0.0000     0.0000E+00    0.0000E+00    8.710000E+06  0.00400  1.706E-02    0   0.8983   age067_m42            0.0000     1.2243E+02    11.4559   3.3185    91.6004
 56      0.0000     0.0000E+00    0.0000E+00    1.000000E+07  0.00400  1.271E-02    0   0.8862   age070_m42            0.0000     1.5527E+02    12.8322   3.3363    88.9124
 57      0.0000     0.0000E+00    0.0000E+00    1.445000E+07  0.00400  7.666E-03    0   0.8571   age078_m42            0.0000     1.8760E+02    13.6067   3.7753    84.4696
 58      0.0000     0.0000E+00    0.0000E+00    2.512000E+07  0.00400  5.070E-03    0   0.8174   age090_m42            0.0000     1.4198E+02    12.2009   3.1964    90.7925
 59      0.0000     0.0000E+00    0.0000E+00    4.000000E+07  0.00400  3.505E-03    0   0.7851   age104_m42            0.0000     1.0435E+02    10.3701   2.8448    95.0024
 60      0.0000     0.0000E+00    0.0000E+00    5.500000E+07  0.00400  3.059E-03    0   0.7629   age110_m42            0.0000     9.7541E+01     9.0936   2.7900   103.9864
 61      0.0000     0.0000E+00    0.0000E+00    1.015200E+08  0.00400  2.268E-03    0   0.7207   age116_m42            0.0000     2.2565E+02    11.5396   2.5461   115.5037
 62      0.0000     0.0000E+00    0.0000E+00    1.609000E+08  0.00400  1.720E-03    0   0.6930   age120_m42            0.0000     2.4640E+02    11.8494   2.3784   118.2650
 63      0.0000     0.0000E+00    0.0000E+00    2.861200E+08  0.00400  1.079E-03    0   0.6613   age125_m42            0.0000     2.3461E+02    11.7282   2.0230   119.0341
 64      0.0000     0.0000E+00    0.0000E+00    5.088000E+08  0.00400  6.261E-04    0   0.6313   age130_m42            0.0000     2.8195E+02    12.4358   1.7946   123.6156
 65      0.0000     0.0000E+00    0.0000E+00    9.047900E+08  0.00400  3.535E-04    0   0.6024   age135_m42            0.0000     1.7882E+02     9.9626   1.4425   121.6998
 66      0.0000     0.0000E+00    0.0000E+00    1.278050E+09  0.00400  2.677E-04    0   0.5837   age138_m42            0.0000     6.8356E+01     6.5242   0.8158   116.1339
 67      0.0000     0.0000E+00    0.0000E+00    1.434000E+09  0.00400  1.910E-04    0   0.5716   age139_m42            0.0000     8.9388E+01     7.2009   0.9719   117.6128
 68      0.0000     0.0000E+00    0.0000E+00    2.500000E+09  0.00400  9.818E-05    0   0.5463   age150_m42            0.0000     2.1549E+01     3.7190   0.7774   109.2412
 69      0.0000     0.0000E+00    0.0000E+00    4.250000E+09  0.00400  5.491E-05    0   0.5269   age158_m42            0.0000     7.1377E+00     2.3524   0.6851   105.0445
 70      0.0000     0.0000E+00    0.0000E+00    6.250000E+09  0.00400  3.857E-05    0   0.5151   age166_m42            0.0000     5.1765E+00     2.0500   0.5645   103.3519
 71      0.0000     0.0000E+00    0.0000E+00    7.500000E+09  0.00400  3.243E-05    0   0.5110   age171_m42            0.0000     5.9839E+00     2.1824   0.4860   102.7553
 72     29.4976     2.9013E+01    2.9202E+01    1.000000E+10  0.00400  2.424E-05    0   0.5028   age181_m42            0.0000     8.6696E+00     2.6027   0.4056   102.1232
 73     10.4504     1.3232E+01    1.3051E+01    1.300000E+10  0.00400  1.883E-05    0   0.4927   age193_m42            0.0000     1.2214E+01     3.0514   0.3653   101.8235
 74      0.0001     7.3863E-05    7.2733E-05    1.500000E+10  0.00400  1.685E-05    0   0.4919   age201_m42            0.0000     1.1012E+01     2.9079   0.3714   101.7908
 75      0.0001     1.0559E-04    1.0302E-04    1.800000E+10  0.00400  1.452E-05    0   0.4874   age213_m42            0.0000     9.2832E+00     2.6792   0.3881   102.0082
 76      0.0000     0.0000E+00    0.0000E+00    1.000000E+06  0.00800  1.286E-02    0   1.0000   age020_m52            0.0000     6.1440E+02    20.9861   4.0000    83.0820
 77      0.0000     0.0000E+00    0.0000E+00    3.160000E+06  0.00800  3.147E-02    0   0.9966   age045_m52            0.0000     5.2526E+02    19.5472   4.0000    84.3814
 78      0.0000     0.0000E+00    0.0000E+00    5.010000E+06  0.00800  2.664E-02    0   0.9443   age055_m52            0.0000     2.4856E+02    13.8066   4.0000    86.2051
 79      0.0000     0.0000E+00    0.0000E+00    6.610000E+06  0.00800  2.151E-02    0   0.9177   age061_m52            0.0000     1.2715E+02    11.0958   2.9394    90.1874
 80      0.0000     0.0000E+00    0.0000E+00    8.710000E+06  0.00800  1.628E-02    0   0.8948   age067_m52            0.0000     1.3888E+02    11.9615   3.2942    91.1054
 81      0.0000     0.0000E+00    0.0000E+00    1.000000E+07  0.00800  1.215E-02    0   0.8827   age070_m52            0.0000     1.6366E+02    12.9112   3.6529    88.5581
 82      0.0000     0.0000E+00    0.0000E+00    1.445000E+07  0.00800  8.739E-03    0   0.8552   age078_m52            0.0000     1.4535E+02    12.3063   3.6671    90.8104
 83      0.0000     0.0000E+00    0.0000E+00    2.512000E+07  0.00800  5.676E-03    0   0.8162   age090_m52            0.0000     1.2553E+02    11.3852   3.1935    98.2507
 84      0.0000     0.0000E+00    0.0000E+00    4.000000E+07  0.00800  3.939E-03    0   0.7841   age104_m52            0.0000     1.1914E+02    10.4767   2.9882   102.6426
 85      0.0000     0.0000E+00    0.0000E+00    5.500000E+07  0.00800  3.155E-03    0   0.7627   age110_m52            0.0000     1.2874E+02    10.1705   2.9179   106.0986
 86      0.0000     0.0000E+00    0.0000E+00    1.015200E+08  0.00800  2.206E-03    0   0.7226   age116_m52            0.0000     1.7805E+02    10.6568   2.6475   113.5114
 87      0.0000     0.0000E+00    0.0000E+00    1.609000E+08  0.00800  1.596E-03    0   0.6963   age120_m52            0.0000     2.0356E+02    11.0853   2.3990   116.7148
 88      0.0000     0.0000E+00    0.0000E+00    2.861200E+08  0.00800  1.002E-03    0   0.6665   age125_m52            0.0000     2.8822E+02    12.8279   2.0267   122.9756
 89      0.0000     0.0000E+00    0.0000E+00    5.088000E+08  0.00800  5.759E-04    0   0.6377   age130_m52            0.0000     3.0715E+02    13.1023   1.6481   128.5129
 90      0.0000     0.0000E+00    0.0000E+00    9.047900E+08  0.00800  2.972E-04    0   0.6086   age135_m52            0.0000     1.6194E+02     9.9248   1.1834   123.9243
 91      0.0000     0.0000E+00    0.0000E+00    1.278050E+09  0.00800  2.242E-04    0   0.5907   age138_m52            0.0000     6.2720E+01     6.3656   0.6467   118.8732
 92      0.0000     0.0000E+00    0.0000E+00    1.434000E+09  0.00800  1.645E-04    0   0.5787   age139_m52            0.0000     5.3927E+01     5.9280   0.8062   117.8141
 93      0.0000     0.0000E+00    0.0000E+00    2.500000E+09  0.00800  7.723E-05    0   0.5519   age150_m52            0.0000     2.2488E+01     3.9546   0.5106   111.8018
 94      0.0000     0.0000E+00    0.0000E+00    4.250000E+09  0.00800  4.151E-05    0   0.5320   age158_m52            0.0000     1.4918E+01     3.1471   0.4564   108.4170
 95      0.0008     6.4695E-04    6.7305E-04    6.250000E+09  0.00800  3.010E-05    0   0.5197   age166_m52            0.0000     1.8026E+01     3.5465   0.2675   106.7028
 96      0.0004     3.7843E-04    3.8930E-04    7.500000E+09  0.00800  2.467E-05    0   0.5139   age171_m52            0.0000     2.0162E+01     3.7921   0.2247   106.3098
 97     13.7679     1.7629E+01    1.7836E+01    1.000000E+10  0.00800  1.862E-05    0   0.5054   age181_m52            0.0000     2.9800E+01     4.7090   0.0868   106.1277
