###################################################################
## OUTPUT of StarlightChains_v04.for    [Cid@UFSC - 01/Apr/2007] ##
###################################################################

## Some input info
NGC6284_a_2.cxt                          [arq_obs]
Base.BC03.S                              [arq_base]
NGC6284_a_2.msk                          [arq_masks]
StCv04.C99.config                        [arq_config]
  150                                    [N_base]
    0                                    [N_YAV_components = # of components with extra extinction!]
    0                                    [i_FitPowerLaw (1/0 = Yes/No)]
-9.99                                    [alpha_PowerLaw]
CCM                                      [red_law_option]
 1.458241                                [q_norm = A(l_norm)/A(V)]

## (Re)Sampling Parameters
 3359.00                                 [l_ini (A)]
 6428.00                                 [l_fin (A)]
    1.00                                 [dl    (A)]     (OBS: dl_cushion =    50.00 A)

## Normalization info
 4020.00                                 [l_norm (A) - for base]
 4010.00                                 [llow_norm (A) - window for f_obs]
 4060.00                                 [lupp_norm (A) - window for f_obs]
1.360561E-14                             [fobs_norm (in input units)]

## S/N
 4730.00                                 [llow_SN (A) - window for S/N]
 4780.00                                 [lupp_SN (A) - window for S/N]
  73.354                                 [S/N in S/N window]
  58.120                                 [S/N in norm. window]
  64.892                                 [S/N_err in S/N window]
  51.416                                 [S/N_err in norm. window]
  1.0000                                 [fscale_chi2]

## etc...
  2147483620                             [idum_orig]
  3065                                   [NOl_eff]
  2172                                   [Nl_eff]
   893    NSIGMA                         [Ntot_cliped & clip_method]
  3726310                                [Nglobal_steps]
   7                                     [N_chains]
  23                                     [NEX0s_base = N_base in EX0s-fits]
 0   0   1      379   2.0   9.372E+02    [Clip-Bug, RC-Crash & Burn-In warning-flags, n_censored_weights, wei_nsig_threshold & wei_limit]
   139    138.950    138.946      0.004  [idt_all, wdt_TotTime, wdt_UsrTime & wdt_SysTime (sec)]

## Synthesis Results - Best model ##

 2.09056E+00                             [chi2/Nl_eff]
     1.60853                             [adev (%)]

   101.63131                             [sum-of-x (%)]
 4.39838E-14                             [Flux_tot (units of input spectrum!)]
 9.67685E-10                             [Mini_tot (???)]
 4.93900E-10                             [Mcor_tot (???)]

 -15.90                                  [v0_min  (km/s)]
  82.69                                  [vd_min  (km/s)]
 0.8616                                  [AV_min  (mag)]
 0.0000                                  [YAV_min (mag)]

# j     x_j(%)      Mini_j(%)     Mcor_j(%)     age_j(yr)     Z_j      (L/M)_j    YAV?  Mstars   component_j        a/Fe...       SSP_chi2r SSP_adev(%)   SSP_AV   SSP_x(%)
  1      0.0000     0.0000E+00    0.0000E+00    1.000000E+06  0.00010  8.160E-03    0   1.0000   age020_m22            0.0000     4.3620E+02    18.5172   4.0000    73.2422
  2     14.4171     1.3549E-02    2.6545E-02    3.160000E+06  0.00010  4.759E-02    0   1.0000   age045_m22            0.0000     2.7410E+01     3.7286   2.4287    93.2557
  3      0.0000     0.0000E+00    0.0000E+00    5.010000E+06  0.00010  1.932E-02    0   0.9582   age055_m22            0.0000     1.9167E+02     9.3608   2.8019    77.7311
  4      0.0000     0.0000E+00    0.0000E+00    6.610000E+06  0.00010  9.973E-03    0   0.9297   age061_m22            0.0000     3.7801E+02    17.4116   4.0000    75.9049
  5      0.0000     0.0000E+00    0.0000E+00    8.710000E+06  0.00010  7.690E-03    0   0.9030   age067_m22            0.0000     3.5864E+02    16.9747   4.0000    76.4326
  6      0.0000     0.0000E+00    0.0000E+00    1.000000E+07  0.00010  6.375E-03    0   0.8902   age070_m22            0.0000     3.5570E+02    17.0963   4.0000    76.7397
  7      0.0000     0.0000E+00    0.0000E+00    1.445000E+07  0.00010  4.874E-03    0   0.8589   age078_m22            0.0000     1.9609E+02    11.4439   4.0000    79.6309
  8      0.0000     0.0000E+00    0.0000E+00    2.512000E+07  0.00010  4.103E-03    0   0.8174   age090_m22            0.0000     5.1931E+01     5.6239   3.8315    85.7773
  9      1.3799     1.6889E-02    2.5909E-02    4.000000E+07  0.00010  3.654E-03    0   0.7830   age104_m22            0.0000     6.4166E+01     4.4055   3.5085    91.3205
 10      0.8668     1.2534E-02    1.8656E-02    5.500000E+07  0.00010  3.093E-03    0   0.7597   age110_m22            0.0000     8.3366E+01     4.0011   3.3851    93.7698
 11      0.3740     6.8809E-03    9.6232E-03    1.015200E+08  0.00010  2.431E-03    0   0.7138   age116_m22            0.0000     1.4621E+02     3.8326   3.0147    97.5988
 12      0.0000     0.0000E+00    0.0000E+00    1.609000E+08  0.00010  1.319E-03    0   0.6775   age120_m22            0.0000     1.6013E+02     3.6330   2.5004   101.5732
 13      0.0000     0.0000E+00    0.0000E+00    2.861200E+08  0.00010  1.075E-03    0   0.6412   age125_m22            0.0000     4.5413E+02     6.3192   2.4707   109.2978
 14      0.0000     0.0000E+00    0.0000E+00    5.088000E+08  0.00010  7.183E-04    0   0.6083   age130_m22            0.0000     5.5565E+02     7.6577   2.1929   113.3413
 15      0.0000     0.0000E+00    0.0000E+00    9.047900E+08  0.00010  4.524E-04    0   0.5785   age135_m22            0.0000     5.5656E+02     7.9618   1.9823   115.2555
 16      0.0000     0.0000E+00    0.0000E+00    1.278050E+09  0.00010  3.018E-04    0   0.5588   age138_m22            0.0000     2.4248E+02     5.4685   1.5123   110.8124
 17      0.0000     0.0000E+00    0.0000E+00    1.434000E+09  0.00010  2.691E-04    0   0.5532   age139_m22            0.0000     1.8694E+02     4.9845   1.3680   109.7920
 18      0.0000     0.0000E+00    0.0000E+00    2.500000E+09  0.00010  1.582E-04    0   0.5296   age150_m22            0.0000     1.5663E+02     4.2771   1.2785   109.3528
 19      0.0000     0.0000E+00    0.0000E+00    4.250000E+09  0.00010  1.007E-04    0   0.5110   age158_m22            0.0000     7.2784E+01     3.2198   1.1560   106.3912
 20      0.0000     0.0000E+00    0.0000E+00    6.250000E+09  0.00010  6.869E-05    0   0.4985   age166_m22            0.0000     2.2894E+01     2.4303   1.1272   102.3473
 21      0.6525     4.9692E-01    4.8008E-01    7.500000E+09  0.00010  5.873E-05    0   0.4931   age171_m22            0.0000     1.9144E+01     2.3692   1.1250   101.2914
 22      0.0699     6.9750E-02    6.6335E-02    1.000000E+10  0.00010  4.481E-05    0   0.4854   age181_m22            0.0000     1.8095E+01     2.3327   1.0857   100.9953
 23      0.0000     0.0000E+00    0.0000E+00    1.300000E+10  0.00010  3.489E-05    0   0.4791   age193_m22            0.0000     1.4794E+01     2.2476   1.0281   100.5347
 24      0.0000     0.0000E+00    0.0000E+00    1.500000E+10  0.00010  3.035E-05    0   0.4766   age201_m22            0.0000     1.2937E+01     2.1873   0.9903   100.3117
 25      0.1578     2.8112E-01    2.6080E-01    1.800000E+10  0.00010  2.510E-05    0   0.4735   age213_m22            0.0000     9.1317E+00     2.0796   0.9250    99.5864
 26      0.0000     0.0000E+00    0.0000E+00    1.000000E+06  0.00040  8.458E-03    0   1.0000   age020_m32            0.0000     4.3539E+02    18.7741   4.0000    73.9514
 27      0.0000     0.0000E+00    0.0000E+00    3.160000E+06  0.00040  3.973E-02    0   1.0000   age045_m32            0.0000     5.6115E+01     5.8603   3.7383    85.2675
 28      0.0000     0.0000E+00    0.0000E+00    5.010000E+06  0.00040  1.935E-02    0   0.9532   age055_m32            0.0000     1.4434E+02     8.5529   4.0000    78.2399
 29      0.0000     0.0000E+00    0.0000E+00    6.610000E+06  0.00040  1.204E-02    0   0.9243   age061_m32            0.0000     2.5063E+02    13.2049   4.0000    77.7878
 30      0.0000     0.0000E+00    0.0000E+00    8.710000E+06  0.00040  9.433E-03    0   0.9001   age067_m32            0.0000     2.1421E+02    12.1240   4.0000    78.7517
 31      0.0000     0.0000E+00    0.0000E+00    1.000000E+07  0.00040  8.053E-03    0   0.8877   age070_m32            0.0000     1.9159E+02    11.0500   4.0000    79.1776
 32      0.0000     0.0000E+00    0.0000E+00    1.445000E+07  0.00040  7.027E-03    0   0.8578   age078_m32            0.0000     7.1122E+01     6.7659   3.7091    83.4685
 33      0.0000     0.0000E+00    0.0000E+00    2.512000E+07  0.00040  4.707E-03    0   0.8166   age090_m32            0.0000     4.5198E+01     5.4756   3.3865    88.3199
 34      0.0000     0.0000E+00    0.0000E+00    4.000000E+07  0.00040  3.714E-03    0   0.7827   age104_m32            0.0000     5.5917E+01     4.4323   3.1604    92.5793
 35      0.0000     0.0000E+00    0.0000E+00    5.500000E+07  0.00040  2.982E-03    0   0.7593   age110_m32            0.0000     7.4753E+01     4.1137   3.0828    94.4304
 36      0.0000     0.0000E+00    0.0000E+00    1.015200E+08  0.00040  2.188E-03    0   0.7143   age116_m32            0.0000     2.2751E+02     4.0767   2.7466   101.7589
 37      0.0000     0.0000E+00    0.0000E+00    1.609000E+08  0.00040  1.690E-03    0   0.6856   age120_m32            0.0000     3.6057E+02     4.9326   2.4958   106.2635
 38      0.0000     0.0000E+00    0.0000E+00    2.861200E+08  0.00040  1.152E-03    0   0.6509   age125_m32            0.0000     4.7576E+02     6.7430   2.2025   111.4637
 39      0.0000     0.0000E+00    0.0000E+00    5.088000E+08  0.00040  7.331E-04    0   0.6182   age130_m32            0.0000     5.1406E+02     7.5336   2.0134   113.5730
 40      0.0000     0.0000E+00    0.0000E+00    9.047900E+08  0.00040  3.960E-04    0   0.5890   age135_m32            0.0000     2.3821E+02     6.1019   1.5891   110.9714
 41      0.0000     0.0000E+00    0.0000E+00    1.278050E+09  0.00040  2.854E-04    0   0.5687   age138_m32            0.0000     1.8571E+02     4.8491   1.3296   111.0986
 42      0.0000     0.0000E+00    0.0000E+00    1.434000E+09  0.00040  2.531E-04    0   0.5632   age139_m32            0.0000     1.7955E+02     4.6787   1.2712   110.9243
 43      0.0000     0.0000E+00    0.0000E+00    2.500000E+09  0.00040  1.488E-04    0   0.5386   age150_m32            0.0000     1.0804E+02     3.9053   1.0281   108.5893
 44     57.2651     2.8199E+01    2.8725E+01    4.250000E+09  0.00040  9.082E-05    0   0.5199   age158_m32            0.0000     1.9741E+01     2.3507   0.9733   103.3771
 45      7.3564     5.1713E+00    5.1430E+00    6.250000E+09  0.00040  6.362E-05    0   0.5076   age166_m32            0.0000     6.3334E+00     1.9670   0.9719    98.1895
 46      0.0732     6.1896E-02    6.0963E-02    7.500000E+09  0.00040  5.289E-05    0   0.5027   age171_m32            0.0000     9.5376E+00     2.0189   0.9378    96.9203
 47      0.0000     0.0000E+00    0.0000E+00    1.000000E+10  0.00040  3.972E-05    0   0.4948   age181_m32            0.0000     1.3737E+01     2.1079   0.8732    95.8106
 48      0.0000     0.0000E+00    0.0000E+00    1.300000E+10  0.00040  3.283E-05    0   0.4870   age193_m32            0.0000     4.9878E+00     1.9609   0.8093    99.3633
 49      0.0000     0.0000E+00    0.0000E+00    1.500000E+10  0.00040  2.925E-05    0   0.4854   age201_m32            0.0000     7.5375E+00     2.0776   0.7791   101.4479
 50      0.0000     0.0000E+00    0.0000E+00    1.800000E+10  0.00040  2.469E-05    0   0.4819   age213_m32            0.0000     1.0095E+01     2.1784   0.7326   102.2384
 51      0.0000     0.0000E+00    0.0000E+00    1.000000E+06  0.00400  1.114E-02    0   1.0000   age020_m42            0.0000     3.8127E+02    16.6917   4.0000    74.5014
 52      0.9296     1.0207E-03    1.9997E-03    3.160000E+06  0.00400  4.073E-02    0   0.9999   age045_m42            0.0000     3.6500E+01     4.6083   3.4153    88.8147
 53      0.0000     0.0000E+00    0.0000E+00    5.010000E+06  0.00400  2.534E-02    0   0.9488   age055_m42            0.0000     9.4970E+01     6.8690   3.8611    81.2566
 54      0.0012     2.0708E-06    3.7408E-06    6.610000E+06  0.00400  2.583E-02    0   0.9220   age061_m42            0.0000     4.2036E+01     4.3687   3.2355    89.5875
 55      0.0066     1.7285E-05    3.0422E-05    8.710000E+06  0.00400  1.706E-02    0   0.8983   age067_m42            0.0000     4.9002E+01     5.7644   3.0887    86.4951
 56      0.0000     0.0000E+00    0.0000E+00    1.000000E+07  0.00400  1.271E-02    0   0.8862   age070_m42            0.0000     7.0330E+01     7.1726   3.0924    84.2427
 57      0.0000     0.0000E+00    0.0000E+00    1.445000E+07  0.00400  7.666E-03    0   0.8571   age078_m42            0.0000     1.1275E+02     7.6627   3.4989    81.2203
 58      0.0000     0.0000E+00    0.0000E+00    2.512000E+07  0.00400  5.070E-03    0   0.8174   age090_m42            0.0000     6.0374E+01     6.5584   2.9416    86.6505
 59      0.0000     0.0000E+00    0.0000E+00    4.000000E+07  0.00400  3.505E-03    0   0.7851   age104_m42            0.0000     4.1955E+01     4.8693   2.5867    91.2250
 60      0.0000     0.0000E+00    0.0000E+00    5.500000E+07  0.00400  3.059E-03    0   0.7629   age110_m42            0.0000     7.7164E+01     2.9475   2.5839    98.3316
 61      0.0000     0.0000E+00    0.0000E+00    1.015200E+08  0.00400  2.268E-03    0   0.7207   age116_m42            0.0000     3.1429E+02     4.7900   2.4095   107.1931
 62      0.0000     0.0000E+00    0.0000E+00    1.609000E+08  0.00400  1.720E-03    0   0.6930   age120_m42            0.0000     3.4339E+02     5.5968   2.2395   110.1977
 63      0.0000     0.0000E+00    0.0000E+00    2.861200E+08  0.00400  1.079E-03    0   0.6613   age125_m42            0.0000     3.5977E+02     6.1238   1.8522   112.2407
 64      0.0000     0.0000E+00    0.0000E+00    5.088000E+08  0.00400  6.261E-04    0   0.6313   age130_m42            0.0000     4.1897E+02     6.6753   1.6407   116.0032
 65      0.0000     0.0000E+00    0.0000E+00    9.047900E+08  0.00400  3.535E-04    0   0.6024   age135_m42            0.0000     2.1722E+02     5.5602   1.2666   115.4592
 66      0.0000     0.0000E+00    0.0000E+00    1.278050E+09  0.00400  2.677E-04    0   0.5837   age138_m42            0.0000     5.2616E+01     5.3281   0.5851   113.6425
 67      0.0000     0.0000E+00    0.0000E+00    1.434000E+09  0.00400  1.910E-04    0   0.5716   age139_m42            0.0000     7.2546E+01     5.3270   0.7523   114.3852
 68      0.0000     0.0000E+00    0.0000E+00    2.500000E+09  0.00400  9.818E-05    0   0.5463   age150_m42            0.0000     2.2837E+01     4.4428   0.5185   108.2972
 69      0.0000     0.0000E+00    0.0000E+00    4.250000E+09  0.00400  5.491E-05    0   0.5269   age158_m42            0.0000     4.5434E+01     4.0640   0.4139   104.6251
 70      0.0000     0.0000E+00    0.0000E+00    6.250000E+09  0.00400  3.857E-05    0   0.5151   age166_m42            0.0000     7.4106E+01     4.5631   0.2868   103.5235
 71      0.0000     0.0000E+00    0.0000E+00    7.500000E+09  0.00400  3.243E-05    0   0.5110   age171_m42            0.0000     9.3982E+01     4.9251   0.2049   103.2766
 72      0.0000     0.0000E+00    0.0000E+00    1.000000E+10  0.00400  2.424E-05    0   0.5028   age181_m42            0.0000     1.2736E+02     5.3886   0.1193   103.0672
 73      0.0000     0.0000E+00    0.0000E+00    1.300000E+10  0.00400  1.883E-05    0   0.4927   age193_m42            0.0000     1.5888E+02     5.6460   0.0774   102.9742
 74      1.6478     4.3735E+00    4.2150E+00    1.500000E+10  0.00400  1.685E-05    0   0.4919   age201_m42            0.0000     1.5056E+02     5.5063   0.0838   102.8501
 75      0.0000     0.0000E+00    0.0000E+00    1.800000E+10  0.00400  1.452E-05    0   0.4874   age213_m42            0.0000     1.3529E+02     5.2578   0.1023   102.8670
 76      0.0000     0.0000E+00    0.0000E+00    1.000000E+06  0.00800  1.286E-02    0   1.0000   age020_m52            0.0000     3.1929E+02    15.3438   4.0000    76.6046
 77      0.0000     0.0000E+00    0.0000E+00    3.160000E+06  0.00800  3.147E-02    0   0.9966   age045_m52            0.0000     2.5629E+02    13.1188   4.0000    77.8167
 78      0.0000     0.0000E+00    0.0000E+00    5.010000E+06  0.00800  2.664E-02    0   0.9443   age055_m52            0.0000     1.1837E+02     7.2373   3.9799    80.3704
 79      0.0000     0.0000E+00    0.0000E+00    6.610000E+06  0.00800  2.151E-02    0   0.9177   age061_m52            0.0000     7.0043E+01     5.8004   2.6556    87.4307
 80      0.0000     0.0000E+00    0.0000E+00    8.710000E+06  0.00800  1.628E-02    0   0.8948   age067_m52            0.0000     5.8022E+01     6.0768   3.0339    87.2890
 81      0.0000     0.0000E+00    0.0000E+00    1.000000E+07  0.00800  1.215E-02    0   0.8827   age070_m52            0.0000     7.2982E+01     6.6945   3.3843    85.1007
 82      0.0000     0.0000E+00    0.0000E+00    1.445000E+07  0.00800  8.739E-03    0   0.8552   age078_m52            0.0000     6.1586E+01     6.0433   3.4176    86.6332
 83      0.0000     0.0000E+00    0.0000E+00    2.512000E+07  0.00800  5.676E-03    0   0.8162   age090_m52            0.0000     7.0721E+01     5.0897   2.9955    91.9113
 84      0.0000     0.0000E+00    0.0000E+00    4.000000E+07  0.00800  3.939E-03    0   0.7841   age104_m52            0.0000     9.7017E+01     3.8942   2.7968    96.0219
 85      0.0000     0.0000E+00    0.0000E+00    5.500000E+07  0.00800  3.155E-03    0   0.7627   age110_m52            0.0000     1.3551E+02     3.4131   2.7370    99.1644
 86      0.0000     0.0000E+00    0.0000E+00    1.015200E+08  0.00800  2.206E-03    0   0.7226   age116_m52            0.0000     2.3601E+02     4.0534   2.4944   105.8189
 87      0.0000     0.0000E+00    0.0000E+00    1.609000E+08  0.00800  1.596E-03    0   0.6963   age120_m52            0.0000     2.8844E+02     4.9935   2.2446   109.2002
 88      0.0000     0.0000E+00    0.0000E+00    2.861200E+08  0.00800  1.002E-03    0   0.6665   age125_m52            0.0000     4.4023E+02     7.4279   1.8677   116.1904
 89      0.0000     0.0000E+00    0.0000E+00    5.088000E+08  0.00800  5.759E-04    0   0.6377   age130_m52            0.0000     4.2476E+02     8.7266   1.4676   123.3942
 90      0.0000     0.0000E+00    0.0000E+00    9.047900E+08  0.00800  2.972E-04    0   0.6086   age135_m52            0.0000     1.4939E+02     8.1944   0.9327   123.1880
 91      0.0000     0.0000E+00    0.0000E+00    1.278050E+09  0.00800  2.242E-04    0   0.5907   age138_m52            0.0000     5.0311E+01     6.7026   0.3717   119.4852
 92      0.0000     0.0000E+00    0.0000E+00    1.434000E+09  0.00800  1.645E-04    0   0.5787   age139_m52            0.0000     4.1697E+01     6.0385   0.5384   117.7563
 93      0.0000     0.0000E+00    0.0000E+00    2.500000E+09  0.00800  7.723E-05    0   0.5519   age150_m52            0.0000     5.9103E+01     5.8682   0.2278   112.8188
 94      0.0000     0.0000E+00    0.0000E+00    4.250000E+09  0.00800  4.151E-05    0   0.5320   age158_m52            0.0000     8.2523E+01     5.6474   0.1786   109.2957
 95      0.0000     0.0000E+00    0.0000E+00    6.250000E+09  0.00800  3.010E-05    0   0.5197   age166_m52            0.0000     1.3981E+02     6.4174  -0.0234   108.5534
 96      0.0000     0.0000E+00    0.0000E+00    7.500000E+09  0.00800  2.467E-05    0   0.5139   age171_m52            0.0000     1.5557E+02     6.6649  -0.0689   108.4063
 97      4.9030     1.1777E+01    1.1661E+01    1.000000E+10  0.00800  1.862E-05    0   0.5054   age181_m52            0.0000     2.0219E+02     7.4914  -0.2146   108.9813
