###################################################################
## OUTPUT of StarlightChains_v04.for    [Cid@UFSC - 01/Apr/2007] ##
###################################################################

## Some input info
NGC6723_a_1.cxt                          [arq_obs]
Base.BC03.S                              [arq_base]
NGC6723_a_1.msk                          [arq_masks]
StCv04.C99.config                        [arq_config]
  150                                    [N_base]
    0                                    [N_YAV_components = # of components with extra extinction!]
    0                                    [i_FitPowerLaw (1/0 = Yes/No)]
-9.99                                    [alpha_PowerLaw]
CCM                                      [red_law_option]
 1.458241                                [q_norm = A(l_norm)/A(V)]

## (Re)Sampling Parameters
 3359.00                                 [l_ini (A)]
 6428.00                                 [l_fin (A)]
    1.00                                 [dl    (A)]     (OBS: dl_cushion =    50.00 A)

## Normalization info
 4020.00                                 [l_norm (A) - for base]
 4010.00                                 [llow_norm (A) - window for f_obs]
 4060.00                                 [lupp_norm (A) - window for f_obs]
2.195815E-14                             [fobs_norm (in input units)]

## S/N
 4730.00                                 [llow_SN (A) - window for S/N]
 4780.00                                 [lupp_SN (A) - window for S/N]
  66.760                                 [S/N in S/N window]
  58.282                                 [S/N in norm. window]
  95.225                                 [S/N_err in S/N window]
  83.132                                 [S/N_err in norm. window]
  1.0000                                 [fscale_chi2]

## etc...
  2147483590                             [idum_orig]
  3062                                   [NOl_eff]
  1844                                   [Nl_eff]
  1218    NSIGMA                         [Ntot_cliped & clip_method]
  3805340                                [Nglobal_steps]
   7                                     [N_chains]
  25                                     [NEX0s_base = N_base in EX0s-fits]
 0   0   1      119   2.0   1.984E+02    [Clip-Bug, RC-Crash & Burn-In warning-flags, n_censored_weights, wei_nsig_threshold & wei_limit]
   123    123.011    122.995      0.016  [idt_all, wdt_TotTime, wdt_UsrTime & wdt_SysTime (sec)]

## Synthesis Results - Best model ##

 2.57977E+00                             [chi2/Nl_eff]
     1.73784                             [adev (%)]

   101.41238                             [sum-of-x (%)]
 2.52176E-14                             [Flux_tot (units of input spectrum!)]
 5.23150E-10                             [Mini_tot (???)]
 2.67456E-10                             [Mcor_tot (???)]

  -0.72                                  [v0_min  (km/s)]
  36.64                                  [vd_min  (km/s)]
 0.0926                                  [AV_min  (mag)]
 0.0000                                  [YAV_min (mag)]

# j     x_j(%)      Mini_j(%)     Mcor_j(%)     age_j(yr)     Z_j      (L/M)_j    YAV?  Mstars   component_j        a/Fe...       SSP_chi2r SSP_adev(%)   SSP_AV   SSP_x(%)
  1      0.0000     0.0000E+00    0.0000E+00    1.000000E+06  0.00010  8.160E-03    0   1.0000   age020_m22            0.0000     1.6063E+02    13.5203   3.7236    79.3701
  2      8.6578     8.6473E-03    1.6914E-02    3.160000E+06  0.00010  4.759E-02    0   1.0000   age045_m22            0.0000     3.5945E+01     6.0903   1.7430    97.8969
  3      0.0000     0.0000E+00    0.0000E+00    5.010000E+06  0.00010  1.932E-02    0   0.9582   age055_m22            0.0000     1.4963E+02    13.2344   2.0295    85.1991
  4      0.0000     0.0000E+00    0.0000E+00    6.610000E+06  0.00010  9.973E-03    0   0.9297   age061_m22            0.0000     1.6418E+02    13.7569   3.6919    81.8363
  5      0.0000     0.0000E+00    0.0000E+00    8.710000E+06  0.00010  7.690E-03    0   0.9030   age067_m22            0.0000     1.5592E+02    13.4195   3.6854    82.2433
  6      0.0000     0.0000E+00    0.0000E+00    1.000000E+07  0.00010  6.375E-03    0   0.8902   age070_m22            0.0000     1.4876E+02    13.1005   3.6996    82.4106
  7      0.0000     0.0000E+00    0.0000E+00    1.445000E+07  0.00010  4.874E-03    0   0.8589   age078_m22            0.0000     1.1441E+02    11.6062   3.5254    85.1404
  8      0.0000     0.0000E+00    0.0000E+00    2.512000E+07  0.00010  4.103E-03    0   0.8174   age090_m22            0.0000     6.3266E+01     8.5553   3.1285    91.2922
  9      0.0000     1.1167E-07    1.7103E-07    4.000000E+07  0.00010  3.654E-03    0   0.7830   age104_m22            0.0000     5.2071E+01     6.6215   2.8425    95.6795
 10      0.0000     0.0000E+00    0.0000E+00    5.500000E+07  0.00010  3.093E-03    0   0.7597   age110_m22            0.0000     5.2267E+01     6.1520   2.7429    97.1943
 11      0.0000     0.0000E+00    0.0000E+00    1.015200E+08  0.00010  2.431E-03    0   0.7138   age116_m22            0.0000     6.4557E+01     6.1885   2.3999    99.9902
 12      0.0000     0.0000E+00    0.0000E+00    1.609000E+08  0.00010  1.319E-03    0   0.6775   age120_m22            0.0000     6.3273E+01     6.0301   1.9253   102.1966
 13      0.0000     0.0000E+00    0.0000E+00    2.861200E+08  0.00010  1.075E-03    0   0.6412   age125_m22            0.0000     1.3967E+02     8.2160   2.0007   105.6203
 14      0.0000     0.0000E+00    0.0000E+00    5.088000E+08  0.00010  7.183E-04    0   0.6083   age130_m22            0.0000     1.6743E+02     9.0959   1.7709   107.3807
 15      0.0000     0.0000E+00    0.0000E+00    9.047900E+08  0.00010  4.524E-04    0   0.5785   age135_m22            0.0000     1.6801E+02     9.2525   1.5735   108.5673
 16      0.0000     0.0000E+00    0.0000E+00    1.278050E+09  0.00010  3.018E-04    0   0.5588   age138_m22            0.0000     8.2357E+01     6.6822   1.0309   106.7990
 17      0.0000     0.0000E+00    0.0000E+00    1.434000E+09  0.00010  2.691E-04    0   0.5532   age139_m22            0.0000     6.7355E+01     6.1334   0.8728   106.2269
 18      0.0000     0.0000E+00    0.0000E+00    2.500000E+09  0.00010  1.582E-04    0   0.5296   age150_m22            0.0000     5.9281E+01     5.9544   0.7605   106.8789
 19      0.0000     0.0000E+00    0.0000E+00    4.250000E+09  0.00010  1.007E-04    0   0.5110   age158_m22            0.0000     3.4113E+01     4.6672   0.6041   105.2146
 20      0.0000     0.0000E+00    0.0000E+00    6.250000E+09  0.00010  6.869E-05    0   0.4985   age166_m22            0.0000     1.8786E+01     3.6254   0.5417   102.5068
 21      0.0081     6.5738E-03    6.3406E-03    7.500000E+09  0.00010  5.873E-05    0   0.4931   age171_m22            0.0000     1.8392E+01     3.6709   0.5290   101.9704
 22      0.0000     0.0000E+00    0.0000E+00    1.000000E+10  0.00010  4.481E-05    0   0.4854   age181_m22            0.0000     1.7430E+01     3.5947   0.4900   101.6257
 23      0.0000     0.0000E+00    0.0000E+00    1.300000E+10  0.00010  3.489E-05    0   0.4791   age193_m22            0.0000     1.5445E+01     3.4137   0.4319   101.0987
 24      0.0027     4.1861E-03    3.9025E-03    1.500000E+10  0.00010  3.035E-05    0   0.4766   age201_m22            0.0000     1.4493E+01     3.3345   0.3920   100.9135
 25      0.0000     0.0000E+00    0.0000E+00    1.800000E+10  0.00010  2.510E-05    0   0.4735   age213_m22            0.0000     1.2689E+01     3.1917   0.3220   100.3080
 26      0.0000     0.0000E+00    0.0000E+00    1.000000E+06  0.00040  8.458E-03    0   1.0000   age020_m32            0.0000     1.5937E+02    13.4759   3.7406    79.9414
 27      0.0000     0.0000E+00    0.0000E+00    3.160000E+06  0.00040  3.973E-02    0   1.0000   age045_m32            0.0000     6.8254E+01     9.0043   3.0207    91.3621
 28      0.0000     0.0000E+00    0.0000E+00    5.010000E+06  0.00040  1.935E-02    0   0.9532   age055_m32            0.0000     1.2966E+02    12.5008   3.2431    85.5403
 29      0.0000     0.0000E+00    0.0000E+00    6.610000E+06  0.00040  1.204E-02    0   0.9243   age061_m32            0.0000     1.3981E+02    12.8066   3.5551    83.7454
 30      0.0000     0.0000E+00    0.0000E+00    8.710000E+06  0.00040  9.433E-03    0   0.9001   age067_m32            0.0000     1.2684E+02    12.2347   3.5300    84.5944
 31      0.0000     0.0000E+00    0.0000E+00    1.000000E+07  0.00040  8.053E-03    0   0.8877   age070_m32            0.0000     1.2192E+02    12.0100   3.4952    85.0336
 32      0.0000     0.0000E+00    0.0000E+00    1.445000E+07  0.00040  7.027E-03    0   0.8578   age078_m32            0.0000     8.3821E+01    10.0558   2.9800    89.9945
 33      0.0000     0.0000E+00    0.0000E+00    2.512000E+07  0.00040  4.707E-03    0   0.8166   age090_m32            0.0000     6.0293E+01     8.2157   2.6895    93.7544
 34      0.0000     0.0000E+00    0.0000E+00    4.000000E+07  0.00040  3.714E-03    0   0.7827   age104_m32            0.0000     5.0864E+01     6.7281   2.4930    96.9479
 35      0.0000     0.0000E+00    0.0000E+00    5.500000E+07  0.00040  2.982E-03    0   0.7593   age110_m32            0.0000     5.1985E+01     6.3755   2.4346    98.0740
 36      0.0000     0.0000E+00    0.0000E+00    1.015200E+08  0.00040  2.188E-03    0   0.7143   age116_m32            0.0000     8.2264E+01     6.5203   2.1774   102.2398
 37      0.0000     0.0000E+00    0.0000E+00    1.609000E+08  0.00040  1.690E-03    0   0.6856   age120_m32            0.0000     1.1513E+02     7.5238   1.9755   104.8000
 38      0.0000     0.0000E+00    0.0000E+00    2.861200E+08  0.00040  1.152E-03    0   0.6509   age125_m32            0.0000     1.4533E+02     8.4082   1.7517   106.7889
 39      0.0000     0.0000E+00    0.0000E+00    5.088000E+08  0.00040  7.331E-04    0   0.6182   age130_m32            0.0000     1.5597E+02     8.8010   1.5891   107.5469
 40      0.0000     0.0000E+00    0.0000E+00    9.047900E+08  0.00040  3.960E-04    0   0.5890   age135_m32            0.0000     8.4069E+01     6.7369   1.1241   106.1634
 41      0.0000     0.0000E+00    0.0000E+00    1.278050E+09  0.00040  2.854E-04    0   0.5687   age138_m32            0.0000     6.6891E+01     6.2264   0.8285   107.8672
 42      0.0000     0.0000E+00    0.0000E+00    1.434000E+09  0.00040  2.531E-04    0   0.5632   age139_m32            0.0000     6.5007E+01     6.1733   0.7664   107.8312
 43      4.8614     1.5529E+00    1.6360E+00    2.500000E+09  0.00040  1.488E-04    0   0.5386   age150_m32            0.0000     4.3780E+01     5.1654   0.5033   106.1394
 44     41.3139     2.1622E+01    2.1988E+01    4.250000E+09  0.00040  9.082E-05    0   0.5199   age158_m32            0.0000     1.5347E+01     3.1986   0.3969   102.8342
 45      4.5499     3.3993E+00    3.3751E+00    6.250000E+09  0.00040  6.362E-05    0   0.5076   age166_m32            0.0000     1.0610E+01     3.0683   0.3506    99.4401
 46      1.2551     1.1280E+00    1.1091E+00    7.500000E+09  0.00040  5.289E-05    0   0.5027   age171_m32            0.0000     1.0372E+01     3.1088   0.3126    98.2238
 47      0.0108     1.2956E-02    1.2539E-02    1.000000E+10  0.00040  3.972E-05    0   0.4948   age181_m32            0.0000     9.7953E+00     3.0272   0.2494    96.9147
 48      0.0040     5.7752E-03    5.5013E-03    1.300000E+10  0.00040  3.283E-05    0   0.4870   age193_m32            0.0000     7.6977E+00     2.5575   0.2075    99.6167
 49      0.0030     4.8530E-03    4.6077E-03    1.500000E+10  0.00040  2.925E-05    0   0.4854   age201_m32            0.0000     8.9428E+00     2.6159   0.1905   101.1914
 50      0.0000     0.0000E+00    0.0000E+00    1.800000E+10  0.00040  2.469E-05    0   0.4819   age213_m32            0.0000     9.5829E+00     2.6652   0.1499   101.7067
 51      0.0000     0.0000E+00    0.0000E+00    1.000000E+06  0.00400  1.114E-02    0   1.0000   age020_m42            0.0000     1.5352E+02    13.1866   3.6718    80.3539
 52      0.0000     0.0000E+00    0.0000E+00    3.160000E+06  0.00400  4.073E-02    0   0.9999   age045_m42            0.0000     4.8044E+01     7.3782   2.7192    93.9678
 53      0.0000     0.0000E+00    0.0000E+00    5.010000E+06  0.00400  2.534E-02    0   0.9488   age055_m42            0.0000     8.9298E+01    10.3858   3.1226    87.7969
 54      0.0000     0.0000E+00    0.0000E+00    6.610000E+06  0.00400  2.583E-02    0   0.9220   age061_m42            0.0000     4.5467E+01     6.8359   2.5410    94.6935
 55      0.0000     0.0000E+00    0.0000E+00    8.710000E+06  0.00400  1.706E-02    0   0.8983   age067_m42            0.0000     6.2458E+01     8.7101   2.3592    92.8130
 56      0.0000     0.0000E+00    0.0000E+00    1.000000E+07  0.00400  1.271E-02    0   0.8862   age070_m42            0.0000     8.4390E+01    10.3347   2.3423    91.2592
 57      0.0000     0.0000E+00    0.0000E+00    1.445000E+07  0.00400  7.666E-03    0   0.8571   age078_m42            0.0000     1.0421E+02    11.2622   2.7457    88.1524
 58      0.0000     0.0000E+00    0.0000E+00    2.512000E+07  0.00400  5.070E-03    0   0.8174   age090_m42            0.0000     7.3718E+01     9.7072   2.2085    92.9117
 59      0.0000     0.0000E+00    0.0000E+00    4.000000E+07  0.00400  3.505E-03    0   0.7851   age104_m42            0.0000     4.8651E+01     7.8333   1.8883    95.9202
 60      0.0000     0.0000E+00    0.0000E+00    5.500000E+07  0.00400  3.059E-03    0   0.7629   age110_m42            0.0000     4.1356E+01     5.5692   1.9549   100.4735
 61      0.0042     8.8765E-05    1.2513E-04    1.015200E+08  0.00400  2.268E-03    0   0.7207   age116_m42            0.0000     9.7009E+01     6.7035   1.8824   105.5139
 62      0.0000     0.0000E+00    0.0000E+00    1.609000E+08  0.00400  1.720E-03    0   0.6930   age120_m42            0.0000     1.0497E+02     6.9051   1.7449   107.1048
 63      0.0000     0.0000E+00    0.0000E+00    2.861200E+08  0.00400  1.079E-03    0   0.6613   age125_m42            0.0000     1.0457E+02     7.1792   1.3881   107.6774
 64      0.0000     0.0000E+00    0.0000E+00    5.088000E+08  0.00400  6.261E-04    0   0.6313   age130_m42            0.0000     1.1860E+02     7.8024   1.1972   110.5091
 65      0.0134     1.7960E-03    2.1163E-03    9.047900E+08  0.00400  3.535E-04    0   0.6024   age135_m42            0.0000     6.5937E+01     6.0354   0.7910   110.6628
 66      0.0001     1.5348E-05    1.7523E-05    1.278050E+09  0.00400  2.677E-04    0   0.5837   age138_m42            0.0000     1.9616E+01     4.0406   0.0898   108.0140
 67      0.0000     0.0000E+00    0.0000E+00    1.434000E+09  0.00400  1.910E-04    0   0.5716   age139_m42            0.0000     2.6478E+01     4.2846   0.2613   108.9545
 68      0.1729     8.3693E-02    8.9432E-02    2.500000E+09  0.00400  9.818E-05    0   0.5463   age150_m42            0.0000     7.8410E+00     2.8766  -0.0133   104.0044
 69      0.0000     0.0000E+00    0.0000E+00    4.250000E+09  0.00400  5.491E-05    0   0.5269   age158_m42            0.0000     1.0263E+01     3.0879  -0.1399   101.1406
 70      8.0822     9.9601E+00    1.0035E+01    6.250000E+09  0.00400  3.857E-05    0   0.5151   age166_m42            0.0000     1.7316E+01     3.7644  -0.2668    99.7519
 71     10.8256     1.5867E+01    1.5859E+01    7.500000E+09  0.00400  3.243E-05    0   0.5110   age171_m42            0.0000     2.2737E+01     4.2069  -0.3452    99.1576
 72     13.5991     2.6666E+01    2.6226E+01    1.000000E+10  0.00400  2.424E-05    0   0.5028   age181_m42            0.0000     3.1414E+01     4.8070  -0.4243    98.4714
 73      0.0007     1.8390E-03    1.7723E-03    1.300000E+10  0.00400  1.883E-05    0   0.4927   age193_m42            0.0000     3.9258E+01     5.2661  -0.4636    98.0993
 74      0.0035     9.7695E-03    9.3999E-03    1.500000E+10  0.00400  1.685E-05    0   0.4919   age201_m42            0.0000     3.7120E+01     5.1434  -0.4597    98.1371
 75      0.0000     0.0000E+00    0.0000E+00    1.800000E+10  0.00400  1.452E-05    0   0.4874   age213_m42            0.0000     3.3401E+01     4.9243  -0.4466    98.4424
 76      0.0000     0.0000E+00    0.0000E+00    1.000000E+06  0.00800  1.286E-02    0   1.0000   age020_m52            0.0000     1.3699E+02    12.5579   3.6529    82.0114
 77      0.0000     0.0000E+00    0.0000E+00    3.160000E+06  0.00800  3.147E-02    0   0.9966   age045_m52            0.0000     1.3444E+02    12.4784   3.5683    83.4137
 78      0.0000     0.0000E+00    0.0000E+00    5.010000E+06  0.00800  2.664E-02    0   0.9443   age055_m52            0.0000     1.0244E+02    11.0043   3.2431    86.8226
 79      0.0000     0.0000E+00    0.0000E+00    6.610000E+06  0.00800  2.151E-02    0   0.9177   age061_m52            0.0000     6.4614E+01     9.0851   1.9298    93.1465
 80      0.0000     0.0000E+00    0.0000E+00    8.710000E+06  0.00800  1.628E-02    0   0.8948   age067_m52            0.0000     6.9376E+01     9.3406   2.3104    93.2900
 81      0.0000     0.0000E+00    0.0000E+00    1.000000E+07  0.00800  1.215E-02    0   0.8827   age070_m52            0.0000     8.3625E+01    10.1968   2.6534    91.3877
 82      0.0000     0.0000E+00    0.0000E+00    1.445000E+07  0.00800  8.739E-03    0   0.8552   age078_m52            0.0000     7.2656E+01     9.3259   2.6977    92.6516
 83      0.0000     0.0000E+00    0.0000E+00    2.512000E+07  0.00800  5.676E-03    0   0.8162   age090_m52            0.0000     6.1316E+01     7.9463   2.2994    97.2321
 84      0.0000     0.0000E+00    0.0000E+00    4.000000E+07  0.00800  3.939E-03    0   0.7841   age104_m52            0.0000     5.6518E+01     6.8425   2.1427    99.6876
 85      0.0000     0.0000E+00    0.0000E+00    5.500000E+07  0.00800  3.155E-03    0   0.7627   age110_m52            0.0000     5.9576E+01     6.2464   2.1176   101.4212
 86      0.0000     0.0000E+00    0.0000E+00    1.015200E+08  0.00800  2.206E-03    0   0.7226   age116_m52            0.0000     7.7717E+01     6.1351   1.9394   105.2801
 87      0.0000     0.0000E+00    0.0000E+00    1.609000E+08  0.00800  1.596E-03    0   0.6963   age120_m52            0.0000     8.8723E+01     6.5035   1.7257   107.0252
 88      0.0000     0.0000E+00    0.0000E+00    2.861200E+08  0.00800  1.002E-03    0   0.6665   age125_m52            0.0000     1.2650E+02     7.9683   1.4324   109.9283
 89      0.0000     0.0000E+00    0.0000E+00    5.088000E+08  0.00800  5.759E-04    0   0.6377   age130_m52            0.0000     1.3074E+02     8.5049   1.0815   113.9633
 90      0.0000     0.0000E+00    0.0000E+00    9.047900E+08  0.00800  2.972E-04    0   0.6086   age135_m52            0.0000     6.7514E+01     6.6927   0.5394   112.6479
 91      0.0000     0.0000E+00    0.0000E+00    1.278050E+09  0.00800  2.242E-04    0   0.5907   age138_m52            0.0000     2.6438E+01     4.6307  -0.0790   110.7117
 92      0.0000     0.0000E+00    0.0000E+00    1.434000E+09  0.00800  1.645E-04    0   0.5787   age139_m52            0.0000     2.0628E+01     4.1174   0.0696   110.1267
 93      0.0000     0.0000E+00    0.0000E+00    2.500000E+09  0.00800  7.723E-05    0   0.5519   age150_m52            0.0000     1.9935E+01     4.1569  -0.2681   106.0936
 94      0.0000     0.0000E+00    0.0000E+00    4.250000E+09  0.00800  4.151E-05    0   0.5320   age158_m52            0.0000     2.2229E+01     4.3198  -0.3384   103.5139
 95      0.0010     1.6159E-03    1.6426E-03    6.250000E+09  0.00800  3.010E-05    0   0.5197   age166_m52            0.0000     3.6839E+01     5.2671  -0.5305   101.9992
 96      0.0000     0.0000E+00    0.0000E+00    7.500000E+09  0.00800  2.467E-05    0   0.5139   age171_m52            0.0000     4.1361E+01     5.5205  -0.5712   101.5651
 97      3.2453     8.2843E+00    8.1897E+00    1.000000E+10  0.00800  1.862E-05    0   0.5054   age181_m52            0.0000     5.6034E+01     6.3222  -0.7001   101.1019
