###################################################################
## OUTPUT of StarlightChains_v04.for    [Cid@UFSC - 01/Apr/2007] ##
###################################################################

## Some input info
NGC6569_a_1.cxt                          [arq_obs]
Base.BC03.S                              [arq_base]
NGC6569_a_1.msk                          [arq_masks]
StCv04.C99.config                        [arq_config]
  150                                    [N_base]
    0                                    [N_YAV_components = # of components with extra extinction!]
    0                                    [i_FitPowerLaw (1/0 = Yes/No)]
-9.99                                    [alpha_PowerLaw]
CCM                                      [red_law_option]
 1.458241                                [q_norm = A(l_norm)/A(V)]

## (Re)Sampling Parameters
 3359.00                                 [l_ini (A)]
 6428.00                                 [l_fin (A)]
    1.00                                 [dl    (A)]     (OBS: dl_cushion =    50.00 A)

## Normalization info
 4020.00                                 [l_norm (A) - for base]
 4010.00                                 [llow_norm (A) - window for f_obs]
 4060.00                                 [lupp_norm (A) - window for f_obs]
3.450800E-15                             [fobs_norm (in input units)]

## S/N
 4730.00                                 [llow_SN (A) - window for S/N]
 4780.00                                 [lupp_SN (A) - window for S/N]
  49.160                                 [S/N in S/N window]
  30.918                                 [S/N in norm. window]
 207.538                                 [S/N_err in S/N window]
 130.528                                 [S/N_err in norm. window]
  1.0000                                 [fscale_chi2]

## etc...
  2147483598                             [idum_orig]
  3066                                   [NOl_eff]
   802                                   [Nl_eff]
  2264    NSIGMA                         [Ntot_cliped & clip_method]
  5083890                                [Nglobal_steps]
   7                                     [N_chains]
  27                                     [NEX0s_base = N_base in EX0s-fits]
 0   0   1       50   2.0   3.260E+02    [Clip-Bug, RC-Crash & Burn-In warning-flags, n_censored_weights, wei_nsig_threshold & wei_limit]
   202    201.727    201.723      0.004  [idt_all, wdt_TotTime, wdt_UsrTime & wdt_SysTime (sec)]

## Synthesis Results - Best model ##

 2.77024E+00                             [chi2/Nl_eff]
     1.47066                             [adev (%)]

    97.68194                             [sum-of-x (%)]
 3.21884E-14                             [Flux_tot (units of input spectrum!)]
 1.39756E-09                             [Mini_tot (???)]
 6.94445E-10                             [Mcor_tot (???)]

 -13.24                                  [v0_min  (km/s)]
   0.01                                  [vd_min  (km/s)]
 1.6800                                  [AV_min  (mag)]
 0.0000                                  [YAV_min (mag)]

# j     x_j(%)      Mini_j(%)     Mcor_j(%)     age_j(yr)     Z_j      (L/M)_j    YAV?  Mstars   component_j        a/Fe...       SSP_chi2r SSP_adev(%)   SSP_AV   SSP_x(%)
  1      0.0000     0.0000E+00    0.0000E+00    1.000000E+06  0.00010  8.160E-03    0   1.0000   age020_m22            0.0000     4.2964E+03    36.4094   4.0000   107.3870
  2      5.8335     2.8902E-03    5.8165E-03    3.160000E+06  0.00010  4.759E-02    0   1.0000   age045_m22            0.0000     1.3579E+02     5.4298   3.3052    97.6259
  3     12.7896     1.5609E-02    3.0099E-02    5.010000E+06  0.00010  1.932E-02    0   0.9582   age055_m22            0.0000     3.0231E+02    11.1417   3.4811    86.8992
  4      0.0000     0.0000E+00    0.0000E+00    6.610000E+06  0.00010  9.973E-03    0   0.9297   age061_m22            0.0000     4.0374E+03    35.5693   4.0000   110.3146
  5      0.0000     0.0000E+00    0.0000E+00    8.710000E+06  0.00010  7.690E-03    0   0.9030   age067_m22            0.0000     3.9812E+03    35.2347   4.0000   110.7742
  6      0.0000     0.0000E+00    0.0000E+00    1.000000E+07  0.00010  6.375E-03    0   0.8902   age070_m22            0.0000     4.0657E+03    35.3590   4.0000   111.2173
  7      0.0000     0.0000E+00    0.0000E+00    1.445000E+07  0.00010  4.874E-03    0   0.8589   age078_m22            0.0000     2.9820E+03    30.4405   4.0000   111.8626
  8      0.0000     0.0000E+00    0.0000E+00    2.512000E+07  0.00010  4.103E-03    0   0.8174   age090_m22            0.0000     1.2742E+03    19.6091   4.0000   110.6242
  9      0.0000     0.0000E+00    0.0000E+00    4.000000E+07  0.00010  3.654E-03    0   0.7830   age104_m22            0.0000     6.5083E+02    12.1149   4.0000   107.9541
 10      0.0000     0.0000E+00    0.0000E+00    5.500000E+07  0.00010  3.093E-03    0   0.7597   age110_m22            0.0000     5.3557E+02    10.4711   4.0000   106.6658
 11      0.0000     0.0000E+00    0.0000E+00    1.015200E+08  0.00010  2.431E-03    0   0.7138   age116_m22            0.0000     3.5901E+02     9.3903   4.0000    98.3785
 12      0.0000     0.0000E+00    0.0000E+00    1.609000E+08  0.00010  1.319E-03    0   0.6775   age120_m22            0.0000     3.3570E+02     9.0693   3.5240   100.4529
 13      0.0000     0.0000E+00    0.0000E+00    2.861200E+08  0.00010  1.075E-03    0   0.6412   age125_m22            0.0000     6.7427E+02    13.1472   3.6748   101.6882
 14      0.0000     0.0000E+00    0.0000E+00    5.088000E+08  0.00010  7.183E-04    0   0.6083   age130_m22            0.0000     7.8257E+02    14.2823   3.4701   102.6418
 15      0.0000     0.0000E+00    0.0000E+00    9.047900E+08  0.00010  4.524E-04    0   0.5785   age135_m22            0.0000     7.8967E+02    14.4537   3.2705   103.7571
 16      0.0000     0.0000E+00    0.0000E+00    1.278050E+09  0.00010  3.018E-04    0   0.5588   age138_m22            0.0000     4.5669E+02    10.9833   2.6830   103.7523
 17      0.0000     0.0000E+00    0.0000E+00    1.434000E+09  0.00010  2.691E-04    0   0.5532   age139_m22            0.0000     3.9597E+02    10.2438   2.5159   103.5740
 18      0.0000     0.0000E+00    0.0000E+00    2.500000E+09  0.00010  1.582E-04    0   0.5296   age150_m22            0.0000     3.5651E+02     9.8138   2.3835   104.7243
 19      0.0000     0.0000E+00    0.0000E+00    4.250000E+09  0.00010  1.007E-04    0   0.5110   age158_m22            0.0000     2.4216E+02     8.0574   2.2099   103.6716
 20      0.0000     0.0000E+00    0.0000E+00    6.250000E+09  0.00010  6.869E-05    0   0.4985   age166_m22            0.0000     1.4995E+02     6.1916   2.1272   101.5865
 21      0.0000     0.0000E+00    0.0000E+00    7.500000E+09  0.00010  5.873E-05    0   0.4931   age171_m22            0.0000     1.3753E+02     5.9227   2.1071   101.2176
 22      0.0000     0.0000E+00    0.0000E+00    1.000000E+10  0.00010  4.481E-05    0   0.4854   age181_m22            0.0000     1.3394E+02     5.8507   2.0687   100.8774
 23      0.0000     0.0000E+00    0.0000E+00    1.300000E+10  0.00010  3.489E-05    0   0.4791   age193_m22            0.0000     1.2503E+02     5.6328   2.0125   100.3491
 24      0.0000     0.0000E+00    0.0000E+00    1.500000E+10  0.00010  3.035E-05    0   0.4766   age201_m22            0.0000     1.1854E+02     5.4814   1.9727   100.1978
 25      0.0000     0.0000E+00    0.0000E+00    1.800000E+10  0.00010  2.510E-05    0   0.4735   age213_m22            0.0000     1.0363E+02     5.0920   1.9002    99.7385
 26      0.5761     1.6059E-03    3.2319E-03    1.000000E+06  0.00040  8.458E-03    0   1.0000   age020_m32            0.0000     4.3869E+03    36.6845   4.0000   108.4211
 27      0.0000     0.0000E+00    0.0000E+00    3.160000E+06  0.00040  3.973E-02    0   1.0000   age045_m32            0.0000     9.3027E+02    17.1885   4.0000   107.8105
 28      0.0000     0.0000E+00    0.0000E+00    5.010000E+06  0.00040  1.935E-02    0   0.9532   age055_m32            0.0000     1.6402E+03    24.1111   4.0000   106.1887
 29      0.0000     0.0000E+00    0.0000E+00    6.610000E+06  0.00040  1.204E-02    0   0.9243   age061_m32            0.0000     3.1679E+03    31.8471   4.0000   110.5460
 30      0.0000     0.0000E+00    0.0000E+00    8.710000E+06  0.00040  9.433E-03    0   0.9001   age067_m32            0.0000     3.0045E+03    30.9011   4.0000   111.2180
 31      0.0000     0.0000E+00    0.0000E+00    1.000000E+07  0.00040  8.053E-03    0   0.8877   age070_m32            0.0000     2.8095E+03    29.9497   4.0000   111.1105
 32      0.0000     0.0000E+00    0.0000E+00    1.445000E+07  0.00040  7.027E-03    0   0.8578   age078_m32            0.0000     7.8155E+02    16.7097   4.0000   104.7762
 33      0.0000     0.0000E+00    0.0000E+00    2.512000E+07  0.00040  4.707E-03    0   0.8166   age090_m32            0.0000     3.0144E+02     9.7199   4.0000   100.5717
 34      0.0009     5.7590E-06    9.0714E-06    4.000000E+07  0.00040  3.714E-03    0   0.7827   age104_m32            0.0000     2.3802E+02     7.4966   4.0000    97.9652
 35      0.0000     0.0000E+00    0.0000E+00    5.500000E+07  0.00040  2.982E-03    0   0.7593   age110_m32            0.0000     2.6410E+02     7.8236   4.0000    97.2844
 36      0.0000     0.0000E+00    0.0000E+00    1.015200E+08  0.00040  2.188E-03    0   0.7143   age116_m32            0.0000     4.4787E+02    10.5866   3.8049    99.8395
 37      0.0000     0.0000E+00    0.0000E+00    1.609000E+08  0.00040  1.690E-03    0   0.6856   age120_m32            0.0000     5.7391E+02    12.1018   3.6231   101.7831
 38      0.0000     0.0000E+00    0.0000E+00    2.861200E+08  0.00040  1.152E-03    0   0.6509   age125_m32            0.0000     6.9707E+02    13.4460   3.4391   102.4781
 39      0.0000     0.0000E+00    0.0000E+00    5.088000E+08  0.00040  7.331E-04    0   0.6182   age130_m32            0.0000     7.4539E+02    13.9600   3.2897   102.8229
 40      0.0000     0.0000E+00    0.0000E+00    9.047900E+08  0.00040  3.960E-04    0   0.5890   age135_m32            0.0000     4.8235E+02    11.3441   2.7937   102.6330
 41      0.0000     0.0000E+00    0.0000E+00    1.278050E+09  0.00040  2.854E-04    0   0.5687   age138_m32            0.0000     4.0325E+02    10.5152   2.4679   105.1696
 42      0.0000     0.0000E+00    0.0000E+00    1.434000E+09  0.00040  2.531E-04    0   0.5632   age139_m32            0.0000     3.9167E+02    10.3649   2.4021   105.2933
 43      0.0000     0.0000E+00    0.0000E+00    2.500000E+09  0.00040  1.488E-04    0   0.5386   age150_m32            0.0000     3.0527E+02     9.1339   2.1368   103.9331
 44      0.0000     0.0000E+00    0.0000E+00    4.250000E+09  0.00040  9.082E-05    0   0.5199   age158_m32            0.0000     1.5027E+02     6.2412   2.0015   101.6830
 45     17.9096     6.6375E+00    6.7805E+00    6.250000E+09  0.00040  6.362E-05    0   0.5076   age166_m32            0.0000     6.8183E+01     3.9908   1.9239    99.2049
 46     22.1086     9.8560E+00    9.9711E+00    7.500000E+09  0.00040  5.289E-05    0   0.5027   age171_m32            0.0000     5.6593E+01     3.5810   1.8855    98.0301
 47     12.3918     7.3559E+00    7.3249E+00    1.000000E+10  0.00040  3.972E-05    0   0.4948   age181_m32            0.0000     5.0314E+01     3.3231   1.8243    96.7191
 48      0.0000     0.0000E+00    0.0000E+00    1.300000E+10  0.00040  3.283E-05    0   0.4870   age193_m32            0.0000     7.6737E+01     4.3478   1.7969    99.0752
 49      0.0000     0.0000E+00    0.0000E+00    1.500000E+10  0.00040  2.925E-05    0   0.4854   age201_m32            0.0000     9.9773E+01     5.0933   1.7887   100.4127
 50      0.0000     0.0000E+00    0.0000E+00    1.800000E+10  0.00040  2.469E-05    0   0.4819   age213_m32            0.0000     1.0845E+02     5.3783   1.7525   100.8599
 51      0.0438     9.2777E-05    1.8671E-04    1.000000E+06  0.00400  1.114E-02    0   1.0000   age020_m42            0.0000     3.9265E+03    34.9220   4.0000   107.9526
 52      0.0000     0.0000E+00    0.0000E+00    3.160000E+06  0.00400  4.073E-02    0   0.9999   age045_m42            0.0000     3.5080E+02     9.8942   4.0000   102.3275
 53      0.0000     0.0000E+00    0.0000E+00    5.010000E+06  0.00400  2.534E-02    0   0.9488   age055_m42            0.0000     1.2090E+03    20.2204   4.0000   106.2427
 54      0.0000     0.0000E+00    0.0000E+00    6.610000E+06  0.00400  2.583E-02    0   0.9220   age061_m42            0.0000     2.0559E+02     7.1513   4.0000    97.5358
 55      0.0000     0.0000E+00    0.0000E+00    8.710000E+06  0.00400  1.706E-02    0   0.8983   age067_m42            0.0000     1.6093E+02     7.3246   3.8670    93.7342
 56      0.0000     0.0000E+00    0.0000E+00    1.000000E+07  0.00400  1.271E-02    0   0.8862   age070_m42            0.0000     1.9778E+02     8.8435   3.8205    92.9017
 57      0.0000     0.0000E+00    0.0000E+00    1.445000E+07  0.00400  7.666E-03    0   0.8571   age078_m42            0.0000     3.4293E+02    12.4166   4.0000    96.1295
 58      0.0000     0.0000E+00    0.0000E+00    2.512000E+07  0.00400  5.070E-03    0   0.8174   age090_m42            0.0000     1.6909E+02     8.1726   3.6985    94.4263
 59      0.0000     0.0000E+00    0.0000E+00    4.000000E+07  0.00400  3.505E-03    0   0.7851   age104_m42            0.0000     1.1689E+02     6.4740   3.4103    96.9822
 60      0.0000     0.0000E+00    0.0000E+00    5.500000E+07  0.00400  3.059E-03    0   0.7629   age110_m42            0.0000     1.9590E+02     6.6646   3.5396    99.9424
 61      0.0000     0.0000E+00    0.0000E+00    1.015200E+08  0.00400  2.268E-03    0   0.7207   age116_m42            0.0000     4.9844E+02    11.2530   3.5396   102.7079
 62      0.0000     0.0000E+00    0.0000E+00    1.609000E+08  0.00400  1.720E-03    0   0.6930   age120_m42            0.0000     5.4796E+02    11.8533   3.4213   103.6286
 63      0.0000     0.0000E+00    0.0000E+00    2.861200E+08  0.00400  1.079E-03    0   0.6613   age125_m42            0.0000     5.2974E+02    11.8521   3.0634   104.1350
 64      0.0000     0.0000E+00    0.0000E+00    5.088000E+08  0.00400  6.261E-04    0   0.6313   age130_m42            0.0000     5.9618E+02    12.7253   2.8722   106.8117
 65      0.0000     0.0000E+00    0.0000E+00    9.047900E+08  0.00400  3.535E-04    0   0.6024   age135_m42            0.0000     4.0065E+02    10.6569   2.4487   107.9116
 66      0.0000     0.0000E+00    0.0000E+00    1.278050E+09  0.00400  2.677E-04    0   0.5837   age138_m42            0.0000     1.9535E+02     8.1305   1.7545   106.4234
 67      0.0000     0.0000E+00    0.0000E+00    1.434000E+09  0.00400  1.910E-04    0   0.5716   age139_m42            0.0000     2.3643E+02     8.6162   1.9321   106.8347
 68      0.0000     0.0000E+00    0.0000E+00    2.500000E+09  0.00400  9.818E-05    0   0.5463   age150_m42            0.0000     1.2141E+02     6.5054   1.6481   102.6294
 69      0.0034     1.4774E-03    1.5666E-03    4.250000E+09  0.00400  5.491E-05    0   0.5269   age158_m42            0.0000     8.7073E+01     5.5335   1.5064   100.4028
 70      0.0000     0.0000E+00    0.0000E+00    6.250000E+09  0.00400  3.857E-05    0   0.5151   age166_m42            0.0000     1.0286E+02     5.8675   1.3849    99.0817
 71      0.0000     0.0000E+00    0.0000E+00    7.500000E+09  0.00400  3.243E-05    0   0.5110   age171_m42            0.0000     1.2017E+02     6.2081   1.3113    98.5115
 72      1.3887     1.3508E+00    1.3668E+00    1.000000E+10  0.00400  2.424E-05    0   0.5028   age181_m42            0.0000     1.4697E+02     6.7019   1.2373    97.8458
 73      3.6373     4.5545E+00    4.5161E+00    1.300000E+10  0.00400  1.883E-05    0   0.4927   age193_m42            0.0000     1.6784E+02     7.0324   1.1989    97.5550
 74      3.8608     5.4024E+00    5.3481E+00    1.500000E+10  0.00400  1.685E-05    0   0.4919   age201_m42            0.0000     1.5905E+02     6.8553   1.2009    97.6517
 75      3.2924     5.3463E+00    5.2442E+00    1.800000E+10  0.00400  1.452E-05    0   0.4874   age213_m42            0.0000     1.4417E+02     6.5455   1.2113    98.0398
 76      0.0000     0.0000E+00    0.0000E+00    1.000000E+06  0.00800  1.286E-02    0   1.0000   age020_m52            0.0000     3.7838E+03    34.0931   4.0000   109.9153
 77      0.0000     0.0000E+00    0.0000E+00    3.160000E+06  0.00800  3.147E-02    0   0.9966   age045_m52            0.0000     3.2506E+03    32.0654   4.0000   110.4114
 78      0.0000     0.0000E+00    0.0000E+00    5.010000E+06  0.00800  2.664E-02    0   0.9443   age055_m52            0.0000     1.6453E+03    23.4961   4.0000   107.9339
 79      0.0000     0.0000E+00    0.0000E+00    6.610000E+06  0.00800  2.151E-02    0   0.9177   age061_m52            0.0000     1.2691E+02     7.3881   3.4309    94.4284
 80      0.0000     0.0000E+00    0.0000E+00    8.710000E+06  0.00800  1.628E-02    0   0.8948   age067_m52            0.0000     1.6268E+02     7.8788   3.8100    94.4988
 81      0.0000     0.0000E+00    0.0000E+00    1.000000E+07  0.00800  1.215E-02    0   0.8827   age070_m52            0.0000     2.4357E+02    10.1497   4.0000    97.1715
 82      0.0000     0.0000E+00    0.0000E+00    1.445000E+07  0.00800  8.739E-03    0   0.8552   age078_m52            0.0000     2.8672E+02    10.4239   4.0000    99.9982
 83      0.0000     0.0000E+00    0.0000E+00    2.512000E+07  0.00800  5.676E-03    0   0.8162   age090_m52            0.0000     2.0471E+02     7.3792   3.8292    97.9446
 84      0.0000     0.0000E+00    0.0000E+00    4.000000E+07  0.00800  3.939E-03    0   0.7841   age104_m52            0.0000     2.2944E+02     7.3202   3.7044    99.5954
 85      0.0000     0.0000E+00    0.0000E+00    5.500000E+07  0.00800  3.155E-03    0   0.7627   age110_m52            0.0000     2.8332E+02     8.0574   3.7036   100.5966
 86      0.0000     0.0000E+00    0.0000E+00    1.015200E+08  0.00800  2.206E-03    0   0.7226   age116_m52            0.0000     4.1623E+02    10.1534   3.5729   103.0964
 87      0.0000     0.0000E+00    0.0000E+00    1.609000E+08  0.00800  1.596E-03    0   0.6963   age120_m52            0.0000     4.7124E+02    10.9623   3.3783   104.1827
 88      0.0000     0.0000E+00    0.0000E+00    2.861200E+08  0.00800  1.002E-03    0   0.6665   age125_m52            0.0000     6.2751E+02    13.0769   3.1343   105.7184
 89      0.0000     0.0000E+00    0.0000E+00    5.088000E+08  0.00800  5.759E-04    0   0.6377   age130_m52            0.0000     6.6577E+02    13.7655   2.8123   109.0818
 90      0.0000     0.0000E+00    0.0000E+00    9.047900E+08  0.00800  2.972E-04    0   0.6086   age135_m52            0.0000     4.5270E+02    11.5295   2.2706   108.3271
 91      0.0000     0.0000E+00    0.0000E+00    1.278050E+09  0.00800  2.242E-04    0   0.5907   age138_m52            0.0000     2.3244E+02     8.7339   1.6091   108.8370
 92      0.0000     0.0000E+00    0.0000E+00    1.434000E+09  0.00800  1.645E-04    0   0.5787   age139_m52            0.0000     2.0344E+02     8.1176   1.7517   108.2590
 93      0.0000     0.0000E+00    0.0000E+00    2.500000E+09  0.00800  7.723E-05    0   0.5519   age150_m52            0.0000     1.6966E+02     7.4899   1.4064   104.8854
 94      0.0021     1.2076E-03    1.2929E-03    4.250000E+09  0.00800  4.151E-05    0   0.5320   age158_m52            0.0000     1.6275E+02     7.3601   1.3319   102.4403
 95      0.0000     0.0000E+00    0.0000E+00    6.250000E+09  0.00800  3.010E-05    0   0.5197   age166_m52            0.0000     2.1102E+02     8.0890   1.1473   101.0255
 96      0.3775     3.6077E-01    3.7311E-01    7.500000E+09  0.00800  2.467E-05    0   0.5139   age171_m52            0.0000     2.2773E+02     8.3405   1.1094   100.5836
 97      0.0000     0.0000E+00    0.0000E+00    1.000000E+10  0.00800  1.862E-05    0   0.5054   age181_m52            0.0000     2.9136E+02     9.2370   0.9934   100.0119
