###################################################################
## OUTPUT of StarlightChains_v04.for    [Cid@UFSC - 01/Apr/2007] ##
###################################################################

## Some input info
NGC6624_a_2.cxt                          [arq_obs]
Base.BC03.S                              [arq_base]
NGC6624_a_2.msk                          [arq_masks]
StCv04.C99.config                        [arq_config]
  150                                    [N_base]
    0                                    [N_YAV_components = # of components with extra extinction!]
    0                                    [i_FitPowerLaw (1/0 = Yes/No)]
-9.99                                    [alpha_PowerLaw]
CCM                                      [red_law_option]
 1.458241                                [q_norm = A(l_norm)/A(V)]

## (Re)Sampling Parameters
 3359.00                                 [l_ini (A)]
 6428.00                                 [l_fin (A)]
    1.00                                 [dl    (A)]     (OBS: dl_cushion =    50.00 A)

## Normalization info
 4020.00                                 [l_norm (A) - for base]
 4010.00                                 [llow_norm (A) - window for f_obs]
 4060.00                                 [lupp_norm (A) - window for f_obs]
2.206219E-14                             [fobs_norm (in input units)]

## S/N
 4730.00                                 [llow_SN (A) - window for S/N]
 4780.00                                 [lupp_SN (A) - window for S/N]
  40.676                                 [S/N in S/N window]
  27.417                                 [S/N in norm. window]
 123.712                                 [S/N_err in S/N window]
  83.385                                 [S/N_err in norm. window]
  1.0000                                 [fscale_chi2]

## etc...
  2147483596                             [idum_orig]
  3066                                   [NOl_eff]
  1240                                   [Nl_eff]
  1826    NSIGMA                         [Ntot_cliped & clip_method]
  3082940                                [Nglobal_steps]
   7                                     [N_chains]
  20                                     [NEX0s_base = N_base in EX0s-fits]
 0   0   1      121   2.0   9.133E+02    [Clip-Bug, RC-Crash & Burn-In warning-flags, n_censored_weights, wei_nsig_threshold & wei_limit]
   119    119.730    119.707      0.024  [idt_all, wdt_TotTime, wdt_UsrTime & wdt_SysTime (sec)]

## Synthesis Results - Best model ##

 2.44590E+00                             [chi2/Nl_eff]
     1.27525                             [adev (%)]

    98.97249                             [sum-of-x (%)]
 4.95217E-14                             [Flux_tot (units of input spectrum!)]
 2.27226E-09                             [Mini_tot (???)]
 1.14453E-09                             [Mcor_tot (???)]

  27.64                                  [v0_min  (km/s)]
  47.22                                  [vd_min  (km/s)]
 0.6097                                  [AV_min  (mag)]
 0.0000                                  [YAV_min (mag)]

# j     x_j(%)      Mini_j(%)     Mcor_j(%)     age_j(yr)     Z_j      (L/M)_j    YAV?  Mstars   component_j        a/Fe...       SSP_chi2r SSP_adev(%)   SSP_AV   SSP_x(%)
  1      0.0000     0.0000E+00    0.0000E+00    1.000000E+06  0.00010  8.160E-03    0   1.0000   age020_m22            0.0000     1.2027E+03    25.2342   4.0000    83.9321
  2      0.0000     0.0000E+00    0.0000E+00    3.160000E+06  0.00010  4.759E-02    0   1.0000   age045_m22            0.0000     1.5633E+02    10.1516   2.8087    95.2775
  3      0.0000     0.0000E+00    0.0000E+00    5.010000E+06  0.00010  1.932E-02    0   0.9582   age055_m22            0.0000     4.1927E+02    15.7602   3.1888    79.4131
  4      0.0000     0.0000E+00    0.0000E+00    6.610000E+06  0.00010  9.973E-03    0   0.9297   age061_m22            0.0000     1.1474E+03    24.4951   4.0000    86.6605
  5      0.0000     0.0000E+00    0.0000E+00    8.710000E+06  0.00010  7.690E-03    0   0.9030   age067_m22            0.0000     1.1080E+03    24.1410   4.0000    87.2160
  6      0.0000     0.0000E+00    0.0000E+00    1.000000E+07  0.00010  6.375E-03    0   0.8902   age070_m22            0.0000     1.1030E+03    24.1025   4.0000    87.6672
  7      0.0000     0.0000E+00    0.0000E+00    1.445000E+07  0.00010  4.874E-03    0   0.8589   age078_m22            0.0000     7.4734E+02    20.3520   4.0000    89.7066
  8      0.0000     0.0000E+00    0.0000E+00    2.512000E+07  0.00010  4.103E-03    0   0.8174   age090_m22            0.0000     2.7839E+02    13.4994   4.0000    91.6272
  9      0.0000     0.0000E+00    0.0000E+00    4.000000E+07  0.00010  3.654E-03    0   0.7830   age104_m22            0.0000     2.0627E+02    12.2541   3.8747    93.8590
 10      0.0000     0.0000E+00    0.0000E+00    5.500000E+07  0.00010  3.093E-03    0   0.7597   age110_m22            0.0000     2.0301E+02    11.8817   3.7620    95.8826
 11      0.0000     0.0000E+00    0.0000E+00    1.015200E+08  0.00010  2.431E-03    0   0.7138   age116_m22            0.0000     2.2297E+02    11.8363   3.3925    99.6666
 12      0.0000     0.0000E+00    0.0000E+00    1.609000E+08  0.00010  1.319E-03    0   0.6775   age120_m22            0.0000     2.0698E+02    11.1849   2.9179   101.8389
 13      0.0000     0.0000E+00    0.0000E+00    2.861200E+08  0.00010  1.075E-03    0   0.6412   age125_m22            0.0000     3.5092E+02    12.6227   2.9380   107.3209
 14      0.0000     0.0000E+00    0.0000E+00    5.088000E+08  0.00010  7.183E-04    0   0.6083   age130_m22            0.0000     4.0412E+02    13.1048   2.6932   109.6594
 15      0.0000     0.0000E+00    0.0000E+00    9.047900E+08  0.00010  4.524E-04    0   0.5785   age135_m22            0.0000     4.0634E+02    13.0304   2.4857   111.1226
 16      0.0000     0.0000E+00    0.0000E+00    1.278050E+09  0.00010  3.018E-04    0   0.5588   age138_m22            0.0000     2.3332E+02    10.3614   1.9815   108.1991
 17      0.0000     0.0000E+00    0.0000E+00    1.434000E+09  0.00010  2.691E-04    0   0.5532   age139_m22            0.0000     2.0336E+02     9.7874   1.8316   107.3773
 18      0.0000     0.0000E+00    0.0000E+00    2.500000E+09  0.00010  1.582E-04    0   0.5296   age150_m22            0.0000     1.9093E+02     9.8043   1.7178   108.0464
 19      0.0000     0.0000E+00    0.0000E+00    4.250000E+09  0.00010  1.007E-04    0   0.5110   age158_m22            0.0000     1.3939E+02     8.7363   1.5831   105.5656
 20      0.0000     0.0000E+00    0.0000E+00    6.250000E+09  0.00010  6.869E-05    0   0.4985   age166_m22            0.0000     1.0685E+02     7.9324   1.5470   101.8699
 21      0.0000     0.0000E+00    0.0000E+00    7.500000E+09  0.00010  5.873E-05    0   0.4931   age171_m22            0.0000     1.0764E+02     8.0628   1.5380   101.1903
 22      0.0000     0.0000E+00    0.0000E+00    1.000000E+10  0.00010  4.481E-05    0   0.4854   age181_m22            0.0000     1.0487E+02     7.9660   1.5010   100.7953
 23      0.0000     0.0000E+00    0.0000E+00    1.300000E+10  0.00010  3.489E-05    0   0.4791   age193_m22            0.0000     9.8645E+01     7.7331   1.4457   100.1958
 24      0.0007     4.8787E-04    4.6163E-04    1.500000E+10  0.00010  3.035E-05    0   0.4766   age201_m22            0.0000     9.5379E+01     7.6239   1.4078    99.9688
 25      0.0070     6.1495E-03    5.7808E-03    1.800000E+10  0.00010  2.510E-05    0   0.4735   age213_m22            0.0000     8.9215E+01     7.4098   1.3415    99.2627
 26      0.0000     0.0000E+00    0.0000E+00    1.000000E+06  0.00040  8.458E-03    0   1.0000   age020_m32            0.0000     1.2198E+03    25.3237   4.0000    84.7833
 27      0.0000     0.0000E+00    0.0000E+00    3.160000E+06  0.00040  3.973E-02    0   1.0000   age045_m32            0.0000     2.6229E+02    13.1529   4.0000    89.5710
 28      0.0000     0.0000E+00    0.0000E+00    5.010000E+06  0.00040  1.935E-02    0   0.9532   age055_m32            0.0000     5.2800E+02    17.1126   4.0000    86.4100
 29      0.0000     0.0000E+00    0.0000E+00    6.610000E+06  0.00040  1.204E-02    0   0.9243   age061_m32            0.0000     8.7427E+02    21.7238   4.0000    87.9808
 30      0.0000     0.0000E+00    0.0000E+00    8.710000E+06  0.00040  9.433E-03    0   0.9001   age067_m32            0.0000     7.9844E+02    20.9136   4.0000    88.8969
 31      0.0000     0.0000E+00    0.0000E+00    1.000000E+07  0.00040  8.053E-03    0   0.8877   age070_m32            0.0000     7.4116E+02    20.2242   4.0000    89.0799
 32      0.0000     0.0000E+00    0.0000E+00    1.445000E+07  0.00040  7.027E-03    0   0.8578   age078_m32            0.0000     2.9343E+02    14.0804   4.0000    87.2430
 33      0.0000     0.0000E+00    0.0000E+00    2.512000E+07  0.00040  4.707E-03    0   0.8166   age090_m32            0.0000     2.3108E+02    12.9651   3.7583    90.5353
 34      0.0000     0.0000E+00    0.0000E+00    4.000000E+07  0.00040  3.714E-03    0   0.7827   age104_m32            0.0000     2.0344E+02    12.1749   3.5263    95.0791
 35      0.0000     0.0000E+00    0.0000E+00    5.500000E+07  0.00040  2.982E-03    0   0.7593   age110_m32            0.0000     2.0249E+02    11.9593   3.4546    96.6799
 36      0.0000     0.0000E+00    0.0000E+00    1.015200E+08  0.00040  2.188E-03    0   0.7143   age116_m32            0.0000     2.4917E+02    11.8270   3.1504   102.6289
 37      0.0000     0.0000E+00    0.0000E+00    1.609000E+08  0.00040  1.690E-03    0   0.6856   age120_m32            0.0000     3.1147E+02    12.2570   2.9216   106.3193
 38      0.0000     0.0000E+00    0.0000E+00    2.861200E+08  0.00040  1.152E-03    0   0.6509   age125_m32            0.0000     3.6158E+02    12.6000   2.6844   108.7577
 39      0.0000     0.0000E+00    0.0000E+00    5.088000E+08  0.00040  7.331E-04    0   0.6182   age130_m32            0.0000     3.8113E+02    12.6720   2.5136   109.7763
 40      0.0000     0.0000E+00    0.0000E+00    9.047900E+08  0.00040  3.960E-04    0   0.5890   age135_m32            0.0000     2.3477E+02    10.2953   2.0732   107.4520
 41      0.0000     0.0000E+00    0.0000E+00    1.278050E+09  0.00040  2.854E-04    0   0.5687   age138_m32            0.0000     2.0614E+02     9.9740   1.7782   109.2955
 42      0.0000     0.0000E+00    0.0000E+00    1.434000E+09  0.00040  2.531E-04    0   0.5632   age139_m32            0.0000     2.0256E+02     9.9011   1.7170   109.2860
 43      0.0000     0.0000E+00    0.0000E+00    2.500000E+09  0.00040  1.488E-04    0   0.5386   age150_m32            0.0000     1.5980E+02     8.8864   1.4685   107.1446
 44      0.0000     0.0000E+00    0.0000E+00    4.250000E+09  0.00040  9.082E-05    0   0.5199   age158_m32            0.0000     9.4989E+01     7.3034   1.4013   102.4542
 45      0.1145     3.9621E-02    3.9928E-02    6.250000E+09  0.00040  6.362E-05    0   0.5076   age166_m32            0.0000     8.0295E+01     6.9284   1.3867    97.9267
 46     13.9054     5.7894E+00    5.7780E+00    7.500000E+09  0.00040  5.289E-05    0   0.5027   age171_m32            0.0000     7.6553E+01     6.7445   1.3561    96.4607
 47     16.6344     9.2219E+00    9.0590E+00    1.000000E+10  0.00040  3.972E-05    0   0.4948   age181_m32            0.0000     7.0984E+01     6.4737   1.2980    94.9822
 48      0.0055     3.6807E-03    3.5587E-03    1.300000E+10  0.00040  3.283E-05    0   0.4870   age193_m32            0.0000     6.8879E+01     6.4368   1.2382    98.3589
 49      0.0000     0.0000E+00    0.0000E+00    1.500000E+10  0.00040  2.925E-05    0   0.4854   age201_m32            0.0000     7.2723E+01     6.5677   1.2105   100.3497
 50      0.0000     0.0000E+00    0.0000E+00    1.800000E+10  0.00040  2.469E-05    0   0.4819   age213_m32            0.0000     7.3354E+01     6.5612   1.1661   101.0644
 51      0.0000     0.0000E+00    0.0000E+00    1.000000E+06  0.00400  1.114E-02    0   1.0000   age020_m42            0.0000     1.0896E+03    24.0322   4.0000    84.8477
 52      0.0000     0.0000E+00    0.0000E+00    3.160000E+06  0.00400  4.073E-02    0   0.9999   age045_m42            0.0000     1.9242E+02    11.5415   3.8100    90.4381
 53      0.0000     0.0000E+00    0.0000E+00    5.010000E+06  0.00400  2.534E-02    0   0.9488   age055_m42            0.0000     3.4659E+02    14.3961   4.0000    87.3702
 54      0.0000     0.0000E+00    0.0000E+00    6.610000E+06  0.00400  2.583E-02    0   0.9220   age061_m42            0.0000     1.8559E+02    11.6415   3.6031    92.0604
 55      0.0000     0.0000E+00    0.0000E+00    8.710000E+06  0.00400  1.706E-02    0   0.8983   age067_m42            0.0000     2.2821E+02    12.9351   3.4464    89.4031
 56      0.0000     0.0000E+00    0.0000E+00    1.000000E+07  0.00400  1.271E-02    0   0.8862   age070_m42            0.0000     2.8077E+02    14.2728   3.4464    87.3744
 57      0.0000     0.0000E+00    0.0000E+00    1.445000E+07  0.00400  7.666E-03    0   0.8571   age078_m42            0.0000     3.2182E+02    14.8880   3.8670    83.4617
 58      0.0000     0.0000E+00    0.0000E+00    2.512000E+07  0.00400  5.070E-03    0   0.8174   age090_m42            0.0000     2.5715E+02    13.6535   3.3134    89.0666
 59      0.0000     0.0000E+00    0.0000E+00    4.000000E+07  0.00400  3.505E-03    0   0.7851   age104_m42            0.0000     1.9587E+02    11.8763   2.9882    92.4171
 60      0.0000     0.0000E+00    0.0000E+00    5.500000E+07  0.00400  3.059E-03    0   0.7629   age110_m42            0.0000     1.6186E+02    10.5140   2.9978    98.9695
 61      0.0000     0.0000E+00    0.0000E+00    1.015200E+08  0.00400  2.268E-03    0   0.7207   age116_m42            0.0000     2.6667E+02    11.2693   2.8448   106.7856
 62      0.0000     0.0000E+00    0.0000E+00    1.609000E+08  0.00400  1.720E-03    0   0.6930   age120_m42            0.0000     2.8110E+02    11.1277   2.6963   108.7550
 63      0.0000     0.0000E+00    0.0000E+00    2.861200E+08  0.00400  1.079E-03    0   0.6613   age125_m42            0.0000     2.6772E+02    10.8658   2.3414   109.3380
 64      0.0000     0.0000E+00    0.0000E+00    5.088000E+08  0.00400  6.261E-04    0   0.6313   age130_m42            0.0000     3.0606E+02    11.3729   2.1249   113.1702
 65      0.0000     0.0000E+00    0.0000E+00    9.047900E+08  0.00400  3.535E-04    0   0.6024   age135_m42            0.0000     1.9548E+02     9.2596   1.7367   112.8373
 66      0.0000     0.0000E+00    0.0000E+00    1.278050E+09  0.00400  2.677E-04    0   0.5837   age138_m42            0.0000     6.3602E+01     5.3835   1.0866   108.9975
 67      0.0000     0.0000E+00    0.0000E+00    1.434000E+09  0.00400  1.910E-04    0   0.5716   age139_m42            0.0000     9.0219E+01     6.1072   1.2506   110.0010
 68      0.0000     0.0000E+00    0.0000E+00    2.500000E+09  0.00400  9.818E-05    0   0.5463   age150_m42            0.0000     2.1594E+01     3.1020   1.0205   103.4976
 69      0.0000     0.0000E+00    0.0000E+00    4.250000E+09  0.00400  5.491E-05    0   0.5269   age158_m42            0.0000     9.0727E+00     2.1683   0.9130   100.1182
 70      0.0000     0.0000E+00    0.0000E+00    6.250000E+09  0.00400  3.857E-05    0   0.5151   age166_m42            0.0000     5.3838E+00     1.6955   0.7935    98.5932
 71      0.0000     0.0000E+00    0.0000E+00    7.500000E+09  0.00400  3.243E-05    0   0.5110   age171_m42            0.0000     5.1376E+00     1.6845   0.7170    98.0289
 72      0.0318     2.8895E-02    2.8844E-02    1.000000E+10  0.00400  2.424E-05    0   0.5028   age181_m42            0.0000     6.8751E+00     1.9807   0.6391    97.4206
 73      7.6042     8.8925E+00    8.6984E+00    1.300000E+10  0.00400  1.883E-05    0   0.4927   age193_m42            0.0000     1.0374E+01     2.4381   0.5998    97.1389
 74      1.9313     2.5240E+00    2.4649E+00    1.500000E+10  0.00400  1.685E-05    0   0.4919   age201_m42            0.0000     9.8068E+00     2.3470   0.6055    97.1268
 75      0.0287     4.3509E-02    4.2102E-02    1.800000E+10  0.00400  1.452E-05    0   0.4874   age213_m42            0.0000     9.1443E+00     2.2109   0.6221    97.3478
 76      0.0000     0.0000E+00    0.0000E+00    1.000000E+06  0.00800  1.286E-02    0   1.0000   age020_m52            0.0000     1.0185E+03    23.0749   4.0000    86.6862
 77      0.0000     0.0000E+00    0.0000E+00    3.160000E+06  0.00800  3.147E-02    0   0.9966   age045_m52            0.0000     8.8381E+02    21.7269   4.0000    87.6544
 78      0.0000     0.0000E+00    0.0000E+00    5.010000E+06  0.00800  2.664E-02    0   0.9443   age055_m52            0.0000     4.6099E+02    16.0582   4.0000    87.8155
 79      0.0000     0.0000E+00    0.0000E+00    6.610000E+06  0.00800  2.151E-02    0   0.9177   age061_m52            0.0000     2.3320E+02    12.3372   3.0575    88.4607
 80      0.0000     0.0000E+00    0.0000E+00    8.710000E+06  0.00800  1.628E-02    0   0.8948   age067_m52            0.0000     2.5276E+02    13.3289   3.4213    89.0676
 81      0.0000     0.0000E+00    0.0000E+00    1.000000E+07  0.00800  1.215E-02    0   0.8827   age070_m52            0.0000     2.8860E+02    14.1959   3.7716    86.8145
 82      0.0000     0.0000E+00    0.0000E+00    1.445000E+07  0.00800  8.739E-03    0   0.8552   age078_m52            0.0000     2.6139E+02    13.6953   3.8004    88.5533
 83      0.0000     0.0000E+00    0.0000E+00    2.512000E+07  0.00800  5.676E-03    0   0.8162   age090_m52            0.0000     2.2347E+02    12.8888   3.3651    94.6791
 84      0.0000     0.0000E+00    0.0000E+00    4.000000E+07  0.00800  3.939E-03    0   0.7841   age104_m52            0.0000     2.0168E+02    11.9063   3.1858    97.9371
 85      0.0000     0.0000E+00    0.0000E+00    5.500000E+07  0.00800  3.155E-03    0   0.7627   age110_m52            0.0000     2.0079E+02    11.3810   3.1379   100.4026
 86      0.0000     0.0000E+00    0.0000E+00    1.015200E+08  0.00800  2.206E-03    0   0.7226   age116_m52            0.0000     2.2748E+02    10.8997   2.9188   105.7838
 87      0.0000     0.0000E+00    0.0000E+00    1.609000E+08  0.00800  1.596E-03    0   0.6963   age120_m52            0.0000     2.4355E+02    10.8330   2.6904   108.1119
 88      0.0000     0.0000E+00    0.0000E+00    2.861200E+08  0.00800  1.002E-03    0   0.6665   age125_m52            0.0000     3.0991E+02    11.2987   2.3747   112.0664
 89      0.0000     0.0000E+00    0.0000E+00    5.088000E+08  0.00800  5.759E-04    0   0.6377   age130_m52            0.0000     3.1636E+02    10.8833   2.0185   116.5609
 90      0.0000     0.0000E+00    0.0000E+00    9.047900E+08  0.00800  2.972E-04    0   0.6086   age135_m52            0.0000     1.6780E+02     8.0594   1.5151   113.8890
 91      0.0000     0.0000E+00    0.0000E+00    1.278050E+09  0.00800  2.242E-04    0   0.5907   age138_m52            0.0000     5.1952E+01     4.7623   0.9313   111.2203
 92      0.0000     0.0000E+00    0.0000E+00    1.434000E+09  0.00800  1.645E-04    0   0.5787   age139_m52            0.0000     4.6983E+01     4.4976   1.0848   110.3520
 93      0.0000     0.0000E+00    0.0000E+00    2.500000E+09  0.00800  7.723E-05    0   0.5519   age150_m52            0.0000     1.2783E+01     2.5327   0.7678   105.6722
 94      0.0000     0.0000E+00    0.0000E+00    4.250000E+09  0.00800  4.151E-05    0   0.5320   age158_m52            0.0000     6.3861E+00     1.8415   0.7048   102.7965
 95      0.0000     0.0000E+00    0.0000E+00    6.250000E+09  0.00800  3.010E-05    0   0.5197   age166_m52            0.0000     7.6425E+00     2.1152   0.5178   101.2702
 96      0.2689     2.4000E-01    2.4486E-01    7.500000E+09  0.00800  2.467E-05    0   0.5139   age171_m52            0.0000     9.3872E+00     2.3441   0.4768   100.8823
 97     46.8846     5.5447E+01    5.5634E+01    1.000000E+10  0.00800  1.862E-05    0   0.5054   age181_m52            0.0000     1.7841E+01     3.2115   0.3472   100.5608
