###################################################################
## OUTPUT of StarlightChains_v04.for    [Cid@UFSC - 01/Apr/2007] ##
###################################################################

## Some input info
NGC6544_a_1.cxt                          [arq_obs]
Base.BC03.S                              [arq_base]
NGC6544_a_1.msk                          [arq_masks]
StCv04.C99.config                        [arq_config]
  150                                    [N_base]
    0                                    [N_YAV_components = # of components with extra extinction!]
    0                                    [i_FitPowerLaw (1/0 = Yes/No)]
-9.99                                    [alpha_PowerLaw]
CCM                                      [red_law_option]
 1.458241                                [q_norm = A(l_norm)/A(V)]

## (Re)Sampling Parameters
 3359.00                                 [l_ini (A)]
 6428.00                                 [l_fin (A)]
    1.00                                 [dl    (A)]     (OBS: dl_cushion =    50.00 A)

## Normalization info
 4020.00                                 [l_norm (A) - for base]
 4010.00                                 [llow_norm (A) - window for f_obs]
 4060.00                                 [lupp_norm (A) - window for f_obs]
2.994762E-15                             [fobs_norm (in input units)]

## S/N
 4730.00                                 [llow_SN (A) - window for S/N]
 4780.00                                 [lupp_SN (A) - window for S/N]
  55.157                                 [S/N in S/N window]
  29.824                                 [S/N in norm. window]
 209.596                                 [S/N_err in S/N window]
 113.332                                 [S/N_err in norm. window]
  1.0000                                 [fscale_chi2]

## etc...
  2147483600                             [idum_orig]
  3064                                   [NOl_eff]
  1398                                   [Nl_eff]
  1666    NSIGMA                         [Ntot_cliped & clip_method]
  4828320                                [Nglobal_steps]
   7                                     [N_chains]
  33                                     [NEX0s_base = N_base in EX0s-fits]
 0   0   1       75   2.0   2.770E+02    [Clip-Bug, RC-Crash & Burn-In warning-flags, n_censored_weights, wei_nsig_threshold & wei_limit]
   287    286.744    286.728      0.016  [idt_all, wdt_TotTime, wdt_UsrTime & wdt_SysTime (sec)]

## Synthesis Results - Best model ##

 2.92881E+00                             [chi2/Nl_eff]
     2.35570                             [adev (%)]

    95.62017                             [sum-of-x (%)]
 2.84069E-13                             [Flux_tot (units of input spectrum!)]
 8.85400E-09                             [Mini_tot (???)]
 4.35990E-09                             [Mcor_tot (???)]

 -25.14                                  [v0_min  (km/s)]
  21.82                                  [vd_min  (km/s)]
 3.4228                                  [AV_min  (mag)]
 0.0000                                  [YAV_min (mag)]

# j     x_j(%)      Mini_j(%)     Mcor_j(%)     age_j(yr)     Z_j      (L/M)_j    YAV?  Mstars   component_j        a/Fe...       SSP_chi2r SSP_adev(%)   SSP_AV   SSP_x(%)
  1      0.0000     0.0000E+00    0.0000E+00    1.000000E+06  0.00010  8.160E-03    0   1.0000   age020_m22            0.0000     2.6899E+03    41.9642   4.0000   113.6563
  2      9.4496     6.6624E-03    1.3530E-02    3.160000E+06  0.00010  4.759E-02    0   1.0000   age045_m22            0.0000     7.8168E+01     7.5521   4.0000   101.8896
  3     24.3882     4.2355E-02    8.2419E-02    5.010000E+06  0.00010  1.932E-02    0   0.9582   age055_m22            0.0000     1.0863E+02     9.0891   4.0000    97.6719
  4      2.0311     6.8333E-03    1.2901E-02    6.610000E+06  0.00010  9.973E-03    0   0.9297   age061_m22            0.0000     2.7103E+03    41.4712   4.0000   116.9484
  5      4.5005     1.9637E-02    3.6010E-02    8.710000E+06  0.00010  7.690E-03    0   0.9030   age067_m22            0.0000     2.6662E+03    41.2260   4.0000   117.3967
  6      5.5115     2.9008E-02    5.2441E-02    1.000000E+07  0.00010  6.375E-03    0   0.8902   age070_m22            0.0000     2.6734E+03    41.3106   4.0000   117.6158
  7      1.1403     7.8501E-03    1.3692E-02    1.445000E+07  0.00010  4.874E-03    0   0.8589   age078_m22            0.0000     2.1647E+03    37.8346   4.0000   119.7020
  8      0.3051     2.4954E-03    4.1422E-03    2.512000E+07  0.00010  4.103E-03    0   0.8174   age090_m22            0.0000     1.3028E+03    30.0054   4.0000   122.2155
  9      0.9126     8.3797E-03    1.3325E-02    4.000000E+07  0.00010  3.654E-03    0   0.7830   age104_m22            0.0000     9.0174E+02    24.1524   4.0000   122.3668
 10      1.6560     1.7965E-02    2.7716E-02    5.500000E+07  0.00010  3.093E-03    0   0.7597   age110_m22            0.0000     7.9399E+02    22.1645   4.0000   121.9022
 11      1.1586     1.5991E-02    2.3180E-02    1.015200E+08  0.00010  2.431E-03    0   0.7138   age116_m22            0.0000     5.0990E+02    18.2767   4.0000   117.9132
 12      0.0000     0.0000E+00    0.0000E+00    1.609000E+08  0.00010  1.319E-03    0   0.6775   age120_m22            0.0000     2.5500E+02    13.4015   4.0000   109.2823
 13      0.0000     0.0000E+00    0.0000E+00    2.861200E+08  0.00010  1.075E-03    0   0.6412   age125_m22            0.0000     4.7605E+02    17.9906   4.0000   113.0700
 14      0.0000     0.0000E+00    0.0000E+00    5.088000E+08  0.00010  7.183E-04    0   0.6083   age130_m22            0.0000     4.8415E+02    16.9096   4.0000   108.6601
 15      0.0000     0.0000E+00    0.0000E+00    9.047900E+08  0.00010  4.524E-04    0   0.5785   age135_m22            0.0000     4.7777E+02    15.4518   3.9799   105.2661
 16      0.0000     0.0000E+00    0.0000E+00    1.278050E+09  0.00010  3.018E-04    0   0.5588   age138_m22            0.0000     3.1913E+02    13.1951   3.4309   104.6783
 17      0.0000     0.0000E+00    0.0000E+00    1.434000E+09  0.00010  2.691E-04    0   0.5532   age139_m22            0.0000     2.9107E+02    12.7794   3.2682   104.3920
 18      0.0559     1.1863E-02    1.2759E-02    2.500000E+09  0.00010  1.582E-04    0   0.5296   age150_m22            0.0000     2.6049E+02    12.0278   3.1504   105.7204
 19      0.0000     0.0000E+00    0.0000E+00    4.250000E+09  0.00010  1.007E-04    0   0.5110   age158_m22            0.0000     1.9609E+02    10.9347   2.9727   105.0074
 20      0.0042     2.0295E-03    2.0546E-03    6.250000E+09  0.00010  6.869E-05    0   0.4985   age166_m22            0.0000     1.4170E+02     9.8524   2.8868   103.1951
 21      0.0048     2.7435E-03    2.7473E-03    7.500000E+09  0.00010  5.873E-05    0   0.4931   age171_m22            0.0000     1.2987E+02     9.4567   2.8722   102.8913
 22      0.0000     0.0000E+00    0.0000E+00    1.000000E+10  0.00010  4.481E-05    0   0.4854   age181_m22            0.0000     1.2947E+02     9.4937   2.8338   102.4690
 23      0.0000     0.0000E+00    0.0000E+00    1.300000E+10  0.00010  3.489E-05    0   0.4791   age193_m22            0.0000     1.2743E+02     9.5285   2.7745   101.9069
 24      0.0000     0.0000E+00    0.0000E+00    1.500000E+10  0.00010  3.035E-05    0   0.4766   age201_m22            0.0000     1.2483E+02     9.4816   2.7338   101.7657
 25     13.2837     1.7757E+01    1.7075E+01    1.800000E+10  0.00010  2.510E-05    0   0.4735   age213_m22            0.0000     1.1764E+02     9.3148   2.6630   101.2365
 26      0.0005     2.0109E-06    4.0837E-06    1.000000E+06  0.00040  8.458E-03    0   1.0000   age020_m32            0.0000     2.7484E+03    42.1907   4.0000   114.5391
 27      0.0000     0.0000E+00    0.0000E+00    3.160000E+06  0.00040  3.973E-02    0   1.0000   age045_m32            0.0000     1.1357E+03    28.1326   4.0000   120.8781
 28      2.7892     4.8365E-03    9.3622E-03    5.010000E+06  0.00040  1.935E-02    0   0.9532   age055_m32            0.0000     1.6498E+03    33.1939   4.0000   117.6074
 29      1.8725     5.2182E-03    9.7948E-03    6.610000E+06  0.00040  1.204E-02    0   0.9243   age061_m32            0.0000     2.3191E+03    38.8469   4.0000   118.3615
 30      2.5310     9.0029E-03    1.6456E-02    8.710000E+06  0.00040  9.433E-03    0   0.9001   age067_m32            0.0000     2.2231E+03    38.1985   4.0000   119.1631
 31      0.0124     5.1470E-05    9.2787E-05    1.000000E+07  0.00040  8.053E-03    0   0.8877   age070_m32            0.0000     2.1316E+03    37.5174   4.0000   119.3942
 32      0.0056     2.6647E-05    4.6420E-05    1.445000E+07  0.00040  7.027E-03    0   0.8578   age078_m32            0.0000     1.1043E+03    27.6618   4.0000   119.0446
 33      0.0000     0.0000E+00    0.0000E+00    2.512000E+07  0.00040  4.707E-03    0   0.8166   age090_m32            0.0000     6.9027E+02    21.8789   4.0000   118.1976
 34      0.1780     1.6078E-03    2.5555E-03    4.000000E+07  0.00040  3.714E-03    0   0.7827   age104_m32            0.0000     5.0920E+02    17.9725   4.0000   117.4458
 35      0.0000     0.0000E+00    0.0000E+00    5.500000E+07  0.00040  2.982E-03    0   0.7593   age110_m32            0.0000     4.7850E+02    17.3432   4.0000   117.1625
 36      0.0000     0.0000E+00    0.0000E+00    1.015200E+08  0.00040  2.188E-03    0   0.7143   age116_m32            0.0000     4.1441E+02    17.1834   4.0000   114.8260
 37      0.0000     0.0000E+00    0.0000E+00    1.609000E+08  0.00040  1.690E-03    0   0.6856   age120_m32            0.0000     4.0662E+02    16.4973   4.0000   112.3279
 38      0.0000     0.0000E+00    0.0000E+00    2.861200E+08  0.00040  1.152E-03    0   0.6509   age125_m32            0.0000     4.3038E+02    15.8677   4.0000   107.9685
 39      0.0000     0.0000E+00    0.0000E+00    5.088000E+08  0.00040  7.331E-04    0   0.6182   age130_m32            0.0000     4.5363E+02    15.0578   4.0000   104.2621
 40      0.0000     0.0000E+00    0.0000E+00    9.047900E+08  0.00040  3.960E-04    0   0.5890   age135_m32            0.0000     3.3523E+02    13.8964   3.5048   104.0040
 41      0.0000     0.0000E+00    0.0000E+00    1.278050E+09  0.00040  2.854E-04    0   0.5687   age138_m32            0.0000     2.8359E+02    12.6150   3.2154   106.5348
 42      0.0000     0.0000E+00    0.0000E+00    1.434000E+09  0.00040  2.531E-04    0   0.5632   age139_m32            0.0000     2.7847E+02    12.4651   3.1562   106.5009
 43      0.7572     1.7073E-01    1.8675E-01    2.500000E+09  0.00040  1.488E-04    0   0.5386   age150_m32            0.0000     2.3651E+02    11.8962   2.8818   105.1770
 44      0.0000     0.0000E+00    0.0000E+00    4.250000E+09  0.00040  9.082E-05    0   0.5199   age158_m32            0.0000     1.5209E+02    10.3247   2.7480   103.1393
 45      4.6565     2.4558E+00    2.5315E+00    6.250000E+09  0.00040  6.362E-05    0   0.5076   age166_m32            0.0000     9.4383E+01     8.7762   2.6748   101.0268
 46      3.3456     2.1225E+00    2.1668E+00    7.500000E+09  0.00040  5.289E-05    0   0.5027   age171_m32            0.0000     8.9487E+01     8.7479   2.6297    99.8955
 47      1.2495     1.0555E+00    1.0606E+00    1.000000E+10  0.00040  3.972E-05    0   0.4948   age181_m32            0.0000     9.2171E+01     8.9867   2.5625    98.4667
 48      0.0000     0.0000E+00    0.0000E+00    1.300000E+10  0.00040  3.283E-05    0   0.4870   age193_m32            0.0000     1.1676E+02     9.6703   2.5374   100.5811
 49      0.0000     0.0000E+00    0.0000E+00    1.500000E+10  0.00040  2.925E-05    0   0.4854   age201_m32            0.0000     1.3351E+02    10.0594   2.5314   101.7853
 50      2.6533     3.6058E+00    3.5287E+00    1.800000E+10  0.00040  2.469E-05    0   0.4819   age213_m32            0.0000     1.4196E+02    10.2582   2.4967   102.0986
 51      0.0000     0.0000E+00    0.0000E+00    1.000000E+06  0.00400  1.114E-02    0   1.0000   age020_m42            0.0000     2.5519E+03    40.9152   4.0000   114.6811
 52      1.1598     9.5543E-04    1.9401E-03    3.160000E+06  0.00400  4.073E-02    0   0.9999   age045_m42            0.0000     6.9559E+02    22.2792   4.0000   118.3822
 53      0.0000     0.0000E+00    0.0000E+00    5.010000E+06  0.00400  2.534E-02    0   0.9488   age055_m42            0.0000     1.3155E+03    30.3600   4.0000   118.3926
 54      0.0000     0.0000E+00    0.0000E+00    6.610000E+06  0.00400  2.583E-02    0   0.9220   age061_m42            0.0000     5.1792E+02    18.9383   4.0000   115.7931
 55      0.0000     0.0000E+00    0.0000E+00    8.710000E+06  0.00400  1.706E-02    0   0.8983   age067_m42            0.0000     3.4019E+02    15.6852   4.0000   111.2620
 56      0.0000     0.0000E+00    0.0000E+00    1.000000E+07  0.00400  1.271E-02    0   0.8862   age070_m42            0.0000     3.3361E+02    15.4298   4.0000   110.0676
 57      0.0000     0.0000E+00    0.0000E+00    1.445000E+07  0.00400  7.666E-03    0   0.8571   age078_m42            0.0000     7.6471E+02    23.3335   4.0000   113.8837
 58      0.0000     0.0000E+00    0.0000E+00    2.512000E+07  0.00400  5.070E-03    0   0.8174   age090_m42            0.0000     2.2413E+02    12.8601   4.0000   109.0139
 59      0.0000     0.0000E+00    0.0000E+00    4.000000E+07  0.00400  3.505E-03    0   0.7851   age104_m42            0.0000     8.1305E+01     8.1048   4.0000   104.3372
 60      0.0000     0.0000E+00    0.0000E+00    5.500000E+07  0.00400  3.059E-03    0   0.7629   age110_m42            0.0000     1.9812E+02    12.2450   4.0000   108.9164
 61      0.0000     0.0000E+00    0.0000E+00    1.015200E+08  0.00400  2.268E-03    0   0.7207   age116_m42            0.0000     3.5507E+02    15.5086   4.0000   110.8222
 62      0.0000     0.0000E+00    0.0000E+00    1.609000E+08  0.00400  1.720E-03    0   0.6930   age120_m42            0.0000     3.5470E+02    14.7445   4.0000   108.5805
 63      0.0000     0.0000E+00    0.0000E+00    2.861200E+08  0.00400  1.079E-03    0   0.6613   age125_m42            0.0000     3.5521E+02    13.7347   3.7945   105.1169
 64      0.0015     7.8902E-05    1.0115E-04    5.088000E+08  0.00400  6.261E-04    0   0.6313   age130_m42            0.0000     3.8464E+02    14.1024   3.6031   108.0683
 65      0.0000     0.0000E+00    0.0000E+00    9.047900E+08  0.00400  3.535E-04    0   0.6024   age135_m42            0.0000     2.9562E+02    13.0905   3.1793   109.1757
 66      0.0000     0.0000E+00    0.0000E+00    1.278050E+09  0.00400  2.677E-04    0   0.5837   age138_m42            0.0000     2.6215E+02    13.5825   2.4501   106.7594
 67      0.0000     0.0000E+00    0.0000E+00    1.434000E+09  0.00400  1.910E-04    0   0.5716   age139_m42            0.0000     2.6146E+02    13.3793   2.6283   107.5744
 68      0.0000     0.0000E+00    0.0000E+00    2.500000E+09  0.00400  9.818E-05    0   0.5463   age150_m42            0.0000     2.1719E+02    13.1520   2.3081   103.7570
 69      0.0000     0.0000E+00    0.0000E+00    4.250000E+09  0.00400  5.491E-05    0   0.5269   age158_m42            0.0000     2.0421E+02    12.8106   2.1633   101.4678
 70      0.0000     0.0000E+00    0.0000E+00    6.250000E+09  0.00400  3.857E-05    0   0.5151   age166_m42            0.0000     2.2872E+02    13.3688   2.0267   100.0483
 71      0.0000     0.0000E+00    0.0000E+00    7.500000E+09  0.00400  3.243E-05    0   0.5110   age171_m42            0.0000     2.4987E+02    13.7978   1.9445    99.3542
 72      0.0000     0.0000E+00    0.0000E+00    1.000000E+10  0.00400  2.424E-05    0   0.5028   age181_m42            0.0000     2.7833E+02    14.3147   1.8618    98.5447
 73      0.0000     0.0000E+00    0.0000E+00    1.300000E+10  0.00400  1.883E-05    0   0.4927   age193_m42            0.0000     2.9907E+02    14.5919   1.8189    98.1839
 74      0.0000     0.0000E+00    0.0000E+00    1.500000E+10  0.00400  1.685E-05    0   0.4919   age201_m42            0.0000     2.9145E+02    14.4345   1.8243    98.2308
 75      0.0000     0.0000E+00    0.0000E+00    1.800000E+10  0.00400  1.452E-05    0   0.4874   age213_m42            0.0000     2.7870E+02    14.1424   1.8426    98.5228
 76      0.0000     0.0000E+00    0.0000E+00    1.000000E+06  0.00800  1.286E-02    0   1.0000   age020_m52            0.0000     2.4698E+03    40.3436   4.0000   116.6046
 77      0.0000     0.0000E+00    0.0000E+00    3.160000E+06  0.00800  3.147E-02    0   0.9966   age045_m52            0.0000     2.3005E+03    38.9722   4.0000   117.9886
 78      0.0000     0.0000E+00    0.0000E+00    5.010000E+06  0.00800  2.664E-02    0   0.9443   age055_m52            0.0000     1.5436E+03    32.7383   4.0000   118.8503
 79      0.0000     0.0000E+00    0.0000E+00    6.610000E+06  0.00800  2.151E-02    0   0.9177   age061_m52            0.0000     6.2783E+01     7.7369   4.0000   102.8729
 80      0.0000     0.0000E+00    0.0000E+00    8.710000E+06  0.00800  1.628E-02    0   0.8948   age067_m52            0.0000     2.9920E+02    14.8966   4.0000   111.1707
 81      0.0000     0.0000E+00    0.0000E+00    1.000000E+07  0.00800  1.215E-02    0   0.8827   age070_m52            0.0000     6.5562E+02    21.6036   4.0000   115.6904
 82      0.0000     0.0000E+00    0.0000E+00    1.445000E+07  0.00800  8.739E-03    0   0.8552   age078_m52            0.0000     7.1106E+02    22.2936   4.0000   117.6019
 83      0.0034     2.0394E-05    3.3803E-05    2.512000E+07  0.00800  5.676E-03    0   0.8162   age090_m52            0.0000     3.5642E+02    14.8385   4.0000   114.6527
 84      0.0000     0.0000E+00    0.0000E+00    4.000000E+07  0.00800  3.939E-03    0   0.7841   age104_m52            0.0000     2.7976E+02    13.6178   4.0000   113.0711
 85      0.0000     0.0000E+00    0.0000E+00    5.500000E+07  0.00800  3.155E-03    0   0.7627   age110_m52            0.0000     3.0426E+02    14.5345   4.0000   113.7155
 86      0.0000     0.0000E+00    0.0000E+00    1.015200E+08  0.00800  2.206E-03    0   0.7226   age116_m52            0.0000     3.1819E+02    14.9897   4.0000   112.6034
 87      0.0000     0.0000E+00    0.0000E+00    1.609000E+08  0.00800  1.596E-03    0   0.6963   age120_m52            0.0000     3.0916E+02    13.8016   4.0000   108.6036
 88      0.0000     0.0000E+00    0.0000E+00    2.861200E+08  0.00800  1.002E-03    0   0.6665   age125_m52            0.0000     4.1588E+02    14.7380   3.8566   106.6343
 89      0.0000     0.0000E+00    0.0000E+00    5.088000E+08  0.00800  5.759E-04    0   0.6377   age130_m52            0.0000     4.6060E+02    15.7266   3.5071   110.2363
 90      0.0000     0.0000E+00    0.0000E+00    9.047900E+08  0.00800  2.972E-04    0   0.6086   age135_m52            0.0000     3.8702E+02    15.6051   2.9320   109.5620
 91      0.0000     0.0000E+00    0.0000E+00    1.278050E+09  0.00800  2.242E-04    0   0.5907   age138_m52            0.0000     3.1820E+02    14.8181   2.2816   108.9777
 92      0.0000     0.0000E+00    0.0000E+00    1.434000E+09  0.00800  1.645E-04    0   0.5787   age139_m52            0.0000     2.8383E+02    14.1844   2.4236   108.7811
 93      0.0000     0.0000E+00    0.0000E+00    2.500000E+09  0.00800  7.723E-05    0   0.5519   age150_m52            0.0000     2.7624E+02    14.3562   2.0413   105.8228
 94      0.0000     0.0000E+00    0.0000E+00    4.250000E+09  0.00800  4.151E-05    0   0.5320   age158_m52            0.0000     2.6914E+02    14.3115   1.9577   103.5683
 95      0.0000     0.0000E+00    0.0000E+00    6.250000E+09  0.00800  3.010E-05    0   0.5197   age166_m52            0.0000     3.1547E+02    15.1614   1.7517   102.0241
 96      0.0000     0.0000E+00    0.0000E+00    7.500000E+09  0.00800  2.467E-05    0   0.5139   age171_m52            0.0000     3.3114E+02    15.4326   1.7088   101.5368
 97      0.0000     0.0000E+00    0.0000E+00    1.000000E+10  0.00800  1.862E-05    0   0.5054   age181_m52            0.0000     3.8364E+02    16.2850   1.5763   100.8383
