###################################################################
## OUTPUT of StarlightChains_v04.for    [Cid@UFSC - 01/Apr/2007] ##
###################################################################

## Some input info
NGC6266_a_1.cxt                          [arq_obs]
Base.BC03.S                              [arq_base]
NGC6266_a_1.msk                          [arq_masks]
StCv04.C99.config                        [arq_config]
  150                                    [N_base]
    0                                    [N_YAV_components = # of components with extra extinction!]
    0                                    [i_FitPowerLaw (1/0 = Yes/No)]
-9.99                                    [alpha_PowerLaw]
CCM                                      [red_law_option]
 1.458241                                [q_norm = A(l_norm)/A(V)]

## (Re)Sampling Parameters
 3359.00                                 [l_ini (A)]
 6428.00                                 [l_fin (A)]
    1.00                                 [dl    (A)]     (OBS: dl_cushion =    50.00 A)

## Normalization info
 4020.00                                 [l_norm (A) - for base]
 4010.00                                 [llow_norm (A) - window for f_obs]
 4060.00                                 [lupp_norm (A) - window for f_obs]
4.260575E-14                             [fobs_norm (in input units)]

## S/N
 4730.00                                 [llow_SN (A) - window for S/N]
 4780.00                                 [lupp_SN (A) - window for S/N]
  58.893                                 [S/N in S/N window]
  42.056                                 [S/N in norm. window]
 225.721                                 [S/N_err in S/N window]
 161.191                                 [S/N_err in norm. window]
  1.0000                                 [fscale_chi2]

## etc...
  2147483622                             [idum_orig]
  3065                                   [NOl_eff]
   800                                   [Nl_eff]
  2265    NSIGMA                         [Ntot_cliped & clip_method]
  4105780                                [Nglobal_steps]
   7                                     [N_chains]
  20                                     [NEX0s_base = N_base in EX0s-fits]
 0   0   1        2   2.0   4.776E+02    [Clip-Bug, RC-Crash & Burn-In warning-flags, n_censored_weights, wei_nsig_threshold & wei_limit]
   192    192.010    191.986      0.024  [idt_all, wdt_TotTime, wdt_UsrTime & wdt_SysTime (sec)]

## Synthesis Results - Best model ##

 2.36442E+00                             [chi2/Nl_eff]
     1.04278                             [adev (%)]

    97.34515                             [sum-of-x (%)]
 2.65301E-13                             [Flux_tot (units of input spectrum!)]
 6.83745E-09                             [Mini_tot (???)]
 3.44506E-09                             [Mcor_tot (???)]

  -9.21                                  [v0_min  (km/s)]
  26.07                                  [vd_min  (km/s)]
 1.3817                                  [AV_min  (mag)]
 0.0000                                  [YAV_min (mag)]

# j     x_j(%)      Mini_j(%)     Mcor_j(%)     age_j(yr)     Z_j      (L/M)_j    YAV?  Mstars   component_j        a/Fe...       SSP_chi2r SSP_adev(%)   SSP_AV   SSP_x(%)
  1      0.0000     0.0000E+00    0.0000E+00    1.000000E+06  0.00010  8.160E-03    0   1.0000   age020_m22            0.0000     3.2654E+03    28.4477   4.0000    91.0358
  2     11.1698     9.3554E-03    1.8568E-02    3.160000E+06  0.00010  4.759E-02    0   1.0000   age045_m22            0.0000     7.7782E+01     4.4465   2.8758    94.6796
  3      1.2819     2.6447E-03    5.0295E-03    5.010000E+06  0.00010  1.932E-02    0   0.9582   age055_m22            0.0000     5.3786E+02    12.1532   3.1562    80.5643
  4      0.0000     0.0000E+00    0.0000E+00    6.610000E+06  0.00010  9.973E-03    0   0.9297   age061_m22            0.0000     2.9958E+03    27.0855   4.0000    93.6633
  5      0.0000     0.0000E+00    0.0000E+00    8.710000E+06  0.00010  7.690E-03    0   0.9030   age067_m22            0.0000     2.9014E+03    26.6300   4.0000    94.1629
  6      0.0000     0.0000E+00    0.0000E+00    1.000000E+07  0.00010  6.375E-03    0   0.8902   age070_m22            0.0000     2.9409E+03    26.6611   4.0000    94.6628
  7      0.0000     0.0000E+00    0.0000E+00    1.445000E+07  0.00010  4.874E-03    0   0.8589   age078_m22            0.0000     1.8111E+03    21.4950   4.0000    95.4409
  8      0.0000     0.0000E+00    0.0000E+00    2.512000E+07  0.00010  4.103E-03    0   0.8174   age090_m22            0.0000     3.5333E+02    10.5461   4.0000    94.4159
  9      0.0000     0.0000E+00    0.0000E+00    4.000000E+07  0.00010  3.654E-03    0   0.7830   age104_m22            0.0000     1.6720E+02     6.1909   3.9438    93.5543
 10      0.0000     0.0000E+00    0.0000E+00    5.500000E+07  0.00010  3.093E-03    0   0.7597   age110_m22            0.0000     1.9235E+02     6.1561   3.8447    95.3415
 11      0.0000     0.0000E+00    0.0000E+00    1.015200E+08  0.00010  2.431E-03    0   0.7138   age116_m22            0.0000     2.6951E+02     6.8790   3.4893    98.8247
 12      0.0000     0.0000E+00    0.0000E+00    1.609000E+08  0.00010  1.319E-03    0   0.6775   age120_m22            0.0000     2.5132E+02     6.4697   3.0097   101.2170
 13      0.0000     0.0000E+00    0.0000E+00    2.861200E+08  0.00010  1.075E-03    0   0.6412   age125_m22            0.0000     7.2565E+02    11.7406   3.0901   105.2614
 14      0.0000     0.0000E+00    0.0000E+00    5.088000E+08  0.00010  7.183E-04    0   0.6083   age130_m22            0.0000     9.0782E+02    13.3479   2.8662   106.9833
 15      0.0000     0.0000E+00    0.0000E+00    9.047900E+08  0.00010  4.524E-04    0   0.5785   age135_m22            0.0000     9.2976E+02    13.5537   2.6630   108.2968
 16      0.0000     0.0000E+00    0.0000E+00    1.278050E+09  0.00010  3.018E-04    0   0.5588   age138_m22            0.0000     4.5725E+02     9.2446   2.1226   106.3389
 17      0.0000     0.0000E+00    0.0000E+00    1.434000E+09  0.00010  2.691E-04    0   0.5532   age139_m22            0.0000     3.7953E+02     8.3687   1.9659   105.7118
 18      0.0000     0.0000E+00    0.0000E+00    2.500000E+09  0.00010  1.582E-04    0   0.5296   age150_m22            0.0000     3.1599E+02     7.4841   1.8426   106.5321
 19      0.0000     0.0000E+00    0.0000E+00    4.250000E+09  0.00010  1.007E-04    0   0.5110   age158_m22            0.0000     1.7628E+02     5.4938   1.6960   104.3152
 20      0.0000     0.0000E+00    0.0000E+00    6.250000E+09  0.00010  6.869E-05    0   0.4985   age166_m22            0.0000     7.9926E+01     3.6438   1.6439   100.9915
 21      0.0000     0.0000E+00    0.0000E+00    7.500000E+09  0.00010  5.873E-05    0   0.4931   age171_m22            0.0000     6.6839E+01     3.3706   1.6283   100.4368
 22      0.0000     0.0000E+00    0.0000E+00    1.000000E+10  0.00010  4.481E-05    0   0.4854   age181_m22            0.0000     6.3444E+01     3.2846   1.5913   100.0410
 23      0.0000     0.0000E+00    0.0000E+00    1.300000E+10  0.00010  3.489E-05    0   0.4791   age193_m22            0.0000     5.5515E+01     3.0651   1.5374    99.4083
 24      0.0000     0.0000E+00    0.0000E+00    1.500000E+10  0.00010  3.035E-05    0   0.4766   age201_m22            0.0000     4.9853E+01     2.9089   1.4987    99.2055
 25      0.4447     7.0612E-01    6.6358E-01    1.800000E+10  0.00010  2.510E-05    0   0.4735   age213_m22            0.0000     3.7855E+01     2.5543   1.4315    98.5314
 26      0.0000     0.0000E+00    0.0000E+00    1.000000E+06  0.00040  8.458E-03    0   1.0000   age020_m32            0.0000     3.3342E+03    28.4911   4.0000    92.0041
 27      0.0000     0.0000E+00    0.0000E+00    3.160000E+06  0.00040  3.973E-02    0   1.0000   age045_m32            0.0000     2.4874E+02     9.1634   4.0000    91.5267
 28      0.0000     0.0000E+00    0.0000E+00    5.010000E+06  0.00040  1.935E-02    0   0.9532   age055_m32            0.0000     8.8672E+02    16.3846   4.0000    89.8798
 29      0.0000     0.0000E+00    0.0000E+00    6.610000E+06  0.00040  1.204E-02    0   0.9243   age061_m32            0.0000     2.1047E+03    23.2385   4.0000    93.9813
 30      0.0000     0.0000E+00    0.0000E+00    8.710000E+06  0.00040  9.433E-03    0   0.9001   age067_m32            0.0000     1.9010E+03    22.1362   4.0000    94.6907
 31      0.0000     0.0000E+00    0.0000E+00    1.000000E+07  0.00040  8.053E-03    0   0.8877   age070_m32            0.0000     1.7150E+03    21.1738   4.0000    94.6113
 32      0.0000     0.0000E+00    0.0000E+00    1.445000E+07  0.00040  7.027E-03    0   0.8578   age078_m32            0.0000     2.6858E+02     9.6150   4.0000    88.6919
 33      0.0000     0.0000E+00    0.0000E+00    2.512000E+07  0.00040  4.707E-03    0   0.8166   age090_m32            0.0000     1.5594E+02     7.1169   3.7857    90.9654
 34      0.0000     0.0000E+00    0.0000E+00    4.000000E+07  0.00040  3.714E-03    0   0.7827   age104_m32            0.0000     1.4539E+02     5.8859   3.5839    94.9633
 35      0.0000     0.0000E+00    0.0000E+00    5.500000E+07  0.00040  2.982E-03    0   0.7593   age110_m32            0.0000     1.6635E+02     5.8714   3.5240    96.3580
 36      0.0000     0.0000E+00    0.0000E+00    1.015200E+08  0.00040  2.188E-03    0   0.7143   age116_m32            0.0000     3.8285E+02     8.1665   3.2668   101.3888
 37      0.0000     0.0000E+00    0.0000E+00    1.609000E+08  0.00040  1.690E-03    0   0.6856   age120_m32            0.0000     5.8117E+02    10.2324   3.0605   104.5352
 38      0.0000     0.0000E+00    0.0000E+00    2.861200E+08  0.00040  1.152E-03    0   0.6509   age125_m32            0.0000     7.7538E+02    12.2266   2.8471   106.3502
 39      0.0000     0.0000E+00    0.0000E+00    5.088000E+08  0.00040  7.331E-04    0   0.6182   age130_m32            0.0000     8.6140E+02    13.0194   2.6881   107.0364
 40      0.0000     0.0000E+00    0.0000E+00    9.047900E+08  0.00040  3.960E-04    0   0.5890   age135_m32            0.0000     4.9443E+02     9.8563   2.2254   105.4228
 41      0.0000     0.0000E+00    0.0000E+00    1.278050E+09  0.00040  2.854E-04    0   0.5687   age138_m32            0.0000     3.7367E+02     8.2943   1.9166   107.3936
 42      0.0000     0.0000E+00    0.0000E+00    1.434000E+09  0.00040  2.531E-04    0   0.5632   age139_m32            0.0000     3.6217E+02     8.1333   1.8536   107.4189
 43      0.1638     4.3865E-02    4.6890E-02    2.500000E+09  0.00040  1.488E-04    0   0.5386   age150_m32            0.0000     2.6408E+02     6.9375   1.6032   105.3531
 44      1.0315     4.5271E-01    4.6712E-01    4.250000E+09  0.00040  9.082E-05    0   0.5199   age158_m32            0.0000     8.4648E+01     3.7285   1.5109   101.2848
 45     40.1970     2.5184E+01    2.5372E+01    6.250000E+09  0.00040  6.362E-05    0   0.5076   age166_m32            0.0000     1.5534E+01     1.7539   1.4716    97.3128
 46     30.8299     2.3234E+01    2.3181E+01    7.500000E+09  0.00040  5.289E-05    0   0.5027   age171_m32            0.0000     1.0631E+01     1.5301   1.4389    95.9359
 47      0.0000     0.0000E+00    0.0000E+00    1.000000E+10  0.00040  3.972E-05    0   0.4948   age181_m32            0.0000     9.1424E+00     1.4301   1.3799    94.5488
 48      0.0018     2.2445E-03    2.1694E-03    1.300000E+10  0.00040  3.283E-05    0   0.4870   age193_m32            0.0000     2.2185E+01     2.0067   1.3342    97.6141
 49      0.0394     5.3729E-02    5.1762E-02    1.500000E+10  0.00040  2.925E-05    0   0.4854   age201_m32            0.0000     4.0716E+01     2.6993   1.3141    99.4248
 50      0.0000     0.0000E+00    0.0000E+00    1.800000E+10  0.00040  2.469E-05    0   0.4819   age213_m32            0.0000     4.9779E+01     3.0208   1.2743   100.0346
 51      0.0000     0.0000E+00    0.0000E+00    1.000000E+06  0.00400  1.114E-02    0   1.0000   age020_m42            0.0000     2.8808E+03    26.7351   4.0000    91.6073
 52      0.0000     0.0000E+00    0.0000E+00    3.160000E+06  0.00400  4.073E-02    0   0.9999   age045_m42            0.0000     1.2106E+02     6.0716   3.8604    90.2985
 53      0.0000     0.0000E+00    0.0000E+00    5.010000E+06  0.00400  2.534E-02    0   0.9488   age055_m42            0.0000     4.7250E+02    12.4053   4.0000    90.0553
 54      0.5533     8.5388E-04    1.5625E-03    6.610000E+06  0.00400  2.583E-02    0   0.9220   age061_m42            0.0000     1.1603E+02     5.7780   3.6642    91.7754
 55      0.0000     0.0000E+00    0.0000E+00    8.710000E+06  0.00400  1.706E-02    0   0.8983   age067_m42            0.0000     1.6265E+02     7.5654   3.4715    89.8196
 56      0.0000     0.0000E+00    0.0000E+00    1.000000E+07  0.00400  1.271E-02    0   0.8862   age070_m42            0.0000     2.5939E+02     9.5218   3.4487    88.2279
 57      0.0000     0.0000E+00    0.0000E+00    1.445000E+07  0.00400  7.666E-03    0   0.8571   age078_m42            0.0000     3.2986E+02    10.4977   3.8566    84.5284
 58      0.0000     0.0000E+00    0.0000E+00    2.512000E+07  0.00400  5.070E-03    0   0.8174   age090_m42            0.0000     2.1659E+02     8.8705   3.3194    90.0046
 59      0.0000     0.0000E+00    0.0000E+00    4.000000E+07  0.00400  3.505E-03    0   0.7851   age104_m42            0.0000     1.2349E+02     6.8369   3.0108    93.2365
 60      0.0001     1.5928E-06    2.4117E-06    5.500000E+07  0.00400  3.059E-03    0   0.7629   age110_m42            0.0000     1.2104E+02     4.8801   3.0693    98.9223
 61      0.0000     0.0000E+00    0.0000E+00    1.015200E+08  0.00400  2.268E-03    0   0.7207   age116_m42            0.0000     4.9571E+02     9.5863   2.9823   105.2021
 62      0.0000     0.0000E+00    0.0000E+00    1.609000E+08  0.00400  1.720E-03    0   0.6930   age120_m42            0.0000     5.7985E+02    10.6108   2.8552   106.5122
 63      0.0000     0.0000E+00    0.0000E+00    2.861200E+08  0.00400  1.079E-03    0   0.6613   age125_m42            0.0000     5.6116E+02    10.5687   2.4930   107.2617
 64      0.0000     0.0000E+00    0.0000E+00    5.088000E+08  0.00400  6.261E-04    0   0.6313   age130_m42            0.0000     6.5914E+02    11.3974   2.2889   110.5956
 65      0.0000     0.0000E+00    0.0000E+00    9.047900E+08  0.00400  3.535E-04    0   0.6024   age135_m42            0.0000     3.9945E+02     8.8828   1.8928   110.4567
 66      0.0000     0.0000E+00    0.0000E+00    1.278050E+09  0.00400  2.677E-04    0   0.5837   age138_m42            0.0000     1.9487E+02     6.6511   1.2424   107.0023
 67      0.0000     0.0000E+00    0.0000E+00    1.434000E+09  0.00400  1.910E-04    0   0.5716   age139_m42            0.0000     2.3202E+02     7.0800   1.4087   107.9255
 68      0.0000     0.0000E+00    0.0000E+00    2.500000E+09  0.00400  9.818E-05    0   0.5463   age150_m42            0.0000     1.1515E+02     5.2302   1.1698   101.7787
 69      0.0000     0.0000E+00    0.0000E+00    4.250000E+09  0.00400  5.491E-05    0   0.5269   age158_m42            0.0000     1.0014E+02     4.6269   1.0518    98.6908
 70      0.0000     0.0000E+00    0.0000E+00    6.250000E+09  0.00400  3.857E-05    0   0.5151   age166_m42            0.0000     1.3498E+02     5.1974   0.9386    97.1051
 71      0.0000     0.0000E+00    0.0000E+00    7.500000E+09  0.00400  3.243E-05    0   0.5110   age171_m42            0.0000     1.6502E+02     5.6536   0.8678    96.4555
 72      0.0000     0.0000E+00    0.0000E+00    1.000000E+10  0.00400  2.424E-05    0   0.5028   age181_m42            0.0000     2.0986E+02     6.2998   0.7975    95.6797
 73      0.0000     0.0000E+00    0.0000E+00    1.300000E+10  0.00400  1.883E-05    0   0.4927   age193_m42            0.0000     2.4806E+02     6.8137   0.7622    95.2821
 74      0.3817     9.0296E-01    8.8154E-01    1.500000E+10  0.00400  1.685E-05    0   0.4919   age201_m42            0.0000     2.3844E+02     6.6756   0.7659    95.3323
 75      0.0000     0.0000E+00    0.0000E+00    1.800000E+10  0.00400  1.452E-05    0   0.4874   age213_m42            0.0000     2.2119E+02     6.4220   0.7783    95.6716
 76      0.0000     0.0000E+00    0.0000E+00    1.000000E+06  0.00800  1.286E-02    0   1.0000   age020_m52            0.0000     2.6759E+03    25.4330   4.0000    93.4718
 77      0.0000     0.0000E+00    0.0000E+00    3.160000E+06  0.00800  3.147E-02    0   0.9966   age045_m52            0.0000     2.1748E+03    23.3976   4.0000    93.8848
 78      0.0000     0.0000E+00    0.0000E+00    5.010000E+06  0.00800  2.664E-02    0   0.9443   age055_m52            0.0000     7.8859E+02    15.3189   4.0000    91.6004
 79      0.0000     0.0000E+00    0.0000E+00    6.610000E+06  0.00800  2.151E-02    0   0.9177   age061_m52            0.0000     2.0030E+02     8.1199   3.0616    89.5341
 80      0.0000     0.0000E+00    0.0000E+00    8.710000E+06  0.00800  1.628E-02    0   0.8948   age067_m52            0.0000     1.9779E+02     8.4202   3.4272    90.2178
 81      0.0000     0.0000E+00    0.0000E+00    1.000000E+07  0.00800  1.215E-02    0   0.8827   age070_m52            0.0000     2.4806E+02     9.3171   3.7702    88.1197
 82      0.0000     0.0000E+00    0.0000E+00    1.445000E+07  0.00800  8.739E-03    0   0.8552   age078_m52            0.0000     1.9682E+02     8.3163   3.8109    89.6704
 83      0.0000     0.0000E+00    0.0000E+00    2.512000E+07  0.00800  5.676E-03    0   0.8162   age090_m52            0.0000     1.5360E+02     6.6494   3.4007    95.4481
 84      0.0000     0.0000E+00    0.0000E+00    4.000000E+07  0.00800  3.939E-03    0   0.7841   age104_m52            0.0000     1.5067E+02     5.6930   3.2431    98.3122
 85      0.0000     0.0000E+00    0.0000E+00    5.500000E+07  0.00800  3.155E-03    0   0.7627   age110_m52            0.0000     1.9617E+02     5.8422   3.2129   100.3966
 86      0.0000     0.0000E+00    0.0000E+00    1.015200E+08  0.00800  2.206E-03    0   0.7226   age116_m52            0.0000     3.6947E+02     7.9704   3.0367   104.7129
 87      0.0000     0.0000E+00    0.0000E+00    1.609000E+08  0.00800  1.596E-03    0   0.6963   age120_m52            0.0000     4.6089E+02     9.2555   2.8256   106.5733
 88      0.0000     0.0000E+00    0.0000E+00    2.861200E+08  0.00800  1.002E-03    0   0.6665   age125_m52            0.0000     7.2393E+02    12.2060   2.5461   109.6096
 89      0.0000     0.0000E+00    0.0000E+00    5.088000E+08  0.00800  5.759E-04    0   0.6377   age130_m52            0.0000     8.1709E+02    13.0884   2.2158   113.3460
 90      0.0000     0.0000E+00    0.0000E+00    9.047900E+08  0.00800  2.972E-04    0   0.6086   age135_m52            0.0000     5.1733E+02    10.4962   1.7074   110.9725
 91      0.0000     0.0000E+00    0.0000E+00    1.278050E+09  0.00800  2.242E-04    0   0.5907   age138_m52            0.0000     2.5491E+02     7.4303   1.0934   109.5936
 92      0.0000     0.0000E+00    0.0000E+00    1.434000E+09  0.00800  1.645E-04    0   0.5787   age139_m52            0.0000     2.1358E+02     6.8113   1.2415   108.7870
 93      0.0000     0.0000E+00    0.0000E+00    2.500000E+09  0.00800  7.723E-05    0   0.5519   age150_m52            0.0000     1.9335E+02     6.4280   0.9259   104.2020
 94      0.0000     0.0000E+00    0.0000E+00    4.250000E+09  0.00800  4.151E-05    0   0.5320   age158_m52            0.0000     1.8996E+02     6.4048   0.8650   101.2113
 95      0.0000     0.0000E+00    0.0000E+00    6.250000E+09  0.00800  3.010E-05    0   0.5197   age166_m52            0.0000     2.6499E+02     7.3393   0.6876    99.5926
 96      0.0710     1.1464E-01    1.1693E-01    7.500000E+09  0.00800  2.467E-05    0   0.5139   age171_m52            0.0000     2.8810E+02     7.6100   0.6495    99.1682
 97      0.0000     0.0000E+00    0.0000E+00    1.000000E+10  0.00800  1.862E-05    0   0.5054   age181_m52            0.0000     3.7007E+02     8.5225   0.5316    98.6995
