###################################################################
## OUTPUT of StarlightChains_v04.for    [Cid@UFSC - 01/Apr/2007] ##
###################################################################

## Some input info
NGC6652_a_1.cxt                          [arq_obs]
Base.BC03.S                              [arq_base]
NGC6652_a_1.msk                          [arq_masks]
StCv04.C99.config                        [arq_config]
  150                                    [N_base]
    0                                    [N_YAV_components = # of components with extra extinction!]
    0                                    [i_FitPowerLaw (1/0 = Yes/No)]
-9.99                                    [alpha_PowerLaw]
CCM                                      [red_law_option]
 1.458241                                [q_norm = A(l_norm)/A(V)]

## (Re)Sampling Parameters
 3359.00                                 [l_ini (A)]
 6428.00                                 [l_fin (A)]
    1.00                                 [dl    (A)]     (OBS: dl_cushion =    50.00 A)

## Normalization info
 4020.00                                 [l_norm (A) - for base]
 4010.00                                 [llow_norm (A) - window for f_obs]
 4060.00                                 [lupp_norm (A) - window for f_obs]
1.310531E-14                             [fobs_norm (in input units)]

## S/N
 4730.00                                 [llow_SN (A) - window for S/N]
 4780.00                                 [lupp_SN (A) - window for S/N]
  53.684                                 [S/N in S/N window]
  42.801                                 [S/N in norm. window]
  62.234                                 [S/N_err in S/N window]
  49.617                                 [S/N_err in norm. window]
  1.0000                                 [fscale_chi2]

## etc...
  2147483592                             [idum_orig]
  3064                                   [NOl_eff]
  2255                                   [Nl_eff]
   809    NSIGMA                         [Ntot_cliped & clip_method]
  2900870                                [Nglobal_steps]
   7                                     [N_chains]
  19                                     [NEX0s_base = N_base in EX0s-fits]
 0   0   1      386   2.0   9.038E+02    [Clip-Bug, RC-Crash & Burn-In warning-flags, n_censored_weights, wei_nsig_threshold & wei_limit]
    98     98.091     98.079      0.012  [idt_all, wdt_TotTime, wdt_UsrTime & wdt_SysTime (sec)]

## Synthesis Results - Best model ##

 2.14260E+00                             [chi2/Nl_eff]
     1.92387                             [adev (%)]

   100.74429                             [sum-of-x (%)]
 1.54725E-14                             [Flux_tot (units of input spectrum!)]
 5.88437E-10                             [Mini_tot (???)]
 2.96419E-10                             [Mcor_tot (???)]

 -18.79                                  [v0_min  (km/s)]
  64.66                                  [vd_min  (km/s)]
 0.1181                                  [AV_min  (mag)]
 0.0000                                  [YAV_min (mag)]

# j     x_j(%)      Mini_j(%)     Mcor_j(%)     age_j(yr)     Z_j      (L/M)_j    YAV?  Mstars   component_j        a/Fe...       SSP_chi2r SSP_adev(%)   SSP_AV   SSP_x(%)
  1      0.0000     0.0000E+00    0.0000E+00    1.000000E+06  0.00010  8.160E-03    0   1.0000   age020_m22            0.0000     2.6809E+02    16.9798   4.0000    69.5815
  2      9.7075     5.3239E-03    1.0569E-02    3.160000E+06  0.00010  4.759E-02    0   1.0000   age045_m22            0.0000     1.0482E+02     7.2959   2.2291    90.5081
  3      0.0000     0.0000E+00    0.0000E+00    5.010000E+06  0.00010  1.932E-02    0   0.9582   age055_m22            0.0000     1.6354E+02    13.8746   2.6799    74.2868
  4      0.0000     0.0000E+00    0.0000E+00    6.610000E+06  0.00010  9.973E-03    0   0.9297   age061_m22            0.0000     2.4535E+02    16.3471   4.0000    71.8132
  5      0.0000     0.0000E+00    0.0000E+00    8.710000E+06  0.00010  7.690E-03    0   0.9030   age067_m22            0.0000     2.3198E+02    15.8984   4.0000    72.3399
  6      0.0000     0.0000E+00    0.0000E+00    1.000000E+07  0.00010  6.375E-03    0   0.8902   age070_m22            0.0000     2.2782E+02    15.8938   4.0000    72.6532
  7      0.0000     0.0000E+00    0.0000E+00    1.445000E+07  0.00010  4.874E-03    0   0.8589   age078_m22            0.0000     1.4086E+02    11.8352   4.0000    75.5560
  8      0.0000     0.0000E+00    0.0000E+00    2.512000E+07  0.00010  4.103E-03    0   0.8174   age090_m22            0.0000     1.1374E+02     9.1916   3.6689    82.4106
  9      0.0000     0.0000E+00    0.0000E+00    4.000000E+07  0.00010  3.654E-03    0   0.7830   age104_m22            0.0000     1.9882E+02     7.5730   3.3112    88.1797
 10      0.0000     0.0000E+00    0.0000E+00    5.500000E+07  0.00010  3.093E-03    0   0.7597   age110_m22            0.0000     2.3861E+02     7.0556   3.1858    90.3345
 11      0.0000     0.0000E+00    0.0000E+00    1.015200E+08  0.00010  2.431E-03    0   0.7138   age116_m22            0.0000     3.4115E+02     6.8744   2.8146    93.7133
 12      0.0000     0.0000E+00    0.0000E+00    1.609000E+08  0.00010  1.319E-03    0   0.6775   age120_m22            0.0000     3.2731E+02     6.5955   2.3341    96.2114
 13      0.0000     0.0000E+00    0.0000E+00    2.861200E+08  0.00010  1.075E-03    0   0.6412   age125_m22            0.0000     6.6630E+02     7.2730   2.3022   102.5247
 14      0.0000     0.0000E+00    0.0000E+00    5.088000E+08  0.00010  7.183E-04    0   0.6083   age130_m22            0.0000     7.5142E+02     7.8681   2.0221   106.0440
 15      0.0000     0.0000E+00    0.0000E+00    9.047900E+08  0.00010  4.524E-04    0   0.5785   age135_m22            0.0000     7.4624E+02     8.0953   1.8042   107.9921
 16      0.0000     0.0000E+00    0.0000E+00    1.278050E+09  0.00010  3.018E-04    0   0.5588   age138_m22            0.0000     4.0673E+02     6.4519   1.3246   104.9783
 17      0.0000     0.0000E+00    0.0000E+00    1.434000E+09  0.00010  2.691E-04    0   0.5532   age139_m22            0.0000     3.4315E+02     6.1485   1.1743   104.3678
 18      0.0000     0.0000E+00    0.0000E+00    2.500000E+09  0.00010  1.582E-04    0   0.5296   age150_m22            0.0000     3.1937E+02     6.1850   1.0812   104.3073
 19      0.0000     0.0000E+00    0.0000E+00    4.250000E+09  0.00010  1.007E-04    0   0.5110   age158_m22            0.0000     2.0513E+02     5.5040   0.9592   101.8683
 20      0.0000     0.0000E+00    0.0000E+00    6.250000E+09  0.00010  6.869E-05    0   0.4985   age166_m22            0.0000     1.1695E+02     5.0976   0.9378    98.2393
 21      0.0000     0.0000E+00    0.0000E+00    7.500000E+09  0.00010  5.873E-05    0   0.4931   age171_m22            0.0000     1.0885E+02     5.2549   0.9372    97.2717
 22      2.3428     1.3646E+00    1.3149E+00    1.000000E+10  0.00010  4.481E-05    0   0.4854   age181_m22            0.0000     1.0472E+02     5.1845   0.8988    96.9672
 23      2.4060     1.7999E+00    1.7118E+00    1.300000E+10  0.00010  3.489E-05    0   0.4791   age193_m22            0.0000     9.5830E+01     5.0416   0.8413    96.5384
 24      0.0000     0.0000E+00    0.0000E+00    1.500000E+10  0.00010  3.035E-05    0   0.4766   age201_m22            0.0000     9.1490E+01     4.9878   0.8034    96.3424
 25      1.7272     1.7960E+00    1.6882E+00    1.800000E+10  0.00010  2.510E-05    0   0.4735   age213_m22            0.0000     8.0654E+01     4.9041   0.7390    95.6712
 26      0.0000     0.0000E+00    0.0000E+00    1.000000E+06  0.00040  8.458E-03    0   1.0000   age020_m32            0.0000     2.6983E+02    17.2865   4.0000    70.1546
 27      0.0000     0.0000E+00    0.0000E+00    3.160000E+06  0.00040  3.973E-02    0   1.0000   age045_m32            0.0000     1.1575E+02     9.6264   3.5706    82.2142
 28      0.0000     0.0000E+00    0.0000E+00    5.010000E+06  0.00040  1.935E-02    0   0.9532   age055_m32            0.0000     1.4207E+02    12.8686   3.8699    74.9891
 29      0.0000     0.0000E+00    0.0000E+00    6.610000E+06  0.00040  1.204E-02    0   0.9243   age061_m32            0.0000     1.7425E+02    13.2831   4.0000    73.7902
 30      0.0000     0.0000E+00    0.0000E+00    8.710000E+06  0.00040  9.433E-03    0   0.9001   age067_m32            0.0000     1.5442E+02    12.4896   4.0000    74.7877
 31      0.0000     0.0000E+00    0.0000E+00    1.000000E+07  0.00040  8.053E-03    0   0.8877   age070_m32            0.0000     1.4434E+02    12.0548   4.0000    75.1933
 32      0.0000     0.0000E+00    0.0000E+00    1.445000E+07  0.00040  7.027E-03    0   0.8578   age078_m32            0.0000     1.1694E+02    10.6441   3.5528    80.3087
 33      0.0000     0.0000E+00    0.0000E+00    2.512000E+07  0.00040  4.707E-03    0   0.8166   age090_m32            0.0000     1.2728E+02     9.1022   3.2213    84.8676
 34      0.0000     0.0000E+00    0.0000E+00    4.000000E+07  0.00040  3.714E-03    0   0.7827   age104_m32            0.0000     1.8621E+02     7.8060   2.9727    89.1438
 35      0.0000     0.0000E+00    0.0000E+00    5.500000E+07  0.00040  2.982E-03    0   0.7593   age110_m32            0.0000     2.2486E+02     7.3779   2.8928    90.8052
 36      0.0000     0.0000E+00    0.0000E+00    1.015200E+08  0.00040  2.188E-03    0   0.7143   age116_m32            0.0000     4.4194E+02     6.6830   2.5529    97.0330
 37      0.0000     0.0000E+00    0.0000E+00    1.609000E+08  0.00040  1.690E-03    0   0.6856   age120_m32            0.0000     6.0090E+02     6.9803   2.3104   100.6268
 38      0.0000     0.0000E+00    0.0000E+00    2.861200E+08  0.00040  1.152E-03    0   0.6509   age125_m32            0.0000     6.8324E+02     7.4556   2.0289   104.5545
 39      0.0000     0.0000E+00    0.0000E+00    5.088000E+08  0.00040  7.331E-04    0   0.6182   age130_m32            0.0000     7.0664E+02     7.7363   1.8353   106.4935
 40      0.0000     0.0000E+00    0.0000E+00    9.047900E+08  0.00040  3.960E-04    0   0.5890   age135_m32            0.0000     4.0154E+02     6.4258   1.3931   105.2608
 41      0.0000     0.0000E+00    0.0000E+00    1.278050E+09  0.00040  2.854E-04    0   0.5687   age138_m32            0.0000     3.6051E+02     6.3030   1.1295   105.8857
 42      0.0000     0.0000E+00    0.0000E+00    1.434000E+09  0.00040  2.531E-04    0   0.5632   age139_m32            0.0000     3.5194E+02     6.2865   1.0693   105.7799
 43      4.5461     7.9740E-01    8.5258E-01    2.500000E+09  0.00040  1.488E-04    0   0.5386   age150_m32            0.0000     2.5170E+02     5.5760   0.8221   103.9633
 44     17.6732     5.0790E+00    5.2419E+00    4.250000E+09  0.00040  9.082E-05    0   0.5199   age158_m32            0.0000     1.0844E+02     4.6482   0.7746    99.3612
 45      0.0000     0.0000E+00    0.0000E+00    6.250000E+09  0.00040  6.362E-05    0   0.5076   age166_m32            0.0000     5.2192E+01     4.8406   0.7847    94.5572
 46      1.0811     5.3351E-01    5.3240E-01    7.500000E+09  0.00040  5.289E-05    0   0.5027   age171_m32            0.0000     4.2904E+01     4.7917   0.7537    93.3076
 47      0.0002     1.1321E-04    1.1120E-04    1.000000E+10  0.00040  3.972E-05    0   0.4948   age181_m32            0.0000     3.5664E+01     4.6010   0.6914    92.2023
 48      0.0000     0.0000E+00    0.0000E+00    1.300000E+10  0.00040  3.283E-05    0   0.4870   age193_m32            0.0000     5.4248E+01     4.2705   0.6191    95.5944
 49      0.0001     6.9624E-05    6.7089E-05    1.500000E+10  0.00040  2.925E-05    0   0.4854   age201_m32            0.0000     7.3161E+01     4.2479   0.5855    97.5490
 50      0.0000     0.0000E+00    0.0000E+00    1.800000E+10  0.00040  2.469E-05    0   0.4819   age213_m32            0.0000     8.1548E+01     4.2132   0.5370    98.2913
 51      0.0000     0.0000E+00    0.0000E+00    1.000000E+06  0.00400  1.114E-02    0   1.0000   age020_m42            0.0000     2.3761E+02    15.5225   4.0000    70.6413
 52      0.0000     0.0000E+00    0.0000E+00    3.160000E+06  0.00400  4.073E-02    0   0.9999   age045_m42            0.0000     1.0828E+02     8.2212   3.2326    85.8030
 53      0.0000     0.0000E+00    0.0000E+00    5.010000E+06  0.00400  2.534E-02    0   0.9488   age055_m42            0.0000     1.1036E+02    10.8769   3.7073    78.2120
 54      0.0000     0.0000E+00    0.0000E+00    6.610000E+06  0.00400  2.583E-02    0   0.9220   age061_m42            0.0000     1.3572E+02     7.7932   3.0348    86.9468
 55      0.0000     0.0000E+00    0.0000E+00    8.710000E+06  0.00400  1.706E-02    0   0.8983   age067_m42            0.0000     1.1012E+02     9.6762   2.9106    83.7229
 56      0.0000     0.0000E+00    0.0000E+00    1.000000E+07  0.00400  1.271E-02    0   0.8862   age070_m42            0.0000     1.1218E+02    11.1998   2.9298    81.3527
 57      0.0000     0.0000E+00    0.0000E+00    1.445000E+07  0.00400  7.666E-03    0   0.8571   age078_m42            0.0000     1.1620E+02    11.8590   3.3555    78.0160
 58      0.0000     0.0000E+00    0.0000E+00    2.512000E+07  0.00400  5.070E-03    0   0.8174   age090_m42            0.0000     1.0573E+02    10.6389   2.7900    83.1471
 59      0.0000     0.0000E+00    0.0000E+00    4.000000E+07  0.00400  3.505E-03    0   0.7851   age104_m42            0.0000     1.0339E+02     8.8930   2.4369    87.1433
 60      0.0000     0.0000E+00    0.0000E+00    5.500000E+07  0.00400  3.059E-03    0   0.7629   age110_m42            0.0000     2.0916E+02     6.4840   2.4109    93.7467
 61      0.0000     0.0000E+00    0.0000E+00    1.015200E+08  0.00400  2.268E-03    0   0.7207   age116_m42            0.0000     5.2749E+02     6.4281   2.2254   101.3343
 62      0.0000     0.0000E+00    0.0000E+00    1.609000E+08  0.00400  1.720E-03    0   0.6930   age120_m42            0.0000     5.4862E+02     6.3885   2.0568   104.0282
 63      0.0000     0.0000E+00    0.0000E+00    2.861200E+08  0.00400  1.079E-03    0   0.6613   age125_m42            0.0000     5.1622E+02     6.5254   1.6896   105.1056
 64      0.0000     0.0000E+00    0.0000E+00    5.088000E+08  0.00400  6.261E-04    0   0.6313   age130_m42            0.0000     5.8328E+02     7.1312   1.4767   108.5501
 65      0.0000     0.0000E+00    0.0000E+00    9.047900E+08  0.00400  3.535E-04    0   0.6024   age135_m42            0.0000     3.5172E+02     6.0526   1.0871   108.9401
 66      0.0000     0.0000E+00    0.0000E+00    1.278050E+09  0.00400  2.677E-04    0   0.5837   age138_m42            0.0000     9.2685E+01     3.9268   0.3986   107.9853
 67      0.0000     0.0000E+00    0.0000E+00    1.434000E+09  0.00400  1.910E-04    0   0.5716   age139_m42            0.0000     1.4667E+02     4.2287   0.5598   108.7258
 68      0.0000     0.0000E+00    0.0000E+00    2.500000E+09  0.00400  9.818E-05    0   0.5463   age150_m42            0.0000     1.7722E+01     2.4512   0.3313   103.4559
 69      0.0000     0.0000E+00    0.0000E+00    4.250000E+09  0.00400  5.491E-05    0   0.5269   age158_m42            0.0000     3.8080E+00     2.0646   0.2377    99.9077
 70      1.7036     1.1528E+00    1.1788E+00    6.250000E+09  0.00400  3.857E-05    0   0.5151   age166_m42            0.0000     6.6658E+00     2.2613   0.1116    98.9030
 71      0.0000     0.0000E+00    0.0000E+00    7.500000E+09  0.00400  3.243E-05    0   0.5110   age171_m42            0.0000     1.1936E+01     2.5959   0.0000    98.8042
 72      0.8582     9.2406E-01    9.2233E-01    1.000000E+10  0.00400  2.424E-05    0   0.5028   age181_m42            0.0000     2.3146E+01     2.8204  -0.0514    98.3170
 73      0.0005     7.5014E-04    7.3370E-04    1.300000E+10  0.00400  1.883E-05    0   0.4927   age193_m42            0.0000     3.7532E+01     3.1100  -0.0873    98.0195
 74      0.0000     0.0000E+00    0.0000E+00    1.500000E+10  0.00400  1.685E-05    0   0.4919   age201_m42            0.0000     3.3915E+01     3.0573  -0.0806    97.9174
 75      0.0000     0.0000E+00    0.0000E+00    1.800000E+10  0.00400  1.452E-05    0   0.4874   age213_m42            0.0000     2.7682E+01     2.9705  -0.0629    97.9794
 76      0.0000     0.0000E+00    0.0000E+00    1.000000E+06  0.00800  1.286E-02    0   1.0000   age020_m52            0.0000     2.0649E+02    14.4574   4.0000    72.4072
 77      0.0000     0.0000E+00    0.0000E+00    3.160000E+06  0.00800  3.147E-02    0   0.9966   age045_m52            0.0000     1.7436E+02    13.0648   4.0000    73.6528
 78      0.0000     0.0000E+00    0.0000E+00    5.010000E+06  0.00800  2.664E-02    0   0.9443   age055_m52            0.0000     1.2297E+02    11.3414   3.8470    76.8301
 79      0.0000     0.0000E+00    0.0000E+00    6.610000E+06  0.00800  2.151E-02    0   0.9177   age061_m52            0.0000     8.9670E+01     9.9717   2.5114    83.6401
 80      0.0000     0.0000E+00    0.0000E+00    8.710000E+06  0.00800  1.628E-02    0   0.8948   age067_m52            0.0000     1.1244E+02    10.1697   2.8868    83.5401
 81      0.0000     0.0000E+00    0.0000E+00    1.000000E+07  0.00800  1.215E-02    0   0.8827   age070_m52            0.0000     1.1961E+02    10.8187   3.2450    81.3256
 82      0.0000     0.0000E+00    0.0000E+00    1.445000E+07  0.00800  8.739E-03    0   0.8552   age078_m52            0.0000     1.3087E+02    10.0318   3.2644    83.0432
 83      0.0000     0.0000E+00    0.0000E+00    2.512000E+07  0.00800  5.676E-03    0   0.8162   age090_m52            0.0000     1.9624E+02     8.9267   2.8219    88.3058
 84      0.0000     0.0000E+00    0.0000E+00    4.000000E+07  0.00800  3.939E-03    0   0.7841   age104_m52            0.0000     2.4254E+02     7.6494   2.6246    91.7481
 85      0.0000     0.0000E+00    0.0000E+00    5.500000E+07  0.00800  3.155E-03    0   0.7627   age110_m52            0.0000     2.9662E+02     6.9008   2.5602    94.4586
 86      0.0000     0.0000E+00    0.0000E+00    1.015200E+08  0.00800  2.206E-03    0   0.7226   age116_m52            0.0000     4.2385E+02     6.2455   2.3112   100.3869
 87      0.0000     0.0000E+00    0.0000E+00    1.609000E+08  0.00800  1.596E-03    0   0.6963   age120_m52            0.0000     4.6865E+02     6.2939   2.0664   103.1099
 88      0.0000     0.0000E+00    0.0000E+00    2.861200E+08  0.00800  1.002E-03    0   0.6665   age125_m52            0.0000     5.9442E+02     6.9685   1.6964   108.7917
 89      0.0000     0.0000E+00    0.0000E+00    5.088000E+08  0.00800  5.759E-04    0   0.6377   age130_m52            0.0000     5.6280E+02     7.5643   1.2794   115.7450
 90      0.0000     0.0000E+00    0.0000E+00    9.047900E+08  0.00800  2.972E-04    0   0.6086   age135_m52            0.0000     2.2949E+02     6.6349   0.7345   116.3067
 91      0.0000     0.0000E+00    0.0000E+00    1.278050E+09  0.00800  2.242E-04    0   0.5907   age138_m52            0.0000     5.1193E+01     4.4334   0.1839   113.3293
 92      0.0000     0.0000E+00    0.0000E+00    1.434000E+09  0.00800  1.645E-04    0   0.5787   age139_m52            0.0000     4.9998E+01     3.8781   0.3522   111.7609
 93      0.0000     0.0000E+00    0.0000E+00    2.500000E+09  0.00800  7.723E-05    0   0.5519   age150_m52            0.0000     7.9332E+00     3.2992   0.0000   107.5625
 94      0.0000     0.0000E+00    0.0000E+00    4.250000E+09  0.00800  4.151E-05    0   0.5320   age158_m52            0.0000     6.7647E+00     2.5842  -0.0043   104.2840
 95      0.1142     9.9043E-02    1.0218E-01    6.250000E+09  0.00800  3.010E-05    0   0.5197   age166_m52            0.0000     2.4205E+01     3.0339  -0.2007   103.3951
 96      0.0292     3.0899E-02    3.1522E-02    7.500000E+09  0.00800  2.467E-05    0   0.5139   age171_m52            0.0000     3.0880E+01     3.2108  -0.2457   103.2165
 97     51.1590     7.1711E+01    7.1947E+01    1.000000E+10  0.00800  1.862E-05    0   0.5054   age181_m52            0.0000     5.2536E+01     3.8168  -0.3898   103.6350
