###################################################################
## OUTPUT of StarlightChains_v04.for    [Cid@UFSC - 01/Apr/2007] ##
###################################################################

## Some input info
NGC6441_a_2.cxt                          [arq_obs]
Base.BC03.S                              [arq_base]
NGC6441_a_2.msk                          [arq_masks]
StCv04.C99.config                        [arq_config]
  150                                    [N_base]
    0                                    [N_YAV_components = # of components with extra extinction!]
    0                                    [i_FitPowerLaw (1/0 = Yes/No)]
-9.99                                    [alpha_PowerLaw]
CCM                                      [red_law_option]
 1.458241                                [q_norm = A(l_norm)/A(V)]

## (Re)Sampling Parameters
 3359.00                                 [l_ini (A)]
 6428.00                                 [l_fin (A)]
    1.00                                 [dl    (A)]     (OBS: dl_cushion =    50.00 A)

## Normalization info
 4020.00                                 [l_norm (A) - for base]
 4010.00                                 [llow_norm (A) - window for f_obs]
 4060.00                                 [lupp_norm (A) - window for f_obs]
3.752896E-14                             [fobs_norm (in input units)]

## S/N
 4730.00                                 [llow_SN (A) - window for S/N]
 4780.00                                 [lupp_SN (A) - window for S/N]
  36.122                                 [S/N in S/N window]
  21.548                                 [S/N in norm. window]
 237.783                                 [S/N_err in S/N window]
 141.847                                 [S/N_err in norm. window]
  1.0000                                 [fscale_chi2]

## etc...
  2147483608                             [idum_orig]
  3065                                   [NOl_eff]
   751                                   [Nl_eff]
  2314    NSIGMA                         [Ntot_cliped & clip_method]
  4727870                                [Nglobal_steps]
   7                                     [N_chains]
  31                                     [NEX0s_base = N_base in EX0s-fits]
 0   0   1      159   2.0   3.245E+02    [Clip-Bug, RC-Crash & Burn-In warning-flags, n_censored_weights, wei_nsig_threshold & wei_limit]
   170    169.749    169.745      0.004  [idt_all, wdt_TotTime, wdt_UsrTime & wdt_SysTime (sec)]

## Synthesis Results - Best model ##

 2.74790E+00                             [chi2/Nl_eff]
     1.54127                             [adev (%)]

    99.76721                             [sum-of-x (%)]
 2.07915E-13                             [Flux_tot (units of input spectrum!)]
 1.37045E-08                             [Mini_tot (???)]
 6.84099E-09                             [Mcor_tot (???)]

 -15.14                                  [v0_min  (km/s)]
  25.93                                  [vd_min  (km/s)]
 1.2764                                  [AV_min  (mag)]
 0.0000                                  [YAV_min (mag)]

# j     x_j(%)      Mini_j(%)     Mcor_j(%)     age_j(yr)     Z_j      (L/M)_j    YAV?  Mstars   component_j        a/Fe...       SSP_chi2r SSP_adev(%)   SSP_AV   SSP_x(%)
  1      0.0000     0.0000E+00    0.0000E+00    1.000000E+06  0.00010  8.160E-03    0   1.0000   age020_m22            0.0000     4.6279E+03    43.7948   4.0000   101.8766
  2      4.5986     1.4694E-03    2.9437E-03    3.160000E+06  0.00010  4.759E-02    0   1.0000   age045_m22            0.0000     3.2775E+02    10.4062   3.3637    96.9154
  3      5.8818     4.6295E-03    8.8866E-03    5.010000E+06  0.00010  1.932E-02    0   0.9582   age055_m22            0.0000     7.3646E+02    18.1923   3.5921    85.9117
  4      0.0000     0.0000E+00    0.0000E+00    6.610000E+06  0.00010  9.973E-03    0   0.9297   age061_m22            0.0000     4.4888E+03    42.7955   4.0000   104.6749
  5      0.0000     0.0000E+00    0.0000E+00    8.710000E+06  0.00010  7.690E-03    0   0.9030   age067_m22            0.0000     4.4041E+03    42.3588   4.0000   105.1026
  6      0.0000     0.0000E+00    0.0000E+00    1.000000E+07  0.00010  6.375E-03    0   0.8902   age070_m22            0.0000     4.4362E+03    42.2853   4.0000   105.4044
  7      0.0000     0.0000E+00    0.0000E+00    1.445000E+07  0.00010  4.874E-03    0   0.8589   age078_m22            0.0000     3.3552E+03    37.5446   4.0000   106.7133
  8      0.0000     0.0000E+00    0.0000E+00    2.512000E+07  0.00010  4.103E-03    0   0.8174   age090_m22            0.0000     1.6088E+03    26.5817   4.0000   107.3365
  9      0.0000     0.0000E+00    0.0000E+00    4.000000E+07  0.00010  3.654E-03    0   0.7830   age104_m22            0.0000     9.2012E+02    18.5163   4.0000   106.1406
 10      0.0000     0.0000E+00    0.0000E+00    5.500000E+07  0.00010  3.093E-03    0   0.7597   age110_m22            0.0000     7.7079E+02    16.0649   4.0000   105.2578
 11      0.0000     0.0000E+00    0.0000E+00    1.015200E+08  0.00010  2.431E-03    0   0.7138   age116_m22            0.0000     5.5338E+02    12.3143   4.0000    99.1454
 12      0.0000     0.0000E+00    0.0000E+00    1.609000E+08  0.00010  1.319E-03    0   0.6775   age120_m22            0.0000     5.1532E+02    11.4924   3.5661   100.1959
 13      0.0000     0.0000E+00    0.0000E+00    2.861200E+08  0.00010  1.075E-03    0   0.6412   age125_m22            0.0000     7.9483E+02    14.8044   3.6872   101.7708
 14      0.0000     0.0000E+00    0.0000E+00    5.088000E+08  0.00010  7.183E-04    0   0.6083   age130_m22            0.0000     8.8092E+02    15.7429   3.4701   102.9483
 15      0.0000     0.0000E+00    0.0000E+00    9.047900E+08  0.00010  4.524E-04    0   0.5785   age135_m22            0.0000     8.7796E+02    15.7832   3.2682   104.1753
 16      0.0000     0.0000E+00    0.0000E+00    1.278050E+09  0.00010  3.018E-04    0   0.5588   age138_m22            0.0000     5.5239E+02    12.0868   2.7050   103.6575
 17      0.0000     0.0000E+00    0.0000E+00    1.434000E+09  0.00010  2.691E-04    0   0.5532   age139_m22            0.0000     4.9375E+02    11.3411   2.5447   103.2935
 18      0.0000     0.0000E+00    0.0000E+00    2.500000E+09  0.00010  1.582E-04    0   0.5296   age150_m22            0.0000     4.6776E+02    11.0938   2.4154   104.5767
 19      0.0000     0.0000E+00    0.0000E+00    4.250000E+09  0.00010  1.007E-04    0   0.5110   age158_m22            0.0000     3.5651E+02     9.3611   2.2491   103.3915
 20      0.0018     4.0614E-04    4.0559E-04    6.250000E+09  0.00010  6.869E-05    0   0.4985   age166_m22            0.0000     2.7982E+02     7.9782   2.1788   101.0228
 21      0.0000     0.0000E+00    0.0000E+00    7.500000E+09  0.00010  5.873E-05    0   0.4931   age171_m22            0.0000     2.7778E+02     7.9917   2.1596   100.7037
 22      0.0000     0.0000E+00    0.0000E+00    1.000000E+10  0.00010  4.481E-05    0   0.4854   age181_m22            0.0000     2.7009E+02     7.8811   2.1226   100.3051
 23      0.0079     3.4515E-03    3.3126E-03    1.300000E+10  0.00010  3.489E-05    0   0.4791   age193_m22            0.0000     2.5485E+02     7.6218   2.0650    99.7910
 24      0.0000     0.0000E+00    0.0000E+00    1.500000E+10  0.00010  3.035E-05    0   0.4766   age201_m22            0.0000     2.4573E+02     7.4881   2.0258    99.6347
 25      0.0000     0.0000E+00    0.0000E+00    1.800000E+10  0.00010  2.510E-05    0   0.4735   age213_m22            0.0000     2.2785E+02     7.2187   1.9549    99.1376
 26      0.0000     0.0000E+00    0.0000E+00    1.000000E+06  0.00040  8.458E-03    0   1.0000   age020_m32            0.0000     4.7158E+03    43.8581   4.0000   102.7281
 27      0.0000     0.0000E+00    0.0000E+00    3.160000E+06  0.00040  3.973E-02    0   1.0000   age045_m32            0.0000     1.3024E+03    24.4794   4.0000   105.3015
 28      0.0000     0.0000E+00    0.0000E+00    5.010000E+06  0.00040  1.935E-02    0   0.9532   age055_m32            0.0000     2.2321E+03    32.4344   4.0000   103.0505
 29      0.0000     0.0000E+00    0.0000E+00    6.610000E+06  0.00040  1.204E-02    0   0.9243   age061_m32            0.0000     3.6391E+03    39.3022   4.0000   105.4809
 30      0.0000     0.0000E+00    0.0000E+00    8.710000E+06  0.00040  9.433E-03    0   0.9001   age067_m32            0.0000     3.4420E+03    38.2623   4.0000   106.1777
 31      0.0000     0.0000E+00    0.0000E+00    1.000000E+07  0.00040  8.053E-03    0   0.8877   age070_m32            0.0000     3.2508E+03    37.3571   4.0000   106.2361
 32      0.0000     0.0000E+00    0.0000E+00    1.445000E+07  0.00040  7.027E-03    0   0.8578   age078_m32            0.0000     1.2501E+03    24.7130   4.0000   103.0013
 33      0.0001     1.7209E-07    2.8151E-07    2.512000E+07  0.00040  4.707E-03    0   0.8166   age090_m32            0.0000     6.6300E+02    17.4170   4.0000   100.4366
 34      0.0000     0.0000E+00    0.0000E+00    4.000000E+07  0.00040  3.714E-03    0   0.7827   age104_m32            0.0000     5.0052E+02    13.2258   4.0000    98.7255
 35      0.0000     0.0000E+00    0.0000E+00    5.500000E+07  0.00040  2.982E-03    0   0.7593   age110_m32            0.0000     4.9714E+02    12.4542   4.0000    98.2328
 36      0.0000     0.0000E+00    0.0000E+00    1.015200E+08  0.00040  2.188E-03    0   0.7143   age116_m32            0.0000     6.0813E+02    12.7461   3.8301    99.7876
 37      0.0000     0.0000E+00    0.0000E+00    1.609000E+08  0.00040  1.690E-03    0   0.6856   age120_m32            0.0000     7.1284E+02    14.0550   3.6488   101.7381
 38      0.0000     0.0000E+00    0.0000E+00    2.861200E+08  0.00040  1.152E-03    0   0.6509   age125_m32            0.0000     8.0258E+02    14.9665   3.4450   102.7343
 39      0.0000     0.0000E+00    0.0000E+00    5.088000E+08  0.00040  7.331E-04    0   0.6182   age130_m32            0.0000     8.3428E+02    15.2506   3.2883   103.1821
 40      0.0000     0.0000E+00    0.0000E+00    9.047900E+08  0.00040  3.960E-04    0   0.5890   age135_m32            0.0000     5.6626E+02    12.2450   2.8064   102.6052
 41      0.0000     0.0000E+00    0.0000E+00    1.278050E+09  0.00040  2.854E-04    0   0.5687   age138_m32            0.0000     4.9567E+02    11.5152   2.4885   105.3062
 42      0.0000     0.0000E+00    0.0000E+00    1.434000E+09  0.00040  2.531E-04    0   0.5632   age139_m32            0.0000     4.8518E+02    11.4227   2.4264   105.3334
 43      0.0000     0.0000E+00    0.0000E+00    2.500000E+09  0.00040  1.488E-04    0   0.5386   age150_m32            0.0000     3.9177E+02    10.1468   2.1678   103.6769
 44      5.2775     8.8365E-01    9.2033E-01    4.250000E+09  0.00040  9.082E-05    0   0.5199   age158_m32            0.0000     2.4892E+02     7.4906   2.0473   101.0845
 45     11.1131     2.6563E+00    2.7011E+00    6.250000E+09  0.00040  6.362E-05    0   0.5076   age166_m32            0.0000     1.9505E+02     6.5329   1.9837    98.4441
 46     16.0227     4.6068E+00    4.6393E+00    7.500000E+09  0.00040  5.289E-05    0   0.5027   age171_m32            0.0000     1.8065E+02     6.3632   1.9454    97.2606
 47      5.3446     2.0461E+00    2.0282E+00    1.000000E+10  0.00040  3.972E-05    0   0.4948   age181_m32            0.0000     1.6527E+02     6.1473   1.8855    95.8520
 48      0.0000     0.0000E+00    0.0000E+00    1.300000E+10  0.00040  3.283E-05    0   0.4870   age193_m32            0.0000     1.7344E+02     6.1994   1.8522    98.3254
 49      0.0112     5.8064E-03    5.6462E-03    1.500000E+10  0.00040  2.925E-05    0   0.4854   age201_m32            0.0000     1.8700E+02     6.4671   1.8412    99.7285
 50      0.0001     5.6233E-05    5.4287E-05    1.800000E+10  0.00040  2.469E-05    0   0.4819   age213_m32            0.0000     1.8854E+02     6.5229   1.8042   100.1901
 51      0.0000     0.0000E+00    0.0000E+00    1.000000E+06  0.00400  1.114E-02    0   1.0000   age020_m42            0.0000     4.2966E+03    42.2596   4.0000   102.5652
 52      0.0000     0.0000E+00    0.0000E+00    3.160000E+06  0.00400  4.073E-02    0   0.9999   age045_m42            0.0000     6.1932E+02    16.6640   4.0000   101.3137
 53      0.0000     0.0000E+00    0.0000E+00    5.010000E+06  0.00400  2.534E-02    0   0.9488   age055_m42            0.0000     1.6522E+03    28.0069   4.0000   103.3960
 54      0.0081     4.7399E-06    8.7547E-06    6.610000E+06  0.00400  2.583E-02    0   0.9220   age061_m42            0.0000     4.5452E+02    13.6421   4.0000    97.7819
 55      0.0000     0.0000E+00    0.0000E+00    8.710000E+06  0.00400  1.706E-02    0   0.8983   age067_m42            0.0000     4.4984E+02    14.0415   3.9503    92.9197
 56      0.0000     0.0000E+00    0.0000E+00    1.000000E+07  0.00400  1.271E-02    0   0.8862   age070_m42            0.0000     5.3299E+02    15.7914   3.9187    92.0579
 57      0.0000     0.0000E+00    0.0000E+00    1.445000E+07  0.00400  7.666E-03    0   0.8571   age078_m42            0.0000     8.2716E+02    21.3311   4.0000    96.3447
 58      0.0000     0.0000E+00    0.0000E+00    2.512000E+07  0.00400  5.070E-03    0   0.8174   age090_m42            0.0000     4.8003E+02    15.0736   3.7953    93.5657
 59      0.0000     0.0000E+00    0.0000E+00    4.000000E+07  0.00400  3.505E-03    0   0.7851   age104_m42            0.0000     3.5657E+02    12.9510   3.4966    96.0842
 60      0.0000     0.0000E+00    0.0000E+00    5.500000E+07  0.00400  3.059E-03    0   0.7629   age110_m42            0.0000     3.6071E+02    10.7302   3.5994    99.1889
 61      0.0000     0.0000E+00    0.0000E+00    1.015200E+08  0.00400  2.268E-03    0   0.7207   age116_m42            0.0000     5.9590E+02    12.7877   3.5610   102.6394
 62      0.0000     0.0000E+00    0.0000E+00    1.609000E+08  0.00400  1.720E-03    0   0.6930   age120_m42            0.0000     6.1645E+02    12.9798   3.4354   103.6932
 63      0.0000     0.0000E+00    0.0000E+00    2.861200E+08  0.00400  1.079E-03    0   0.6613   age125_m42            0.0000     5.7949E+02    12.6621   3.0776   104.2487
 64      0.0000     0.0000E+00    0.0000E+00    5.088000E+08  0.00400  6.261E-04    0   0.6313   age130_m42            0.0000     6.3353E+02    13.5086   2.8781   107.3554
 65      0.0000     0.0000E+00    0.0000E+00    9.047900E+08  0.00400  3.535E-04    0   0.6024   age135_m42            0.0000     4.1724E+02    10.7547   2.4642   108.1844
 66      0.3724     2.1153E-02    2.4734E-02    1.278050E+09  0.00400  2.677E-04    0   0.5837   age138_m42            0.0000     1.3766E+02     6.2192   1.7929   105.4789
 67      0.0000     0.0000E+00    0.0000E+00    1.434000E+09  0.00400  1.910E-04    0   0.5716   age139_m42            0.0000     1.9723E+02     7.1217   1.9609   106.2769
 68      0.0000     0.0000E+00    0.0000E+00    2.500000E+09  0.00400  9.818E-05    0   0.5463   age150_m42            0.0000     6.1033E+01     3.6678   1.6904   101.5347
 69      1.5058     4.1701E-01    4.4016E-01    4.250000E+09  0.00400  5.491E-05    0   0.5269   age158_m42            0.0000     2.7000E+01     2.7061   1.5617    99.0097
 70      0.6088     2.4004E-01    2.4770E-01    6.250000E+09  0.00400  3.857E-05    0   0.5151   age166_m42            0.0000     2.2286E+01     2.6968   1.4443    97.5340
 71      0.6080     2.8511E-01    2.9186E-01    7.500000E+09  0.00400  3.243E-05    0   0.5110   age171_m42            0.0000     2.4957E+01     2.9126   1.3731    96.8419
 72      0.0930     5.8345E-02    5.8768E-02    1.000000E+10  0.00400  2.424E-05    0   0.5028   age181_m42            0.0000     3.3017E+01     3.3913   1.3014    96.0526
 73      0.0000     0.0000E+00    0.0000E+00    1.300000E+10  0.00400  1.883E-05    0   0.4927   age193_m42            0.0000     4.2270E+01     3.8607   1.2652    95.6776
 74      0.3552     3.2060E-01    3.1593E-01    1.500000E+10  0.00400  1.685E-05    0   0.4919   age201_m42            0.0000     3.9544E+01     3.7230   1.2689    95.7453
 75      3.5766     3.7457E+00    3.6573E+00    1.800000E+10  0.00400  1.452E-05    0   0.4874   age213_m42            0.0000     3.4836E+01     3.4900   1.2825    96.0845
 76      0.0000     0.0000E+00    0.0000E+00    1.000000E+06  0.00800  1.286E-02    0   1.0000   age020_m52            0.0000     4.1049E+03    41.1437   4.0000   104.3254
 77      0.0000     0.0000E+00    0.0000E+00    3.160000E+06  0.00800  3.147E-02    0   0.9966   age045_m52            0.0000     3.6740E+03    39.4316   4.0000   105.2283
 78      0.0000     0.0000E+00    0.0000E+00    5.010000E+06  0.00800  2.664E-02    0   0.9443   age055_m52            0.0000     2.1141E+03    31.3505   4.0000   104.4380
 79      0.0000     0.0000E+00    0.0000E+00    6.610000E+06  0.00800  2.151E-02    0   0.9177   age061_m52            0.0000     4.1271E+02    14.2236   3.5167    93.5450
 80      0.0000     0.0000E+00    0.0000E+00    8.710000E+06  0.00800  1.628E-02    0   0.8948   age067_m52            0.0000     4.7073E+02    14.8112   3.9018    93.5947
 81      0.0000     0.0000E+00    0.0000E+00    1.000000E+07  0.00800  1.215E-02    0   0.8827   age070_m52            0.0000     6.6273E+02    18.7629   4.0000    97.7966
 82      0.0000     0.0000E+00    0.0000E+00    1.445000E+07  0.00800  8.739E-03    0   0.8552   age078_m52            0.0000     6.9725E+02    18.7430   4.0000   100.1024
 83      0.0000     0.0000E+00    0.0000E+00    2.512000E+07  0.00800  5.676E-03    0   0.8162   age090_m52            0.0000     4.6834E+02    13.2106   3.9173    96.9833
 84      0.0000     0.0000E+00    0.0000E+00    4.000000E+07  0.00800  3.939E-03    0   0.7841   age104_m52            0.0000     4.4704E+02    11.9682   3.7753    98.7386
 85      0.0000     0.0000E+00    0.0000E+00    5.500000E+07  0.00800  3.155E-03    0   0.7627   age110_m52            0.0000     4.6999E+02    11.5097   3.7583    99.9271
 86      0.0000     0.0000E+00    0.0000E+00    1.015200E+08  0.00800  2.206E-03    0   0.7226   age116_m52            0.0000     5.3483E+02    11.7199   3.5994   102.9961
 87      0.0000     0.0000E+00    0.0000E+00    1.609000E+08  0.00800  1.596E-03    0   0.6963   age120_m52            0.0000     5.5551E+02    12.1708   3.3961   104.3490
 88      0.0000     0.0000E+00    0.0000E+00    2.861200E+08  0.00800  1.002E-03    0   0.6665   age125_m52            0.0000     6.5312E+02    13.6210   3.1350   106.0998
 89      0.0000     0.0000E+00    0.0000E+00    5.088000E+08  0.00800  5.759E-04    0   0.6377   age130_m52            0.0000     6.4697E+02    13.4056   2.8050   109.5357
 90      0.0001     3.4377E-06    4.1912E-06    9.047900E+08  0.00800  2.972E-04    0   0.6086   age135_m52            0.0000     3.8164E+02     9.7019   2.2728   108.1123
 91      0.0000     0.0000E+00    0.0000E+00    1.278050E+09  0.00800  2.242E-04    0   0.5907   age138_m52            0.0000     1.1947E+02     5.5682   1.6444   107.5425
 92      0.0000     0.0000E+00    0.0000E+00    1.434000E+09  0.00800  1.645E-04    0   0.5787   age139_m52            0.0000     1.1057E+02     5.2119   1.7850   107.1391
 93      0.0000     0.0000E+00    0.0000E+00    2.500000E+09  0.00800  7.723E-05    0   0.5519   age150_m52            0.0000     3.7234E+01     3.5042   1.4493   103.4676
 94      0.0000     0.0000E+00    0.0000E+00    4.250000E+09  0.00800  4.151E-05    0   0.5320   age158_m52            0.0000     2.8095E+01     3.3418   1.3776   101.0568
 95      0.0000     0.0000E+00    0.0000E+00    6.250000E+09  0.00800  3.010E-05    0   0.5197   age166_m52            0.0000     3.4495E+01     3.8180   1.1967    99.4402
 96      0.0252     1.5556E-02    1.6015E-02    7.500000E+09  0.00800  2.467E-05    0   0.5139   age171_m52            0.0000     3.9536E+01     4.0389   1.1588    98.9669
 97      0.0000     0.0000E+00    0.0000E+00    1.000000E+10  0.00800  1.862E-05    0   0.5054   age181_m52            0.0000     6.1318E+01     4.8686   1.0419    98.3034
