###################################################################
## OUTPUT of StarlightChains_v04.for    [Cid@UFSC - 01/Apr/2007] ##
###################################################################

## Some input info
NGC6652_b_1.cxt                          [arq_obs]
Base.BC03.S                              [arq_base]
NGC6652_b_1.msk                          [arq_masks]
StCv04.C99.config                        [arq_config]
  150                                    [N_base]
    0                                    [N_YAV_components = # of components with extra extinction!]
    0                                    [i_FitPowerLaw (1/0 = Yes/No)]
-9.99                                    [alpha_PowerLaw]
CCM                                      [red_law_option]
 1.458241                                [q_norm = A(l_norm)/A(V)]

## (Re)Sampling Parameters
 3359.00                                 [l_ini (A)]
 6428.00                                 [l_fin (A)]
    1.00                                 [dl    (A)]     (OBS: dl_cushion =    50.00 A)

## Normalization info
 4020.00                                 [l_norm (A) - for base]
 4010.00                                 [llow_norm (A) - window for f_obs]
 4060.00                                 [lupp_norm (A) - window for f_obs]
1.611308E-14                             [fobs_norm (in input units)]

## S/N
 4730.00                                 [llow_SN (A) - window for S/N]
 4780.00                                 [lupp_SN (A) - window for S/N]
  60.034                                 [S/N in S/N window]
  49.598                                 [S/N in norm. window]
  73.857                                 [S/N_err in S/N window]
  61.019                                 [S/N_err in norm. window]
  1.0000                                 [fscale_chi2]

## etc...
  2147483591                             [idum_orig]
  3064                                   [NOl_eff]
  2026                                   [Nl_eff]
  1038    NSIGMA                         [Ntot_cliped & clip_method]
  2403450                                [Nglobal_steps]
   7                                     [N_chains]
  15                                     [NEX0s_base = N_base in EX0s-fits]
 0   0   1      173   2.0   7.713E+02    [Clip-Bug, RC-Crash & Burn-In warning-flags, n_censored_weights, wei_nsig_threshold & wei_limit]
    95     94.952     94.939      0.012  [idt_all, wdt_TotTime, wdt_UsrTime & wdt_SysTime (sec)]

## Synthesis Results - Best model ##

 2.21484E+00                             [chi2/Nl_eff]
     1.82523                             [adev (%)]

   101.36187                             [sum-of-x (%)]
 1.61045E-14                             [Flux_tot (units of input spectrum!)]
 5.03860E-10                             [Mini_tot (???)]
 2.55677E-10                             [Mcor_tot (???)]

  31.89                                  [v0_min  (km/s)]
  48.11                                  [vd_min  (km/s)]
-0.0105                                  [AV_min  (mag)]
 0.0000                                  [YAV_min (mag)]

# j     x_j(%)      Mini_j(%)     Mcor_j(%)     age_j(yr)     Z_j      (L/M)_j    YAV?  Mstars   component_j        a/Fe...       SSP_chi2r SSP_adev(%)   SSP_AV   SSP_x(%)
  1      0.0000     0.0000E+00    0.0000E+00    1.000000E+06  0.00010  8.160E-03    0   1.0000   age020_m22            0.0000     2.9018E+02    16.1875   4.0000    67.9875
  2      1.1609     7.6919E-04    1.5158E-03    3.160000E+06  0.00010  4.759E-02    0   1.0000   age045_m22            0.0000     6.1555E+01     8.7521   2.0701    91.3034
  3      0.0000     0.0000E+00    0.0000E+00    5.010000E+06  0.00010  1.932E-02    0   0.9582   age055_m22            0.0000     2.2146E+02    16.5645   2.6127    71.0860
  4      0.0000     0.0000E+00    0.0000E+00    6.610000E+06  0.00010  9.973E-03    0   0.9297   age061_m22            0.0000     2.7740E+02    15.8890   4.0000    70.0615
  5      0.0000     0.0000E+00    0.0000E+00    8.710000E+06  0.00010  7.690E-03    0   0.9030   age067_m22            0.0000     2.6280E+02    15.4891   4.0000    70.6327
  6      0.0000     0.0000E+00    0.0000E+00    1.000000E+07  0.00010  6.375E-03    0   0.8902   age070_m22            0.0000     2.5521E+02    15.2111   4.0000    71.0961
  7      0.0000     0.0000E+00    0.0000E+00    1.445000E+07  0.00010  4.874E-03    0   0.8589   age078_m22            0.0000     1.7580E+02    14.2401   4.0000    73.3349
  8      0.0000     0.0000E+00    0.0000E+00    2.512000E+07  0.00010  4.103E-03    0   0.8174   age090_m22            0.0000     9.7435E+01    11.3057   3.5314    82.5089
  9      0.0000     0.0000E+00    0.0000E+00    4.000000E+07  0.00010  3.654E-03    0   0.7830   age104_m22            0.0000     6.2881E+01     8.8179   3.0930    91.8401
 10      0.0000     0.0000E+00    0.0000E+00    5.500000E+07  0.00010  3.093E-03    0   0.7597   age110_m22            0.0000     5.8538E+01     7.9850   2.9439    95.0665
 11      0.0000     0.0000E+00    0.0000E+00    1.015200E+08  0.00010  2.431E-03    0   0.7138   age116_m22            0.0000     6.6302E+01     7.6586   2.5264   100.6072
 12      0.0000     0.0000E+00    0.0000E+00    1.609000E+08  0.00010  1.319E-03    0   0.6775   age120_m22            0.0000     5.9581E+01     7.3361   2.0673   102.3702
 13      0.0000     0.0000E+00    0.0000E+00    2.861200E+08  0.00010  1.075E-03    0   0.6412   age125_m22            0.0000     1.4609E+02     9.7896   1.9129   114.2847
 14      0.0000     0.0000E+00    0.0000E+00    5.088000E+08  0.00010  7.183E-04    0   0.6083   age130_m22            0.0000     1.8567E+02    11.1174   1.6147   118.6864
 15      0.0000     0.0000E+00    0.0000E+00    9.047900E+08  0.00010  4.524E-04    0   0.5785   age135_m22            0.0000     1.9136E+02    11.3042   1.4041   120.5099
 16      0.0000     0.0000E+00    0.0000E+00    1.278050E+09  0.00010  3.018E-04    0   0.5588   age138_m22            0.0000     8.3786E+01     7.7430   1.0281   112.4582
 17      0.0000     0.0000E+00    0.0000E+00    1.434000E+09  0.00010  2.691E-04    0   0.5532   age139_m22            0.0000     6.8135E+01     7.1212   0.9016   110.6948
 18      0.0000     0.0000E+00    0.0000E+00    2.500000E+09  0.00010  1.582E-04    0   0.5296   age150_m22            0.0000     6.0478E+01     6.9049   0.8135   110.4797
 19      0.0000     0.0000E+00    0.0000E+00    4.250000E+09  0.00010  1.007E-04    0   0.5110   age158_m22            0.0000     3.6142E+01     5.7506   0.7354   105.8375
 20      0.0000     0.0000E+00    0.0000E+00    6.250000E+09  0.00010  6.869E-05    0   0.4985   age166_m22            0.0000     2.5859E+01     5.1856   0.7528   100.1894
 21      0.0000     0.0000E+00    0.0000E+00    7.500000E+09  0.00010  5.873E-05    0   0.4931   age171_m22            0.0000     2.6854E+01     5.4023   0.7549    99.1117
 22      0.0000     0.0000E+00    0.0000E+00    1.000000E+10  0.00010  4.481E-05    0   0.4854   age181_m22            0.0000     2.6089E+01     5.3497   0.7176    98.7177
 23      0.0000     0.0000E+00    0.0000E+00    1.300000E+10  0.00010  3.489E-05    0   0.4791   age193_m22            0.0000     2.4745E+01     5.2308   0.6654    97.9953
 24      0.0001     5.7225E-05    5.3748E-05    1.500000E+10  0.00010  3.035E-05    0   0.4766   age201_m22            0.0000     2.4189E+01     5.2014   0.6303    97.6468
 25      0.0000     0.0000E+00    0.0000E+00    1.800000E+10  0.00010  2.510E-05    0   0.4735   age213_m22            0.0000     2.3608E+01     5.1905   0.5733    96.5910
 26      0.0000     0.0000E+00    0.0000E+00    1.000000E+06  0.00040  8.458E-03    0   1.0000   age020_m32            0.0000     2.9186E+02    16.2387   4.0000    68.6367
 27      0.0000     0.0000E+00    0.0000E+00    3.160000E+06  0.00040  3.973E-02    0   1.0000   age045_m32            0.0000     1.0888E+02    11.8632   3.4450    81.8300
 28      0.0000     0.0000E+00    0.0000E+00    5.010000E+06  0.00040  1.935E-02    0   0.9532   age055_m32            0.0000     1.9271E+02    15.5680   3.7894    72.6101
 29      0.0000     0.0000E+00    0.0000E+00    6.610000E+06  0.00040  1.204E-02    0   0.9243   age061_m32            0.0000     2.1472E+02    15.0153   4.0000    71.5136
 30      0.0000     0.0000E+00    0.0000E+00    8.710000E+06  0.00040  9.433E-03    0   0.9001   age067_m32            0.0000     1.9389E+02    14.7084   4.0000    72.4749
 31      0.0000     0.0000E+00    0.0000E+00    1.000000E+07  0.00040  8.053E-03    0   0.8877   age070_m32            0.0000     1.8522E+02    14.8069   4.0000    72.6982
 32      0.0000     0.0000E+00    0.0000E+00    1.445000E+07  0.00040  7.027E-03    0   0.8578   age078_m32            0.0000     1.2756E+02    12.8877   3.4345    79.6199
 33      0.0000     0.0000E+00    0.0000E+00    2.512000E+07  0.00040  4.707E-03    0   0.8166   age090_m32            0.0000     8.7248E+01    10.8391   3.0613    85.9037
 34      0.0000     0.0000E+00    0.0000E+00    4.000000E+07  0.00040  3.714E-03    0   0.7827   age104_m32            0.0000     6.2603E+01     8.9308   2.7598    92.5972
 35      0.0000     0.0000E+00    0.0000E+00    5.500000E+07  0.00040  2.982E-03    0   0.7593   age110_m32            0.0000     5.8874E+01     8.2822   2.6593    95.2036
 36      0.0000     0.0000E+00    0.0000E+00    1.015200E+08  0.00040  2.188E-03    0   0.7143   age116_m32            0.0000     8.1676E+01     7.8696   2.2359   105.3960
 37      0.0000     0.0000E+00    0.0000E+00    1.609000E+08  0.00040  1.690E-03    0   0.6856   age120_m32            0.0000     1.2314E+02     8.9933   1.9298   111.8858
 38      0.0000     0.0000E+00    0.0000E+00    2.861200E+08  0.00040  1.152E-03    0   0.6509   age125_m32            0.0000     1.5679E+02    10.0961   1.6399   116.4166
 39      0.0000     0.0000E+00    0.0000E+00    5.088000E+08  0.00040  7.331E-04    0   0.6182   age130_m32            0.0000     1.7396E+02    10.7422   1.4429   118.4942
 40      0.0000     0.0000E+00    0.0000E+00    9.047900E+08  0.00040  3.960E-04    0   0.5890   age135_m32            0.0000     8.5642E+01     7.8139   1.1108   112.1207
 41      0.0000     0.0000E+00    0.0000E+00    1.278050E+09  0.00040  2.854E-04    0   0.5687   age138_m32            0.0000     6.9947E+01     7.1763   0.8522   112.5884
 42      0.0000     0.0000E+00    0.0000E+00    1.434000E+09  0.00040  2.531E-04    0   0.5632   age139_m32            0.0000     6.8127E+01     7.1268   0.7924   112.4602
 43     33.3434     7.0659E+00    7.4999E+00    2.500000E+09  0.00040  1.488E-04    0   0.5386   age150_m32            0.0000     4.6707E+01     6.1341   0.5736   108.9997
 44      7.6390     2.6523E+00    2.7174E+00    4.250000E+09  0.00040  9.082E-05    0   0.5199   age158_m32            0.0000     2.1544E+01     4.6703   0.5917   101.0759
 45      0.0000     0.0000E+00    0.0000E+00    6.250000E+09  0.00040  6.362E-05    0   0.5076   age166_m32            0.0000     2.6619E+01     5.4595   0.6431    94.2427
 46      0.0000     0.0000E+00    0.0000E+00    7.500000E+09  0.00040  5.289E-05    0   0.5027   age171_m32            0.0000     2.8315E+01     5.5933   0.6221    92.4979
 47      2.9050     2.3062E+00    2.2488E+00    1.000000E+10  0.00040  3.972E-05    0   0.4948   age181_m32            0.0000     2.8444E+01     5.5161   0.5689    90.9482
 48      0.0000     0.0000E+00    0.0000E+00    1.300000E+10  0.00040  3.283E-05    0   0.4870   age193_m32            0.0000     1.9875E+01     4.6519   0.4764    95.3223
 49      0.0000     0.0000E+00    0.0000E+00    1.500000E+10  0.00040  2.925E-05    0   0.4854   age201_m32            0.0000     1.7719E+01     4.3814   0.4279    97.9793
 50      0.0004     5.2979E-04    5.0313E-04    1.800000E+10  0.00040  2.469E-05    0   0.4819   age213_m32            0.0000     1.7012E+01     4.2852   0.3737    98.9736
 51      0.0000     0.0000E+00    0.0000E+00    1.000000E+06  0.00400  1.114E-02    0   1.0000   age020_m42            0.0000     2.6363E+02    15.4363   4.0000    68.7590
 52      0.0000     0.0000E+00    0.0000E+00    3.160000E+06  0.00400  4.073E-02    0   0.9999   age045_m42            0.0000     8.1455E+01    10.1973   3.0912    85.9817
 53      0.0000     0.0000E+00    0.0000E+00    5.010000E+06  0.00400  2.534E-02    0   0.9488   age055_m42            0.0000     1.4372E+02    13.4437   3.6127    76.4609
 54      0.0000     0.0000E+00    0.0000E+00    6.610000E+06  0.00400  2.583E-02    0   0.9220   age061_m42            0.0000     6.7823E+01     9.4512   2.8589    88.6039
 55      0.0000     0.0000E+00    0.0000E+00    8.710000E+06  0.00400  1.706E-02    0   0.8983   age067_m42            0.0000     9.7204E+01    11.5139   2.7612    84.0072
 56      0.0000     0.0000E+00    0.0000E+00    1.000000E+07  0.00400  1.271E-02    0   0.8862   age070_m42            0.0000     1.2622E+02    13.1069   2.7923    80.9295
 57      0.0000     0.0000E+00    0.0000E+00    1.445000E+07  0.00400  7.666E-03    0   0.8571   age078_m42            0.0000     1.5593E+02    14.1641   3.2461    76.4609
 58      0.0000     0.0000E+00    0.0000E+00    2.512000E+07  0.00400  5.070E-03    0   0.8174   age090_m42            0.0000     1.1544E+02    12.4650   2.6534    82.6300
 59      0.0000     0.0000E+00    0.0000E+00    4.000000E+07  0.00400  3.505E-03    0   0.7851   age104_m42            0.0000     8.6444E+01    10.6124   2.3022    86.6121
 60      0.0000     0.0000E+00    0.0000E+00    5.500000E+07  0.00400  3.059E-03    0   0.7629   age110_m42            0.0000     4.8660E+01     7.3156   2.1989    97.0312
 61      0.0000     0.0000E+00    0.0000E+00    1.015200E+08  0.00400  2.268E-03    0   0.7207   age116_m42            0.0000     9.9956E+01     8.0612   1.8691   111.4651
 62      0.0000     0.0000E+00    0.0000E+00    1.609000E+08  0.00400  1.720E-03    0   0.6930   age120_m42            0.0000     1.1083E+02     8.3576   1.6927   114.5568
 63      0.0000     0.0000E+00    0.0000E+00    2.861200E+08  0.00400  1.079E-03    0   0.6613   age125_m42            0.0000     1.0182E+02     8.3144   1.3525   114.5068
 64      0.0000     0.0000E+00    0.0000E+00    5.088000E+08  0.00400  6.261E-04    0   0.6313   age130_m42            0.0000     1.2692E+02     9.1482   1.1072   119.6094
 65      0.0000     0.0000E+00    0.0000E+00    9.047900E+08  0.00400  3.535E-04    0   0.6024   age135_m42            0.0000     6.5568E+01     6.8441   0.7969   116.1049
 66      0.0000     0.0000E+00    0.0000E+00    1.278050E+09  0.00400  2.677E-04    0   0.5837   age138_m42            0.0000     1.2685E+01     3.5860   0.2322   108.3194
 67      0.0000     0.0000E+00    0.0000E+00    1.434000E+09  0.00400  1.910E-04    0   0.5716   age139_m42            0.0000     2.0963E+01     4.2426   0.3667   110.5982
 68      4.1568     1.3350E+00    1.4373E+00    2.500000E+09  0.00400  9.818E-05    0   0.5463   age150_m42            0.0000     3.3229E+00     1.8803   0.2213   100.9156
 69      0.0000     0.0000E+00    0.0000E+00    4.250000E+09  0.00400  5.491E-05    0   0.5269   age158_m42            0.0000     7.9897E+00     2.6600   0.1509    96.1590
 70      0.0000     0.0000E+00    0.0000E+00    6.250000E+09  0.00400  3.857E-05    0   0.5151   age166_m42            0.0000     1.1372E+01     3.0322   0.0401    94.3310
 71      0.0000     0.0000E+00    0.0000E+00    7.500000E+09  0.00400  3.243E-05    0   0.5110   age171_m42            0.0000     1.3513E+01     3.2431  -0.0339    93.6484
 72      5.8169     7.5670E+00    7.4978E+00    1.000000E+10  0.00400  2.424E-05    0   0.5028   age181_m42            0.0000     1.7951E+01     3.6393  -0.1057    92.7847
 73      0.0000     0.0000E+00    0.0000E+00    1.300000E+10  0.00400  1.883E-05    0   0.4927   age193_m42            0.0000     2.3651E+01     4.0730  -0.1360    92.1378
 74      0.0000     0.0000E+00    0.0000E+00    1.500000E+10  0.00400  1.685E-05    0   0.4919   age201_m42            0.0000     2.2771E+01     4.0371  -0.1316    92.1449
 75      0.0000     0.0000E+00    0.0000E+00    1.800000E+10  0.00400  1.452E-05    0   0.4874   age213_m42            0.0000     2.1349E+01     3.9700  -0.1181    92.4085
 76      0.0000     0.0000E+00    0.0000E+00    1.000000E+06  0.00800  1.286E-02    0   1.0000   age020_m52            0.0000     2.3764E+02    14.6104   4.0000    70.4384
 77      0.0000     0.0000E+00    0.0000E+00    3.160000E+06  0.00800  3.147E-02    0   0.9966   age045_m52            0.0000     2.1412E+02    14.6563   4.0000    71.2866
 78      0.0000     0.0000E+00    0.0000E+00    5.010000E+06  0.00800  2.664E-02    0   0.9443   age055_m52            0.0000     1.6368E+02    14.1289   3.7679    74.5410
 79      0.0000     0.0000E+00    0.0000E+00    6.610000E+06  0.00800  2.151E-02    0   0.9177   age061_m52            0.0000     1.1809E+02    12.1436   2.4109    81.6570
 80      0.0000     0.0000E+00    0.0000E+00    8.710000E+06  0.00800  1.628E-02    0   0.8948   age067_m52            0.0000     1.1243E+02    12.1247   2.7561    82.9903
 81      0.0000     0.0000E+00    0.0000E+00    1.000000E+07  0.00800  1.215E-02    0   0.8827   age070_m52            0.0000     1.3043E+02    12.9809   3.1237    80.4651
 82      0.0000     0.0000E+00    0.0000E+00    1.445000E+07  0.00800  8.739E-03    0   0.8552   age078_m52            0.0000     1.1148E+02    12.0593   3.1273    82.9727
 83      0.0000     0.0000E+00    0.0000E+00    2.512000E+07  0.00800  5.676E-03    0   0.8162   age090_m52            0.0000     7.8316E+01    10.2309   2.6237    90.9473
 84      0.0000     0.0000E+00    0.0000E+00    4.000000E+07  0.00800  3.939E-03    0   0.7841   age104_m52            0.0000     6.3087E+01     8.6040   2.3962    95.8035
 85      0.0000     0.0000E+00    0.0000E+00    5.500000E+07  0.00800  3.155E-03    0   0.7627   age110_m52            0.0000     5.8842E+01     7.6154   2.3076    99.8388
 86      0.0000     0.0000E+00    0.0000E+00    1.015200E+08  0.00800  2.206E-03    0   0.7226   age116_m52            0.0000     7.3809E+01     7.2810   1.9979   108.5966
 87      0.0000     0.0000E+00    0.0000E+00    1.609000E+08  0.00800  1.596E-03    0   0.6963   age120_m52            0.0000     8.4371E+01     7.6179   1.7390   112.0754
 88      0.0000     0.0000E+00    0.0000E+00    2.861200E+08  0.00800  1.002E-03    0   0.6665   age125_m52            0.0000     1.3102E+02     9.4936   1.3342   119.2899
 89      0.0000     0.0000E+00    0.0000E+00    5.088000E+08  0.00800  5.759E-04    0   0.6377   age130_m52            0.0000     1.4088E+02    10.1990   0.9468   125.0023
 90      0.0000     0.0000E+00    0.0000E+00    9.047900E+08  0.00800  2.972E-04    0   0.6086   age135_m52            0.0000     5.6357E+01     6.9660   0.5468   118.0702
 91      0.0000     0.0000E+00    0.0000E+00    1.278050E+09  0.00800  2.242E-04    0   0.5907   age138_m52            0.0000     1.1047E+01     3.4614   0.0665   110.9236
 92      0.0000     0.0000E+00    0.0000E+00    1.434000E+09  0.00800  1.645E-04    0   0.5787   age139_m52            0.0000     8.3261E+00     3.0492   0.2308   109.7141
 93      0.0000     0.0000E+00    0.0000E+00    2.500000E+09  0.00800  7.723E-05    0   0.5519   age150_m52            0.0000     5.7907E+00     2.3536  -0.0320   102.9376
 94      0.0000     0.0000E+00    0.0000E+00    4.250000E+09  0.00800  4.151E-05    0   0.5320   age158_m52            0.0000     8.0279E+00     2.6703  -0.0749    99.4214
 95      0.0000     0.0000E+00    0.0000E+00    6.250000E+09  0.00800  3.010E-05    0   0.5197   age166_m52            0.0000     1.4689E+01     3.4101  -0.2525    97.4962
 96      0.0005     6.5006E-04    6.5834E-04    7.500000E+09  0.00800  2.467E-05    0   0.5139   age171_m52            0.0000     1.6647E+01     3.5845  -0.2930    97.0823
 97     23.4090     3.9643E+01    3.9484E+01    1.000000E+10  0.00800  1.862E-05    0   0.5054   age181_m52            0.0000     2.2784E+01     4.1111  -0.4260    96.8398
