###################################################################
## OUTPUT of StarlightChains_v04.for    [Cid@UFSC - 01/Apr/2007] ##
###################################################################

## Some input info
NGC6553_a_1.cxt                          [arq_obs]
Base.BC03.S                              [arq_base]
NGC6553_a_1.msk                          [arq_masks]
StCv04.C99.config                        [arq_config]
  150                                    [N_base]
    0                                    [N_YAV_components = # of components with extra extinction!]
    0                                    [i_FitPowerLaw (1/0 = Yes/No)]
-9.99                                    [alpha_PowerLaw]
CCM                                      [red_law_option]
 1.458241                                [q_norm = A(l_norm)/A(V)]

## (Re)Sampling Parameters
 3359.00                                 [l_ini (A)]
 6428.00                                 [l_fin (A)]
    1.00                                 [dl    (A)]     (OBS: dl_cushion =    50.00 A)

## Normalization info
 4020.00                                 [l_norm (A) - for base]
 4010.00                                 [llow_norm (A) - window for f_obs]
 4060.00                                 [lupp_norm (A) - window for f_obs]
3.120735E-15                             [fobs_norm (in input units)]

## S/N
 4730.00                                 [llow_SN (A) - window for S/N]
 4780.00                                 [lupp_SN (A) - window for S/N]
  23.083                                 [S/N in S/N window]
  11.394                                 [S/N in norm. window]
 239.013                                 [S/N_err in S/N window]
 117.980                                 [S/N_err in norm. window]
  1.0000                                 [fscale_chi2]

## etc...
  2147483599                             [idum_orig]
  3063                                   [NOl_eff]
  1766                                   [Nl_eff]
  1297    NSIGMA                         [Ntot_cliped & clip_method]
  5389300                                [Nglobal_steps]
   7                                     [N_chains]
  35                                     [NEX0s_base = N_base in EX0s-fits]
 0   0   1       98   2.0   2.804E+02    [Clip-Bug, RC-Crash & Burn-In warning-flags, n_censored_weights, wei_nsig_threshold & wei_limit]
   234    234.017    234.001      0.016  [idt_all, wdt_TotTime, wdt_UsrTime & wdt_SysTime (sec)]

## Synthesis Results - Best model ##

 2.34300E+00                             [chi2/Nl_eff]
     2.18850                             [adev (%)]

    95.97547                             [sum-of-x (%)]
 8.70255E-14                             [Flux_tot (units of input spectrum!)]
 5.94401E-09                             [Mini_tot (???)]
 2.97416E-09                             [Mcor_tot (???)]

 -23.35                                  [v0_min  (km/s)]
   1.18                                  [vd_min  (km/s)]
 2.5086                                  [AV_min  (mag)]
 0.0000                                  [YAV_min (mag)]

# j     x_j(%)      Mini_j(%)     Mcor_j(%)     age_j(yr)     Z_j      (L/M)_j    YAV?  Mstars   component_j        a/Fe...       SSP_chi2r SSP_adev(%)   SSP_AV   SSP_x(%)
  1      0.7205     1.3469E-03    2.6919E-03    1.000000E+06  0.00010  8.160E-03    0   1.0000   age020_m22            0.0000     2.2478E+03    48.1747   4.0000   114.7616
  2      6.8707     2.2024E-03    4.4016E-03    3.160000E+06  0.00010  4.759E-02    0   1.0000   age045_m22            0.0000     1.5728E+02    10.0477   4.0000   102.9123
  3     20.4472     1.6145E-02    3.0917E-02    5.010000E+06  0.00010  1.932E-02    0   0.9582   age055_m22            0.0000     2.5046E+02    12.7880   4.0000    99.1850
  4      1.5184     2.3225E-03    4.3154E-03    6.610000E+06  0.00010  9.973E-03    0   0.9297   age061_m22            0.0000     2.2713E+03    47.4875   4.0000   118.3886
  5      1.9805     3.9287E-03    7.0901E-03    8.710000E+06  0.00010  7.690E-03    0   0.9030   age067_m22            0.0000     2.2379E+03    47.2875   4.0000   118.8120
  6      4.5043     1.0778E-02    1.9176E-02    1.000000E+07  0.00010  6.375E-03    0   0.8902   age070_m22            0.0000     2.2456E+03    47.4530   4.0000   119.0152
  7      2.2394     7.0089E-03    1.2031E-02    1.445000E+07  0.00010  4.874E-03    0   0.8589   age078_m22            0.0000     1.8508E+03    43.9616   4.0000   120.8755
  8      0.0000     0.0000E+00    0.0000E+00    2.512000E+07  0.00010  4.103E-03    0   0.8174   age090_m22            0.0000     1.1844E+03    36.0998   4.0000   122.9281
  9      0.0000     0.0000E+00    0.0000E+00    4.000000E+07  0.00010  3.654E-03    0   0.7830   age104_m22            0.0000     8.6594E+02    30.3125   4.0000   122.8232
 10      0.0000     0.0000E+00    0.0000E+00    5.500000E+07  0.00010  3.093E-03    0   0.7597   age110_m22            0.0000     7.6970E+02    28.3539   4.0000   122.3886
 11      0.0000     0.0000E+00    0.0000E+00    1.015200E+08  0.00010  2.431E-03    0   0.7138   age116_m22            0.0000     5.3063E+02    22.7667   4.0000   118.4586
 12      0.0000     0.0000E+00    0.0000E+00    1.609000E+08  0.00010  1.319E-03    0   0.6775   age120_m22            0.0000     2.9939E+02    15.8151   4.0000   110.2176
 13      0.0000     0.0000E+00    0.0000E+00    2.861200E+08  0.00010  1.075E-03    0   0.6412   age125_m22            0.0000     4.4832E+02    19.8026   4.0000   113.8967
 14      0.0000     0.0000E+00    0.0000E+00    5.088000E+08  0.00010  7.183E-04    0   0.6083   age130_m22            0.0000     4.2701E+02    17.7864   4.0000   109.6383
 15      0.0000     0.0000E+00    0.0000E+00    9.047900E+08  0.00010  4.524E-04    0   0.5785   age135_m22            0.0000     4.0516E+02    15.5921   4.0000   105.7869
 16      0.0000     0.0000E+00    0.0000E+00    1.278050E+09  0.00010  3.018E-04    0   0.5588   age138_m22            0.0000     2.7779E+02    12.2243   3.5506   103.0043
 17      0.0000     0.0000E+00    0.0000E+00    1.434000E+09  0.00010  2.691E-04    0   0.5532   age139_m22            0.0000     2.5350E+02    11.7969   3.3902   102.7274
 18      0.0000     0.0000E+00    0.0000E+00    2.500000E+09  0.00010  1.582E-04    0   0.5296   age150_m22            0.0000     2.4063E+02    11.3050   3.2728   103.9659
 19      0.0000     0.0000E+00    0.0000E+00    4.250000E+09  0.00010  1.007E-04    0   0.5110   age158_m22            0.0000     1.9348E+02    10.4770   3.0930   103.2862
 20      0.0000     0.0000E+00    0.0000E+00    6.250000E+09  0.00010  6.869E-05    0   0.4985   age166_m22            0.0000     1.5344E+02     9.6588   3.0037   101.6041
 21      0.0000     0.0000E+00    0.0000E+00    7.500000E+09  0.00010  5.873E-05    0   0.4931   age171_m22            0.0000     1.4824E+02     9.3413   2.9905   101.3195
 22      0.0000     0.0000E+00    0.0000E+00    1.000000E+10  0.00010  4.481E-05    0   0.4854   age181_m22            0.0000     1.4571E+02     9.3172   2.9521   100.9418
 23      0.0000     0.0000E+00    0.0000E+00    1.300000E+10  0.00010  3.489E-05    0   0.4791   age193_m22            0.0000     1.3987E+02     9.2728   2.8928   100.4198
 24      0.0000     0.0000E+00    0.0000E+00    1.500000E+10  0.00010  3.035E-05    0   0.4766   age201_m22            0.0000     1.3568E+02     9.1894   2.8521   100.3023
 25      0.0000     0.0000E+00    0.0000E+00    1.800000E+10  0.00010  2.510E-05    0   0.4735   age213_m22            0.0000     1.2655E+02     8.9785   2.7804    99.8452
 26      2.5998     4.6891E-03    9.3713E-03    1.000000E+06  0.00040  8.458E-03    0   1.0000   age020_m32            0.0000     2.2938E+03    48.3934   4.0000   115.7603
 27      0.0000     0.0000E+00    0.0000E+00    3.160000E+06  0.00040  3.973E-02    0   1.0000   age045_m32            0.0000     1.0562E+03    33.9810   4.0000   121.5772
 28      1.1133     8.7767E-04    1.6720E-03    5.010000E+06  0.00040  1.935E-02    0   0.9532   age055_m32            0.0000     1.4727E+03    38.7647   4.0000   118.7088
 29      0.3838     4.8626E-04    8.9825E-04    6.610000E+06  0.00040  1.204E-02    0   0.9243   age061_m32            0.0000     1.9713E+03    44.8122   4.0000   119.6300
 30      0.0000     0.0000E+00    0.0000E+00    8.710000E+06  0.00040  9.433E-03    0   0.9001   age067_m32            0.0000     1.8979E+03    44.2197   4.0000   120.3737
 31      0.0000     0.0000E+00    0.0000E+00    1.000000E+07  0.00040  8.053E-03    0   0.8877   age070_m32            0.0000     1.8268E+03    43.5268   4.0000   120.5708
 32      0.0000     0.0000E+00    0.0000E+00    1.445000E+07  0.00040  7.027E-03    0   0.8578   age078_m32            0.0000     1.0430E+03    33.3283   4.0000   119.8513
 33      0.0000     0.0000E+00    0.0000E+00    2.512000E+07  0.00040  4.707E-03    0   0.8166   age090_m32            0.0000     7.1046E+02    27.4440   4.0000   118.9062
 34      0.0000     0.0000E+00    0.0000E+00    4.000000E+07  0.00040  3.714E-03    0   0.7827   age104_m32            0.0000     5.5619E+02    23.5773   4.0000   118.0527
 35      0.0000     0.0000E+00    0.0000E+00    5.500000E+07  0.00040  2.982E-03    0   0.7593   age110_m32            0.0000     5.2341E+02    22.6801   4.0000   117.7451
 36      0.0000     0.0000E+00    0.0000E+00    1.015200E+08  0.00040  2.188E-03    0   0.7143   age116_m32            0.0000     4.3243E+02    20.3670   4.0000   115.4287
 37      0.0000     0.0000E+00    0.0000E+00    1.609000E+08  0.00040  1.690E-03    0   0.6856   age120_m32            0.0000     4.0423E+02    18.5933   4.0000   113.1696
 38      0.0000     0.0000E+00    0.0000E+00    2.861200E+08  0.00040  1.152E-03    0   0.6509   age125_m32            0.0000     3.9351E+02    16.8937   4.0000   108.9383
 39      0.0000     0.0000E+00    0.0000E+00    5.088000E+08  0.00040  7.331E-04    0   0.6182   age130_m32            0.0000     3.8783E+02    15.4491   4.0000   105.3314
 40      0.0000     0.0000E+00    0.0000E+00    9.047900E+08  0.00040  3.960E-04    0   0.5890   age135_m32            0.0000     2.8653E+02    13.0714   3.6209   102.2861
 41      0.0000     0.0000E+00    0.0000E+00    1.278050E+09  0.00040  2.854E-04    0   0.5687   age138_m32            0.0000     2.5668E+02    12.0007   3.3304   104.7610
 42      0.0000     0.0000E+00    0.0000E+00    1.434000E+09  0.00040  2.531E-04    0   0.5632   age139_m32            0.0000     2.5156E+02    11.7358   3.2764   104.6828
 43      0.0000     0.0000E+00    0.0000E+00    2.500000E+09  0.00040  1.488E-04    0   0.5386   age150_m32            0.0000     2.1308E+02    11.0955   3.0074   103.3687
 44      0.0000     0.0000E+00    0.0000E+00    4.250000E+09  0.00040  9.082E-05    0   0.5199   age158_m32            0.0000     1.4634E+02     9.6992   2.8713   101.5195
 45      0.0000     0.0000E+00    0.0000E+00    6.250000E+09  0.00040  6.362E-05    0   0.5076   age166_m32            0.0000     1.0516E+02     8.4300   2.7968    99.5948
 46      0.0000     0.0000E+00    0.0000E+00    7.500000E+09  0.00040  5.289E-05    0   0.5027   age171_m32            0.0000     9.7233E+01     8.3082   2.7525    98.5163
 47      0.0000     0.0000E+00    0.0000E+00    1.000000E+10  0.00040  3.972E-05    0   0.4948   age181_m32            0.0000     9.1633E+01     8.3462   2.6858    97.1434
 48      0.0000     0.0000E+00    0.0000E+00    1.300000E+10  0.00040  3.283E-05    0   0.4870   age193_m32            0.0000     1.0782E+02     8.8528   2.6630    99.1620
 49      0.0000     0.0000E+00    0.0000E+00    1.500000E+10  0.00040  2.925E-05    0   0.4854   age201_m32            0.0000     1.1960E+02     9.1446   2.6584   100.3042
 50      0.0000     0.0000E+00    0.0000E+00    1.800000E+10  0.00040  2.469E-05    0   0.4819   age213_m32            0.0000     1.2282E+02     9.1944   2.6260   100.6089
 51      2.1554     2.9515E-03    5.8987E-03    1.000000E+06  0.00400  1.114E-02    0   1.0000   age020_m42            0.0000     2.1355E+03    47.0559   4.0000   115.8461
 52      0.0000     0.0000E+00    0.0000E+00    3.160000E+06  0.00400  4.073E-02    0   0.9999   age045_m42            0.0000     6.9289E+02    27.7196   4.0000   119.0393
 53      0.4437     2.6712E-04    5.0651E-04    5.010000E+06  0.00400  2.534E-02    0   0.9488   age055_m42            0.0000     1.1891E+03    36.0900   4.0000   119.1456
 54      0.0000     0.0000E+00    0.0000E+00    6.610000E+06  0.00400  2.583E-02    0   0.9220   age061_m42            0.0000     5.5410E+02    24.3512   4.0000   116.3334
 55      0.0000     0.0000E+00    0.0000E+00    8.710000E+06  0.00400  1.706E-02    0   0.8983   age067_m42            0.0000     4.2491E+02    20.5757   4.0000   112.1990
 56      0.0000     0.0000E+00    0.0000E+00    1.000000E+07  0.00400  1.271E-02    0   0.8862   age070_m42            0.0000     4.2992E+02    20.0841   4.0000   111.3097
 57      0.0000     0.0000E+00    0.0000E+00    1.445000E+07  0.00400  7.666E-03    0   0.8571   age078_m42            0.0000     7.7095E+02    28.5218   4.0000   114.8667
 58      0.0000     0.0000E+00    0.0000E+00    2.512000E+07  0.00400  5.070E-03    0   0.8174   age090_m42            0.0000     3.2285E+02    17.2636   4.0000   110.4567
 59      0.0000     0.0000E+00    0.0000E+00    4.000000E+07  0.00400  3.505E-03    0   0.7851   age104_m42            0.0000     1.6135E+02    11.1680   4.0000   106.1004
 60      0.0000     0.0000E+00    0.0000E+00    5.500000E+07  0.00400  3.059E-03    0   0.7629   age110_m42            0.0000     2.4425E+02    14.4982   4.0000   110.4108
 61      0.0000     0.0000E+00    0.0000E+00    1.015200E+08  0.00400  2.268E-03    0   0.7207   age116_m42            0.0000     3.3879E+02    16.9930   4.0000   111.9531
 62      0.0000     0.0000E+00    0.0000E+00    1.609000E+08  0.00400  1.720E-03    0   0.6930   age120_m42            0.0000     3.2252E+02    15.7389   4.0000   109.6387
 63      0.0000     0.0000E+00    0.0000E+00    2.861200E+08  0.00400  1.079E-03    0   0.6613   age125_m42            0.0000     2.9848E+02    12.3616   3.9210   103.4513
 64      0.0000     0.0000E+00    0.0000E+00    5.088000E+08  0.00400  6.261E-04    0   0.6313   age130_m42            0.0000     3.2160E+02    12.8224   3.7296   106.1172
 65      0.0000     0.0000E+00    0.0000E+00    9.047900E+08  0.00400  3.535E-04    0   0.6024   age135_m42            0.0000     2.4164E+02    11.7610   3.3089   107.1764
 66      0.5112     2.9128E-02    3.3980E-02    1.278050E+09  0.00400  2.677E-04    0   0.5837   age138_m42            0.0000     1.3578E+02    10.4117   2.6201   104.7637
 67      0.0000     0.0000E+00    0.0000E+00    1.434000E+09  0.00400  1.910E-04    0   0.5716   age139_m42            0.0000     1.5728E+02    10.8589   2.7799   105.6481
 68      0.0002     3.1234E-05    3.4102E-05    2.500000E+09  0.00400  9.818E-05    0   0.5463   age150_m42            0.0000     9.4415E+01    10.0827   2.4634   102.0511
 69      0.0000     0.0000E+00    0.0000E+00    4.250000E+09  0.00400  5.491E-05    0   0.5269   age158_m42            0.0000     7.0816E+01     9.2331   2.3318    99.8324
 70      0.0026     1.0389E-03    1.0695E-03    6.250000E+09  0.00400  3.857E-05    0   0.5151   age166_m42            0.0000     6.8284E+01     9.4790   2.2011    98.4408
 71      0.0010     4.8420E-04    4.9449E-04    7.500000E+09  0.00400  3.243E-05    0   0.5110   age171_m42            0.0000     7.0536E+01     9.7011   2.1249    97.7501
 72      0.0000     0.0000E+00    0.0000E+00    1.000000E+10  0.00400  2.424E-05    0   0.5028   age181_m42            0.0000     7.4939E+01    10.0027   2.0473    96.9958
 73      0.9984     8.0885E-01    7.9646E-01    1.300000E+10  0.00400  1.883E-05    0   0.4927   age193_m42            0.0000     7.8161E+01    10.0849   2.0111    96.6387
 74      1.5533     1.4063E+00    1.3825E+00    1.500000E+10  0.00400  1.685E-05    0   0.4919   age201_m42            0.0000     7.6252E+01     9.8872   2.0193    96.6573
 75      0.0000     0.0000E+00    0.0000E+00    1.800000E+10  0.00400  1.452E-05    0   0.4874   age213_m42            0.0000     7.3252E+01     9.5563   2.0399    96.9423
 76      0.0000     0.0000E+00    0.0000E+00    1.000000E+06  0.00800  1.286E-02    0   1.0000   age020_m52            0.0000     2.0690E+03    46.4887   4.0000   117.8837
 77      0.0000     0.0000E+00    0.0000E+00    3.160000E+06  0.00800  3.147E-02    0   0.9966   age045_m52            0.0000     1.9403E+03    44.9628   4.0000   119.2432
 78      0.0000     0.0000E+00    0.0000E+00    5.010000E+06  0.00800  2.664E-02    0   0.9443   age055_m52            0.0000     1.3529E+03    38.5528   4.0000   119.7968
 79      0.0000     0.0000E+00    0.0000E+00    6.610000E+06  0.00800  2.151E-02    0   0.9177   age061_m52            0.0000     1.5439E+02    11.5620   4.0000   104.0350
 80      0.0000     0.0000E+00    0.0000E+00    8.710000E+06  0.00800  1.628E-02    0   0.8948   age067_m52            0.0000     3.8504E+02    19.5117   4.0000   112.3662
 81      0.0000     0.0000E+00    0.0000E+00    1.000000E+07  0.00800  1.215E-02    0   0.8827   age070_m52            0.0000     6.8426E+02    26.7148   4.0000   116.9189
 82      0.0000     0.0000E+00    0.0000E+00    1.445000E+07  0.00800  8.739E-03    0   0.8552   age078_m52            0.0000     7.2538E+02    27.6526   4.0000   118.6726
 83      0.0000     0.0000E+00    0.0000E+00    2.512000E+07  0.00800  5.676E-03    0   0.8162   age090_m52            0.0000     4.3624E+02    19.6550   4.0000   115.9707
 84      0.0000     0.0000E+00    0.0000E+00    4.000000E+07  0.00800  3.939E-03    0   0.7841   age104_m52            0.0000     3.5258E+02    17.1842   4.0000   114.3850
 85      0.0000     0.0000E+00    0.0000E+00    5.500000E+07  0.00800  3.155E-03    0   0.7627   age110_m52            0.0000     3.5513E+02    17.5927   4.0000   114.8103
 86      0.0000     0.0000E+00    0.0000E+00    1.015200E+08  0.00800  2.206E-03    0   0.7226   age116_m52            0.0000     3.2391E+02    16.9639   4.0000   113.4446
 87      0.0000     0.0000E+00    0.0000E+00    1.609000E+08  0.00800  1.596E-03    0   0.6963   age120_m52            0.0000     2.9646E+02    14.8793   4.0000   109.5918
 88      0.0000     0.0000E+00    0.0000E+00    2.861200E+08  0.00800  1.002E-03    0   0.6665   age125_m52            0.0000     3.2957E+02    13.3867   3.9667   105.0733
 89      0.0000     0.0000E+00    0.0000E+00    5.088000E+08  0.00800  5.759E-04    0   0.6377   age130_m52            0.0000     3.3200E+02    14.0226   3.6172   108.4309
 90      0.0000     0.0000E+00    0.0000E+00    9.047900E+08  0.00800  2.972E-04    0   0.6086   age135_m52            0.0000     2.3750E+02    13.4616   3.0481   107.6768
 91      0.2229     1.5169E-02    1.7908E-02    1.278050E+09  0.00800  2.242E-04    0   0.5907   age138_m52            0.0000     1.3664E+02    11.4711   2.4273   107.2593
 92      0.0023     2.0975E-04    2.4258E-04    1.434000E+09  0.00800  1.645E-04    0   0.5787   age139_m52            0.0000     1.2924E+02    11.1647   2.5625   107.1404
 93      0.0000     0.0000E+00    0.0000E+00    2.500000E+09  0.00800  7.723E-05    0   0.5519   age150_m52            0.0000     9.3011E+01    10.8925   2.1861   104.3135
 94      0.0000     0.0000E+00    0.0000E+00    4.250000E+09  0.00800  4.151E-05    0   0.5320   age158_m52            0.0000     8.3576E+01    10.8216   2.1020   102.1652
 95      0.1210     6.1332E-02    6.3702E-02    6.250000E+09  0.00800  3.010E-05    0   0.5197   age166_m52            0.0000     8.6919E+01    11.3719   1.9024   100.6991
 96      0.0132     8.1849E-03    8.4063E-03    7.500000E+09  0.00800  2.467E-05    0   0.5139   age171_m52            0.0000     8.9883E+01    11.5789   1.8604   100.2349
 97      6.0475     4.9546E+00    5.0044E+00    1.000000E+10  0.00800  1.862E-05    0   0.5054   age181_m52            0.0000     1.0275E+02    12.2756   1.7294    99.5965
