###################################################################
## OUTPUT of StarlightChains_v04.for    [Cid@UFSC - 01/Apr/2007] ##
###################################################################

## Some input info
NGC6388_a_1.cxt                          [arq_obs]
Base.BC03.S                              [arq_base]
NGC6388_a_1.msk                          [arq_masks]
StCv04.C99.config                        [arq_config]
  150                                    [N_base]
    0                                    [N_YAV_components = # of components with extra extinction!]
    0                                    [i_FitPowerLaw (1/0 = Yes/No)]
-9.99                                    [alpha_PowerLaw]
CCM                                      [red_law_option]
 1.458241                                [q_norm = A(l_norm)/A(V)]

## (Re)Sampling Parameters
 3359.00                                 [l_ini (A)]
 6428.00                                 [l_fin (A)]
    1.00                                 [dl    (A)]     (OBS: dl_cushion =    50.00 A)

## Normalization info
 4020.00                                 [l_norm (A) - for base]
 4010.00                                 [llow_norm (A) - window for f_obs]
 4060.00                                 [lupp_norm (A) - window for f_obs]
4.539934E-14                             [fobs_norm (in input units)]

## S/N
 4730.00                                 [llow_SN (A) - window for S/N]
 4780.00                                 [lupp_SN (A) - window for S/N]
  38.687                                 [S/N in S/N window]
  24.472                                 [S/N in norm. window]
 271.099                                 [S/N_err in S/N window]
 171.489                                 [S/N_err in norm. window]
  1.0000                                 [fscale_chi2]

## etc...
  2147483610                             [idum_orig]
  3066                                   [NOl_eff]
   678                                   [Nl_eff]
  2388    NSIGMA                         [Ntot_cliped & clip_method]
  3888850                                [Nglobal_steps]
   7                                     [N_chains]
  22                                     [NEX0s_base = N_base in EX0s-fits]
 0   0   1      207   2.0   3.751E+02    [Clip-Bug, RC-Crash & Burn-In warning-flags, n_censored_weights, wei_nsig_threshold & wei_limit]
   182    182.370    182.354      0.016  [idt_all, wdt_TotTime, wdt_UsrTime & wdt_SysTime (sec)]

## Synthesis Results - Best model ##

 2.58103E+00                             [chi2/Nl_eff]
     1.15608                             [adev (%)]

   100.88905                             [sum-of-x (%)]
 1.63255E-13                             [Flux_tot (units of input spectrum!)]
 9.05699E-09                             [Mini_tot (???)]
 4.55471E-09                             [Mcor_tot (???)]

 -13.32                                  [v0_min  (km/s)]
  44.47                                  [vd_min  (km/s)]
 0.9463                                  [AV_min  (mag)]
 0.0000                                  [YAV_min (mag)]

# j     x_j(%)      Mini_j(%)     Mcor_j(%)     age_j(yr)     Z_j      (L/M)_j    YAV?  Mstars   component_j        a/Fe...       SSP_chi2r SSP_adev(%)   SSP_AV   SSP_x(%)
  1      0.0000     0.0000E+00    0.0000E+00    1.000000E+06  0.00010  8.160E-03    0   1.0000   age020_m22            0.0000     4.2086E+03    37.8633   4.0000    97.3901
  2      5.1079     1.9176E-03    3.8132E-03    3.160000E+06  0.00010  4.759E-02    0   1.0000   age045_m22            0.0000     4.0883E+02    10.8453   3.0133    97.5171
  3      0.9348     8.6444E-04    1.6471E-03    5.010000E+06  0.00010  1.932E-02    0   0.9582   age055_m22            0.0000     1.1188E+03    19.6992   3.2335    86.1546
  4      0.0000     0.0000E+00    0.0000E+00    6.610000E+06  0.00010  9.973E-03    0   0.9297   age061_m22            0.0000     4.0010E+03    36.7490   4.0000   100.1582
  5      0.0000     0.0000E+00    0.0000E+00    8.710000E+06  0.00010  7.690E-03    0   0.9030   age067_m22            0.0000     3.9049E+03    36.3347   4.0000   100.5579
  6      0.0000     0.0000E+00    0.0000E+00    1.000000E+07  0.00010  6.375E-03    0   0.8902   age070_m22            0.0000     3.9399E+03    36.3387   4.0000   100.9228
  7      0.0000     0.0000E+00    0.0000E+00    1.445000E+07  0.00010  4.874E-03    0   0.8589   age078_m22            0.0000     2.7663E+03    31.3847   4.0000   101.5031
  8      0.0000     0.0000E+00    0.0000E+00    2.512000E+07  0.00010  4.103E-03    0   0.8174   age090_m22            0.0000     1.0790E+03    20.5210   4.0000   100.5109
  9      0.0000     0.0000E+00    0.0000E+00    4.000000E+07  0.00010  3.654E-03    0   0.7830   age104_m22            0.0000     6.2364E+02    13.9170   4.0000    98.2569
 10      0.0000     0.0000E+00    0.0000E+00    5.500000E+07  0.00010  3.093E-03    0   0.7597   age110_m22            0.0000     5.7282E+02    12.3537   4.0000    97.1322
 11      0.0000     0.0000E+00    0.0000E+00    1.015200E+08  0.00010  2.431E-03    0   0.7138   age116_m22            0.0000     6.1609E+02    11.9402   3.6813    99.3047
 12      0.0000     0.0000E+00    0.0000E+00    1.609000E+08  0.00010  1.319E-03    0   0.6775   age120_m22            0.0000     5.6382E+02    11.0926   3.2041   101.6148
 13      0.0000     0.0000E+00    0.0000E+00    2.861200E+08  0.00010  1.075E-03    0   0.6412   age125_m22            0.0000     8.7847E+02    13.6521   3.3194   103.8100
 14      0.0000     0.0000E+00    0.0000E+00    5.088000E+08  0.00010  7.183E-04    0   0.6083   age130_m22            0.0000     9.8334E+02    14.4928   3.0977   105.2327
 15      0.0000     0.0000E+00    0.0000E+00    9.047900E+08  0.00010  4.524E-04    0   0.5785   age135_m22            0.0000     9.8193E+02    14.4983   2.8936   106.4883
 16      0.0000     0.0000E+00    0.0000E+00    1.278050E+09  0.00010  3.018E-04    0   0.5588   age138_m22            0.0000     5.8833E+02    10.8624   2.3355   105.5569
 17      0.0000     0.0000E+00    0.0000E+00    1.434000E+09  0.00010  2.691E-04    0   0.5532   age139_m22            0.0000     5.1850E+02    10.1363   2.1760   105.1205
 18      0.0000     0.0000E+00    0.0000E+00    2.500000E+09  0.00010  1.582E-04    0   0.5296   age150_m22            0.0000     4.9385E+02     9.9580   2.0473   106.2796
 19      0.0000     0.0000E+00    0.0000E+00    4.250000E+09  0.00010  1.007E-04    0   0.5110   age158_m22            0.0000     3.7310E+02     8.4578   1.8855   104.7826
 20      0.0000     0.0000E+00    0.0000E+00    6.250000E+09  0.00010  6.869E-05    0   0.4985   age166_m22            0.0000     2.9507E+02     7.4979   1.8197   102.1702
 21      0.0000     0.0000E+00    0.0000E+00    7.500000E+09  0.00010  5.873E-05    0   0.4931   age171_m22            0.0000     2.9960E+02     7.6146   1.8011   101.7979
 22      0.0000     0.0000E+00    0.0000E+00    1.000000E+10  0.00010  4.481E-05    0   0.4854   age181_m22            0.0000     2.9116E+02     7.5170   1.7627   101.4299
 23      0.0000     0.0000E+00    0.0000E+00    1.300000E+10  0.00010  3.489E-05    0   0.4791   age193_m22            0.0000     2.7333E+02     7.2836   1.7074   100.8364
 24      0.0000     0.0000E+00    0.0000E+00    1.500000E+10  0.00010  3.035E-05    0   0.4766   age201_m22            0.0000     2.6441E+02     7.1849   1.6672   100.6869
 25      0.3101     2.2074E-01    2.0783E-01    1.800000E+10  0.00010  2.510E-05    0   0.4735   age213_m22            0.0000     2.4775E+02     7.0022   1.5973   100.1296
 26      0.0000     0.0000E+00    0.0000E+00    1.000000E+06  0.00040  8.458E-03    0   1.0000   age020_m32            0.0000     4.2883E+03    37.9471   4.0000    98.3423
 27      0.0000     0.0000E+00    0.0000E+00    3.160000E+06  0.00040  3.973E-02    0   1.0000   age045_m32            0.0000     8.8313E+02    18.6410   4.0000    98.0680
 28      0.0000     0.0000E+00    0.0000E+00    5.010000E+06  0.00040  1.935E-02    0   0.9532   age055_m32            0.0000     1.7374E+03    26.0625   4.0000    96.6552
 29      0.0000     0.0000E+00    0.0000E+00    6.610000E+06  0.00040  1.204E-02    0   0.9243   age061_m32            0.0000     3.0822E+03    33.0775   4.0000   100.3854
 30      0.0000     0.0000E+00    0.0000E+00    8.710000E+06  0.00040  9.433E-03    0   0.9001   age067_m32            0.0000     2.8699E+03    32.0481   4.0000   100.9771
 31      0.0000     0.0000E+00    0.0000E+00    1.000000E+07  0.00040  8.053E-03    0   0.8877   age070_m32            0.0000     2.6695E+03    31.1023   4.0000   100.8901
 32      0.0000     0.0000E+00    0.0000E+00    1.445000E+07  0.00040  7.027E-03    0   0.8578   age078_m32            0.0000     9.1360E+02    19.0947   4.0000    95.5302
 33      0.0000     0.0000E+00    0.0000E+00    2.512000E+07  0.00040  4.707E-03    0   0.8166   age090_m32            0.0000     6.4351E+02    14.8667   3.9246    94.0036
 34      0.0000     0.0000E+00    0.0000E+00    4.000000E+07  0.00040  3.714E-03    0   0.7827   age104_m32            0.0000     5.7805E+02    13.0009   3.7451    96.9150
 35      0.0000     0.0000E+00    0.0000E+00    5.500000E+07  0.00040  2.982E-03    0   0.7593   age110_m32            0.0000     5.7352E+02    12.4034   3.6949    97.8349
 36      0.0000     0.0000E+00    0.0000E+00    1.015200E+08  0.00040  2.188E-03    0   0.7143   age116_m32            0.0000     6.6539E+02    12.0168   3.4701   101.2196
 37      0.0000     0.0000E+00    0.0000E+00    1.609000E+08  0.00040  1.690E-03    0   0.6856   age120_m32            0.0000     7.8858E+02    12.9940   3.2838   103.5117
 38      0.0000     0.0000E+00    0.0000E+00    2.861200E+08  0.00040  1.152E-03    0   0.6509   age125_m32            0.0000     8.8957E+02    13.7533   3.0758   104.8315
 39      0.0000     0.0000E+00    0.0000E+00    5.088000E+08  0.00040  7.331E-04    0   0.6182   age130_m32            0.0000     9.2340E+02    13.9727   2.9156   105.4160
 40      0.0000     0.0000E+00    0.0000E+00    9.047900E+08  0.00040  3.960E-04    0   0.5890   age135_m32            0.0000     5.9569E+02    10.9686   2.4383   104.4905
 41      0.0000     0.0000E+00    0.0000E+00    1.278050E+09  0.00040  2.854E-04    0   0.5687   age138_m32            0.0000     5.2257E+02    10.2898   2.1204   107.0103
 42      0.0000     0.0000E+00    0.0000E+00    1.434000E+09  0.00040  2.531E-04    0   0.5632   age139_m32            0.0000     5.1267E+02    10.2145   2.0577   107.0622
 43      0.0000     0.0000E+00    0.0000E+00    2.500000E+09  0.00040  1.488E-04    0   0.5386   age150_m32            0.0000     4.0397E+02     9.0071   1.8028   105.2576
 44      1.0890     2.1424E-01    2.2149E-01    4.250000E+09  0.00040  9.082E-05    0   0.5199   age158_m32            0.0000     2.5486E+02     6.8570   1.6887   102.2904
 45     18.1491     5.0968E+00    5.1445E+00    6.250000E+09  0.00040  6.362E-05    0   0.5076   age166_m32            0.0000     2.2231E+02     6.5967   1.6289    99.3430
 46     12.2299     4.1313E+00    4.1297E+00    7.500000E+09  0.00040  5.289E-05    0   0.5027   age171_m32            0.0000     2.0930E+02     6.5334   1.5927    98.0714
 47     10.9112     4.9080E+00    4.8290E+00    1.000000E+10  0.00040  3.972E-05    0   0.4948   age181_m32            0.0000     1.9085E+02     6.3682   1.5324    96.6690
 48      0.0079     4.2833E-03    4.1479E-03    1.300000E+10  0.00040  3.283E-05    0   0.4870   age193_m32            0.0000     1.8634E+02     6.0271   1.4982    99.2466
 49      0.0000     0.0000E+00    0.0000E+00    1.500000E+10  0.00040  2.925E-05    0   0.4854   age201_m32            0.0000     1.9549E+02     6.0590   1.4849   100.7597
 50      0.0000     0.0000E+00    0.0000E+00    1.800000E+10  0.00040  2.469E-05    0   0.4819   age213_m32            0.0000     1.9523E+02     6.0544   1.4479   101.2527
 51      0.0000     0.0000E+00    0.0000E+00    1.000000E+06  0.00400  1.114E-02    0   1.0000   age020_m42            0.0000     3.8161E+03    36.2169   4.0000    97.9309
 52      0.0000     0.0000E+00    0.0000E+00    3.160000E+06  0.00400  4.073E-02    0   0.9999   age045_m42            0.0000     4.9618E+02    12.9169   3.9918    93.3808
 53      0.0000     0.0000E+00    0.0000E+00    5.010000E+06  0.00400  2.534E-02    0   0.9488   age055_m42            0.0000     1.1795E+03    21.8988   4.0000    96.5822
 54      0.0000     0.0000E+00    0.0000E+00    6.610000E+06  0.00400  2.583E-02    0   0.9220   age061_m42            0.0000     5.0762E+02    12.7595   3.8086    94.3483
 55      0.0000     0.0000E+00    0.0000E+00    8.710000E+06  0.00400  1.706E-02    0   0.8983   age067_m42            0.0000     6.3043E+02    15.1251   3.5994    93.3634
 56      0.0000     0.0000E+00    0.0000E+00    1.000000E+07  0.00400  1.271E-02    0   0.8862   age070_m42            0.0000     7.8542E+02    17.2113   3.5683    92.3412
 57      0.0000     0.0000E+00    0.0000E+00    1.445000E+07  0.00400  7.666E-03    0   0.8571   age078_m42            0.0000     8.7238E+02    18.3845   3.9630    89.0839
 58      0.0000     0.0000E+00    0.0000E+00    2.512000E+07  0.00400  5.070E-03    0   0.8174   age090_m42            0.0000     7.0281E+02    16.4599   3.4450    93.9388
 59      0.0000     0.0000E+00    0.0000E+00    4.000000E+07  0.00400  3.505E-03    0   0.7851   age104_m42            0.0000     5.1492E+02    14.1487   3.1456    96.6451
 60      0.0000     0.0000E+00    0.0000E+00    5.500000E+07  0.00400  3.059E-03    0   0.7629   age110_m42            0.0000     4.3402E+02    10.9686   3.2431   100.2972
 61      0.0000     0.0000E+00    0.0000E+00    1.015200E+08  0.00400  2.268E-03    0   0.7207   age116_m42            0.0000     6.6373E+02    11.8135   3.2001   104.2503
 62      0.0000     0.0000E+00    0.0000E+00    1.609000E+08  0.00400  1.720E-03    0   0.6930   age120_m42            0.0000     6.8120E+02    11.9057   3.0758   105.3614
 63      0.0000     0.0000E+00    0.0000E+00    2.861200E+08  0.00400  1.079E-03    0   0.6613   age125_m42            0.0000     6.4910E+02    11.5736   2.7118   106.1670
 64      0.0000     0.0000E+00    0.0000E+00    5.088000E+08  0.00400  6.261E-04    0   0.6313   age130_m42            0.0000     7.1711E+02    12.3665   2.5114   109.3153
 65      0.0000     0.0000E+00    0.0000E+00    9.047900E+08  0.00400  3.535E-04    0   0.6024   age135_m42            0.0000     4.6175E+02     9.6821   2.1020   109.8707
 66      0.0000     0.0000E+00    0.0000E+00    1.278050E+09  0.00400  2.677E-04    0   0.5837   age138_m42            0.0000     1.4280E+02     5.5386   1.4406   106.9509
 67      0.0000     0.0000E+00    0.0000E+00    1.434000E+09  0.00400  1.910E-04    0   0.5716   age139_m42            0.0000     2.0367E+02     6.1657   1.6091   107.7130
 68      0.0000     0.0000E+00    0.0000E+00    2.500000E+09  0.00400  9.818E-05    0   0.5463   age150_m42            0.0000     4.9108E+01     2.8274   1.3460   102.7067
 69      0.0000     0.0000E+00    0.0000E+00    4.250000E+09  0.00400  5.491E-05    0   0.5269   age158_m42            0.0000     2.1693E+01     2.2120   1.2187   100.1327
 70      0.0000     0.0000E+00    0.0000E+00    6.250000E+09  0.00400  3.857E-05    0   0.5151   age166_m42            0.0000     1.8114E+01     2.2437   1.1044    98.5950
 71      0.0000     0.0000E+00    0.0000E+00    7.500000E+09  0.00400  3.243E-05    0   0.5110   age171_m42            0.0000     2.2670E+01     2.4878   1.0349    97.8943
 72      0.0000     0.0000E+00    0.0000E+00    1.000000E+10  0.00400  2.424E-05    0   0.5028   age181_m42            0.0000     3.4815E+01     3.0152   0.9643    97.1198
 73      0.0000     0.0000E+00    0.0000E+00    1.300000E+10  0.00400  1.883E-05    0   0.4927   age193_m42            0.0000     4.9165E+01     3.5977   0.9276    96.7890
 74      0.0000     0.0000E+00    0.0000E+00    1.500000E+10  0.00400  1.685E-05    0   0.4919   age201_m42            0.0000     4.6338E+01     3.4634   0.9322    96.8497
 75      0.0000     0.0000E+00    0.0000E+00    1.800000E+10  0.00400  1.452E-05    0   0.4874   age213_m42            0.0000     4.1780E+01     3.2474   0.9460    97.2002
 76      0.0000     0.0000E+00    0.0000E+00    1.000000E+06  0.00800  1.286E-02    0   1.0000   age020_m52            0.0000     3.5886E+03    35.0686   4.0000    99.6773
 77      0.0000     0.0000E+00    0.0000E+00    3.160000E+06  0.00800  3.147E-02    0   0.9966   age045_m52            0.0000     3.1138E+03    33.2040   4.0000   100.2156
 78      0.0000     0.0000E+00    0.0000E+00    5.010000E+06  0.00800  2.664E-02    0   0.9443   age055_m52            0.0000     1.5756E+03    25.0484   4.0000    98.1046
 79      0.0000     0.0000E+00    0.0000E+00    6.610000E+06  0.00800  2.151E-02    0   0.9177   age061_m52            0.0000     5.9485E+02    15.2048   3.1716    93.7773
 80      0.0000     0.0000E+00    0.0000E+00    8.710000E+06  0.00800  1.628E-02    0   0.8948   age067_m52            0.0000     6.6388E+02    15.9170   3.5528    94.0252
 81      0.0000     0.0000E+00    0.0000E+00    1.000000E+07  0.00800  1.215E-02    0   0.8827   age070_m52            0.0000     7.5093E+02    17.0145   3.8936    92.1436
 82      0.0000     0.0000E+00    0.0000E+00    1.445000E+07  0.00800  8.739E-03    0   0.8552   age078_m52            0.0000     6.9089E+02    16.0700   3.9438    93.2542
 83      0.0000     0.0000E+00    0.0000E+00    2.512000E+07  0.00800  5.676E-03    0   0.8162   age090_m52            0.0000     6.0960E+02    13.9942   3.5647    97.7758
 84      0.0000     0.0000E+00    0.0000E+00    4.000000E+07  0.00800  3.939E-03    0   0.7841   age104_m52            0.0000     5.4194E+02    12.2840   3.4199    99.7966
 85      0.0000     0.0000E+00    0.0000E+00    5.500000E+07  0.00800  3.155E-03    0   0.7627   age110_m52            0.0000     5.3973E+02    11.3868   3.3998   101.1792
 86      0.0000     0.0000E+00    0.0000E+00    1.015200E+08  0.00800  2.206E-03    0   0.7226   age116_m52            0.0000     5.8682E+02    10.9647   3.2417   104.3680
 87      0.0000     0.0000E+00    0.0000E+00    1.609000E+08  0.00800  1.596E-03    0   0.6963   age120_m52            0.0000     6.1394E+02    11.1331   3.0374   105.8538
 88      0.0000     0.0000E+00    0.0000E+00    2.861200E+08  0.00800  1.002E-03    0   0.6665   age125_m52            0.0000     7.3642E+02    12.4660   2.7717   107.9813
 89      0.0000     0.0000E+00    0.0000E+00    5.088000E+08  0.00800  5.759E-04    0   0.6377   age130_m52            0.0000     7.2893E+02    12.1708   2.4419   111.5399
 90      0.0000     0.0000E+00    0.0000E+00    9.047900E+08  0.00800  2.972E-04    0   0.6086   age135_m52            0.0000     4.0603E+02     8.5365   1.9194   109.7943
 91      0.0000     0.0000E+00    0.0000E+00    1.278050E+09  0.00800  2.242E-04    0   0.5907   age138_m52            0.0000     1.1831E+02     4.6988   1.2980   108.8488
 92      0.0000     0.0000E+00    0.0000E+00    1.434000E+09  0.00800  1.645E-04    0   0.5787   age139_m52            0.0000     1.0795E+02     4.3180   1.4383   108.3933
 93      0.0028     6.4891E-04    7.1215E-04    2.500000E+09  0.00800  7.723E-05    0   0.5519   age150_m52            0.0000     2.9646E+01     2.7822   1.1100   104.4393
 94      0.0000     0.0000E+00    0.0000E+00    4.250000E+09  0.00800  4.151E-05    0   0.5320   age158_m52            0.0000     1.9472E+01     2.6361   1.0423   101.8645
 95      3.3723     2.0017E+00    2.0686E+00    6.250000E+09  0.00800  3.010E-05    0   0.5197   age166_m52            0.0000     3.4675E+01     3.4373   0.8655   100.1805
 96      3.3341     2.4146E+00    2.4675E+00    7.500000E+09  0.00800  2.467E-05    0   0.5139   age171_m52            0.0000     4.2510E+01     3.7427   0.8280    99.7094
 97      1.3019     1.2492E+00    1.2554E+00    1.000000E+10  0.00800  1.862E-05    0   0.5054   age181_m52            0.0000     7.4986E+01     4.7791   0.7134    99.0186
