###################################################################
## OUTPUT of StarlightChains_v04.for    [Cid@UFSC - 01/Apr/2007] ##
###################################################################

## Some input info
NGC6235_a_1.cxt                          [arq_obs]
Base.BC03.S                              [arq_base]
NGC6235_a_1.msk                          [arq_masks]
StCv04.C99.config                        [arq_config]
  150                                    [N_base]
    0                                    [N_YAV_components = # of components with extra extinction!]
    0                                    [i_FitPowerLaw (1/0 = Yes/No)]
-9.99                                    [alpha_PowerLaw]
CCM                                      [red_law_option]
 1.458241                                [q_norm = A(l_norm)/A(V)]

## (Re)Sampling Parameters
 3359.00                                 [l_ini (A)]
 6428.00                                 [l_fin (A)]
    1.00                                 [dl    (A)]     (OBS: dl_cushion =    50.00 A)

## Normalization info
 4020.00                                 [l_norm (A) - for base]
 4010.00                                 [llow_norm (A) - window for f_obs]
 4060.00                                 [lupp_norm (A) - window for f_obs]
2.685576E-15                             [fobs_norm (in input units)]

## S/N
 4730.00                                 [llow_SN (A) - window for S/N]
 4780.00                                 [lupp_SN (A) - window for S/N]
  64.240                                 [S/N in S/N window]
  49.525                                 [S/N in norm. window]
 131.570                                 [S/N_err in S/N window]
 101.432                                 [S/N_err in norm. window]
  1.0000                                 [fscale_chi2]

## etc...
  2147483624                             [idum_orig]
  3063                                   [NOl_eff]
  1579                                   [Nl_eff]
  1484    NSIGMA                         [Ntot_cliped & clip_method]
  4118520                                [Nglobal_steps]
   7                                     [N_chains]
  21                                     [NEX0s_base = N_base in EX0s-fits]
 0   0   1      144   2.0   2.369E+02    [Clip-Bug, RC-Crash & Burn-In warning-flags, n_censored_weights, wei_nsig_threshold & wei_limit]
   168    168.631    168.619      0.012  [idt_all, wdt_TotTime, wdt_UsrTime & wdt_SysTime (sec)]

## Synthesis Results - Best model ##

 2.33600E+00                             [chi2/Nl_eff]
     1.40663                             [adev (%)]

    97.93935                             [sum-of-x (%)]
 1.04345E-14                             [Flux_tot (units of input spectrum!)]
 2.62954E-10                             [Mini_tot (???)]
 1.32825E-10                             [Mcor_tot (???)]

 -13.75                                  [v0_min  (km/s)]
 105.70                                  [vd_min  (km/s)]
 1.0260                                  [AV_min  (mag)]
 0.0000                                  [YAV_min (mag)]

# j     x_j(%)      Mini_j(%)     Mcor_j(%)     age_j(yr)     Z_j      (L/M)_j    YAV?  Mstars   component_j        a/Fe...       SSP_chi2r SSP_adev(%)   SSP_AV   SSP_x(%)
  1      0.0000     0.0000E+00    0.0000E+00    1.000000E+06  0.00010  8.160E-03    0   1.0000   age020_m22            0.0000     2.8264E+02    13.9411   4.0000    89.4099
  2      3.0253     2.5757E-03    5.0990E-03    3.160000E+06  0.00010  4.759E-02    0   1.0000   age045_m22            0.0000     3.0836E+01     4.6482   2.5145    95.6571
  3      0.0000     0.0000E+00    0.0000E+00    5.010000E+06  0.00010  1.932E-02    0   0.9582   age055_m22            0.0000     1.5175E+02    10.6333   2.6872    86.2684
  4      0.0000     0.0000E+00    0.0000E+00    6.610000E+06  0.00010  9.973E-03    0   0.9297   age061_m22            0.0000     2.5875E+02    13.2457   4.0000    91.6355
  5      0.0000     0.0000E+00    0.0000E+00    8.710000E+06  0.00010  7.690E-03    0   0.9030   age067_m22            0.0000     2.4766E+02    12.9607   4.0000    91.8788
  6      0.0000     0.0000E+00    0.0000E+00    1.000000E+07  0.00010  6.375E-03    0   0.8902   age070_m22            0.0000     2.4881E+02    12.9302   4.0000    92.3720
  7      0.0000     0.0000E+00    0.0000E+00    1.445000E+07  0.00010  4.874E-03    0   0.8589   age078_m22            0.0000     1.4681E+02    10.2947   4.0000    90.6337
  8      0.0000     0.0000E+00    0.0000E+00    2.512000E+07  0.00010  4.103E-03    0   0.8174   age090_m22            0.0000     6.5671E+01     7.1047   3.8552    89.9153
  9      0.6597     7.3148E-03    1.1339E-02    4.000000E+07  0.00010  3.654E-03    0   0.7830   age104_m22            0.0000     4.7108E+01     5.2432   3.6127    93.1733
 10      0.6827     8.9434E-03    1.3451E-02    5.500000E+07  0.00010  3.093E-03    0   0.7597   age110_m22            0.0000     4.2560E+01     4.6351   3.5322    94.1315
 11      0.0000     0.0000E+00    0.0000E+00    1.015200E+08  0.00010  2.431E-03    0   0.7138   age116_m22            0.0000     4.4535E+01     4.2908   3.2084    96.4616
 12      0.0000     0.0000E+00    0.0000E+00    1.609000E+08  0.00010  1.319E-03    0   0.6775   age120_m22            0.0000     4.0693E+01     3.9445   2.7361    98.6428
 13      0.0000     0.0000E+00    0.0000E+00    2.861200E+08  0.00010  1.075E-03    0   0.6412   age125_m22            0.0000     9.2500E+01     5.7373   2.8708   100.0470
 14      0.0000     0.0000E+00    0.0000E+00    5.088000E+08  0.00010  7.183E-04    0   0.6083   age130_m22            0.0000     1.1506E+02     6.5915   2.6630   101.0388
 15      0.0000     0.0000E+00    0.0000E+00    9.047900E+08  0.00010  4.524E-04    0   0.5785   age135_m22            0.0000     1.1635E+02     6.7279   2.4679   102.0672
 16      0.0000     0.0000E+00    0.0000E+00    1.278050E+09  0.00010  3.018E-04    0   0.5588   age138_m22            0.0000     5.2256E+01     4.5134   1.9010   101.3218
 17      0.0000     0.0000E+00    0.0000E+00    1.434000E+09  0.00010  2.691E-04    0   0.5532   age139_m22            0.0000     4.1740E+01     4.0808   1.7390   100.9238
 18      0.0000     0.0000E+00    0.0000E+00    2.500000E+09  0.00010  1.582E-04    0   0.5296   age150_m22            0.0000     3.5003E+01     3.7761   1.6077   102.1923
 19      0.0000     0.0000E+00    0.0000E+00    4.250000E+09  0.00010  1.007E-04    0   0.5110   age158_m22            0.0000     1.8328E+01     2.8181   1.4355   101.0717
 20      0.0000     0.0000E+00    0.0000E+00    6.250000E+09  0.00010  6.869E-05    0   0.4985   age166_m22            0.0000     9.2776E+00     2.1332   1.3542    98.9552
 21      0.0271     1.8697E-02    1.8251E-02    7.500000E+09  0.00010  5.873E-05    0   0.4931   age171_m22            0.0000     9.3145E+00     2.1722   1.3333    98.6807
 22      0.0000     0.0000E+00    0.0000E+00    1.000000E+10  0.00010  4.481E-05    0   0.4854   age181_m22            0.0000     8.7787E+00     2.1209   1.2958    98.2971
 23      0.0002     1.9733E-04    1.8716E-04    1.300000E+10  0.00010  3.489E-05    0   0.4791   age193_m22            0.0000     7.6659E+00     2.0043   1.2401    97.7161
 24      0.0027     3.5602E-03    3.3591E-03    1.500000E+10  0.00010  3.035E-05    0   0.4766   age201_m22            0.0000     7.1115E+00     1.9533   1.2003    97.5491
 25      0.0000     0.0000E+00    0.0000E+00    1.800000E+10  0.00010  2.510E-05    0   0.4735   age213_m22            0.0000     6.1925E+00     1.8834   1.1292    97.0170
 26      0.0000     0.0000E+00    0.0000E+00    1.000000E+06  0.00040  8.458E-03    0   1.0000   age020_m32            0.0000     2.8762E+02    13.9537   4.0000    90.5213
 27      0.0000     0.0000E+00    0.0000E+00    3.160000E+06  0.00040  3.973E-02    0   1.0000   age045_m32            0.0000     7.2972E+01     7.4810   3.7451    90.1055
 28      0.0000     0.0000E+00    0.0000E+00    5.010000E+06  0.00040  1.935E-02    0   0.9532   age055_m32            0.0000     1.3687E+02    10.2493   3.9091    85.9442
 29      0.0000     0.0000E+00    0.0000E+00    6.610000E+06  0.00040  1.204E-02    0   0.9243   age061_m32            0.0000     1.8099E+02    11.3265   4.0000    90.0504
 30      0.0000     0.0000E+00    0.0000E+00    8.710000E+06  0.00040  9.433E-03    0   0.9001   age067_m32            0.0000     1.6209E+02    10.7808   4.0000    90.2186
 31      0.0000     0.0000E+00    0.0000E+00    1.000000E+07  0.00040  8.053E-03    0   0.8877   age070_m32            0.0000     1.4804E+02    10.3868   4.0000    89.7316
 32      0.0000     0.0000E+00    0.0000E+00    1.445000E+07  0.00040  7.027E-03    0   0.8578   age078_m32            0.0000     8.9010E+01     8.3076   3.6784    89.5540
 33      0.0000     0.0000E+00    0.0000E+00    2.512000E+07  0.00040  4.707E-03    0   0.8166   age090_m32            0.0000     5.8873E+01     6.6359   3.4176    92.6132
 34      0.0000     0.0000E+00    0.0000E+00    4.000000E+07  0.00040  3.714E-03    0   0.7827   age104_m32            0.0000     4.3261E+01     5.1259   3.2550    94.8479
 35      0.0000     0.0000E+00    0.0000E+00    5.500000E+07  0.00040  2.982E-03    0   0.7593   age110_m32            0.0000     4.0705E+01     4.6744   3.2121    95.5046
 36      0.0000     0.0000E+00    0.0000E+00    1.015200E+08  0.00040  2.188E-03    0   0.7143   age116_m32            0.0000     5.2369E+01     4.3451   3.0108    97.9598
 37      0.0000     0.0000E+00    0.0000E+00    1.609000E+08  0.00040  1.690E-03    0   0.6856   age120_m32            0.0000     7.0638E+01     4.9565   2.8256    99.9576
 38      0.0000     0.0000E+00    0.0000E+00    2.861200E+08  0.00040  1.152E-03    0   0.6509   age125_m32            0.0000     9.6019E+01     5.9285   2.6319   100.8870
 39      0.0000     0.0000E+00    0.0000E+00    5.088000E+08  0.00040  7.331E-04    0   0.6182   age130_m32            0.0000     1.0610E+02     6.3759   2.4848   101.1202
 40      0.0000     0.0000E+00    0.0000E+00    9.047900E+08  0.00040  3.960E-04    0   0.5890   age135_m32            0.0000     5.7215E+01     4.8120   2.0089   100.1327
 41      0.0000     0.0000E+00    0.0000E+00    1.278050E+09  0.00040  2.854E-04    0   0.5687   age138_m32            0.0000     4.1043E+01     4.1007   1.6868   102.7943
 42      0.0000     0.0000E+00    0.0000E+00    1.434000E+09  0.00040  2.531E-04    0   0.5632   age139_m32            0.0000     3.9096E+01     4.0041   1.6229   102.8265
 43      4.1063     1.1181E+00    1.1922E+00    2.500000E+09  0.00040  1.488E-04    0   0.5386   age150_m32            0.0000     2.4562E+01     3.2400   1.3593   101.1953
 44     41.4813     1.8506E+01    1.9047E+01    4.250000E+09  0.00040  9.082E-05    0   0.5199   age158_m32            0.0000     6.9501E+00     1.8624   1.2283    98.7927
 45     31.4991     2.0060E+01    2.0159E+01    6.250000E+09  0.00040  6.362E-05    0   0.5076   age166_m32            0.0000     5.7713E+00     1.9814   1.1501    96.4579
 46      8.7182     6.6786E+00    6.6465E+00    7.500000E+09  0.00040  5.289E-05    0   0.5027   age171_m32            0.0000     6.2550E+00     2.0769   1.1112    95.2717
 47      0.0000     0.0000E+00    0.0000E+00    1.000000E+10  0.00040  3.972E-05    0   0.4948   age181_m32            0.0000     6.5848E+00     2.1237   1.0518    93.8489
 48      0.0000     0.0000E+00    0.0000E+00    1.300000E+10  0.00040  3.283E-05    0   0.4870   age193_m32            0.0000     3.7257E+00     1.6342   1.0262    96.0485
 49      0.0185     2.5659E-02    2.4657E-02    1.500000E+10  0.00040  2.925E-05    0   0.4854   age201_m32            0.0000     3.8595E+00     1.5942   1.0180    97.3413
 50      0.0000     0.0000E+00    0.0000E+00    1.800000E+10  0.00040  2.469E-05    0   0.4819   age213_m32            0.0000     4.1317E+00     1.6262   0.9824    97.7187
 51      0.0000     0.0000E+00    0.0000E+00    1.000000E+06  0.00400  1.114E-02    0   1.0000   age020_m42            0.0000     2.4263E+02    12.9747   4.0000    89.2682
 52      0.0000     0.0000E+00    0.0000E+00    3.160000E+06  0.00400  4.073E-02    0   0.9999   age045_m42            0.0000     4.7866E+01     6.0652   3.4752    91.9123
 53      0.0000     0.0000E+00    0.0000E+00    5.010000E+06  0.00400  2.534E-02    0   0.9488   age055_m42            0.0000     9.4340E+01     8.6048   3.8219    87.2993
 54      0.0000     0.0000E+00    0.0000E+00    6.610000E+06  0.00400  2.583E-02    0   0.9220   age061_m42            0.0000     4.2447E+01     5.4701   3.3052    92.5411
 55      0.0000     0.0000E+00    0.0000E+00    8.710000E+06  0.00400  1.706E-02    0   0.8983   age067_m42            0.0000     6.2308E+01     6.9331   3.0864    92.0165
 56      0.0000     0.0000E+00    0.0000E+00    1.000000E+07  0.00400  1.271E-02    0   0.8862   age070_m42            0.0000     8.8648E+01     8.3667   3.0433    91.4080
 57      0.0000     0.0000E+00    0.0000E+00    1.445000E+07  0.00400  7.666E-03    0   0.8571   age078_m42            0.0000     1.0675E+02     9.1195   3.4258    88.6685
 58      0.0000     0.0000E+00    0.0000E+00    2.512000E+07  0.00400  5.070E-03    0   0.8174   age090_m42            0.0000     7.3908E+01     7.7790   2.9188    92.9163
 59      0.0000     0.0000E+00    0.0000E+00    4.000000E+07  0.00400  3.505E-03    0   0.7851   age104_m42            0.0000     4.4592E+01     6.1083   2.6342    94.9482
 60      0.0000     0.0000E+00    0.0000E+00    5.500000E+07  0.00400  3.059E-03    0   0.7629   age110_m42            0.0000     2.5228E+01     3.6075   2.7612    97.4759
 61      0.0000     0.0000E+00    0.0000E+00    1.015200E+08  0.00400  2.268E-03    0   0.7207   age116_m42            0.0000     5.8266E+01     4.3909   2.7466   100.4535
 62      0.0000     0.0000E+00    0.0000E+00    1.609000E+08  0.00400  1.720E-03    0   0.6930   age120_m42            0.0000     6.6018E+01     4.8311   2.6187   101.5875
 63      0.0000     0.0000E+00    0.0000E+00    2.861200E+08  0.00400  1.079E-03    0   0.6613   age125_m42            0.0000     6.9078E+01     4.9479   2.2660   101.9392
 64      0.0000     0.0000E+00    0.0000E+00    5.088000E+08  0.00400  6.261E-04    0   0.6313   age130_m42            0.0000     7.9247E+01     5.4419   2.0769   104.6483
 65      0.0001     1.4712E-05    1.7546E-05    9.047900E+08  0.00400  3.535E-04    0   0.6024   age135_m42            0.0000     4.4554E+01     4.2590   1.6658   105.1097
 66      0.0000     0.0000E+00    0.0000E+00    1.278050E+09  0.00400  2.677E-04    0   0.5837   age138_m42            0.0000     2.8557E+01     3.8422   0.9971   101.7151
 67      0.0000     0.0000E+00    0.0000E+00    1.434000E+09  0.00400  1.910E-04    0   0.5716   age139_m42            0.0000     2.7373E+01     3.6737   1.1661   102.6250
 68      0.0000     0.0000E+00    0.0000E+00    2.500000E+09  0.00400  9.818E-05    0   0.5463   age150_m42            0.0000     2.3614E+01     3.5699   0.8844    98.0866
 69      0.0000     0.0000E+00    0.0000E+00    4.250000E+09  0.00400  5.491E-05    0   0.5269   age158_m42            0.0000     2.8167E+01     3.8222   0.7432    95.7871
 70      0.0000     0.0000E+00    0.0000E+00    6.250000E+09  0.00400  3.857E-05    0   0.5151   age166_m42            0.0000     4.0608E+01     4.4209   0.6258    94.1909
 71      0.0000     0.0000E+00    0.0000E+00    7.500000E+09  0.00400  3.243E-05    0   0.5110   age171_m42            0.0000     4.9854E+01     4.7969   0.5549    93.4093
 72      0.0000     0.0000E+00    0.0000E+00    1.000000E+10  0.00400  2.424E-05    0   0.5028   age181_m42            0.0000     6.2925E+01     5.2883   0.4830    92.5483
 73      0.0000     0.0000E+00    0.0000E+00    1.300000E+10  0.00400  1.883E-05    0   0.4927   age193_m42            0.0000     7.3173E+01     5.6630   0.4452    92.1567
 74      0.0000     0.0000E+00    0.0000E+00    1.500000E+10  0.00400  1.685E-05    0   0.4919   age201_m42            0.0000     7.0500E+01     5.5802   0.4466    92.2664
 75      0.0000     0.0000E+00    0.0000E+00    1.800000E+10  0.00400  1.452E-05    0   0.4874   age213_m42            0.0000     6.5541E+01     5.4224   0.4567    92.6640
 76      0.0000     0.0000E+00    0.0000E+00    1.000000E+06  0.00800  1.286E-02    0   1.0000   age020_m52            0.0000     2.1921E+02    12.3523   4.0000    90.5440
 77      0.0000     0.0000E+00    0.0000E+00    3.160000E+06  0.00800  3.147E-02    0   0.9966   age045_m52            0.0000     1.8147E+02    11.4047   4.0000    89.9869
 78      0.0000     0.0000E+00    0.0000E+00    5.010000E+06  0.00800  2.664E-02    0   0.9443   age055_m52            0.0000     1.0955E+02     9.2098   3.9306    86.5813
 79      0.0000     0.0000E+00    0.0000E+00    6.610000E+06  0.00800  2.151E-02    0   0.9177   age061_m52            0.0000     6.4692E+01     7.2642   2.6520    92.6536
 80      0.0000     0.0000E+00    0.0000E+00    8.710000E+06  0.00800  1.628E-02    0   0.8948   age067_m52            0.0000     6.9978E+01     7.4853   3.0309    92.8282
 81      0.0000     0.0000E+00    0.0000E+00    1.000000E+07  0.00800  1.215E-02    0   0.8827   age070_m52            0.0000     8.5716E+01     8.2536   3.3600    91.2343
 82      0.0000     0.0000E+00    0.0000E+00    1.445000E+07  0.00800  8.739E-03    0   0.8552   age078_m52            0.0000     7.4257E+01     7.5400   3.4199    91.9631
 83      0.0000     0.0000E+00    0.0000E+00    2.512000E+07  0.00800  5.676E-03    0   0.8162   age090_m52            0.0000     5.4187E+01     5.9816   3.0568    95.7425
 84      0.0000     0.0000E+00    0.0000E+00    4.000000E+07  0.00800  3.939E-03    0   0.7841   age104_m52            0.0000     3.9851E+01     4.6877   2.9275    97.3080
 85      0.0000     0.0000E+00    0.0000E+00    5.500000E+07  0.00800  3.155E-03    0   0.7627   age110_m52            0.0000     3.7780E+01     4.0275   2.9224    98.3425
 86      0.0000     0.0000E+00    0.0000E+00    1.015200E+08  0.00800  2.206E-03    0   0.7226   age116_m52            0.0000     4.7108E+01     3.9369   2.7849   100.8805
 87      0.0000     0.0000E+00    0.0000E+00    1.609000E+08  0.00800  1.596E-03    0   0.6963   age120_m52            0.0000     5.6608E+01     4.3360   2.5853   102.0738
 88      0.0000     0.0000E+00    0.0000E+00    2.861200E+08  0.00800  1.002E-03    0   0.6665   age125_m52            0.0000     8.9305E+01     5.8885   2.3378   103.4017
 89      0.0000     0.0000E+00    0.0000E+00    5.088000E+08  0.00800  5.759E-04    0   0.6377   age130_m52            0.0000     1.0120E+02     6.6181   2.0185   106.3161
 90      0.0000     0.0000E+00    0.0000E+00    9.047900E+08  0.00800  2.972E-04    0   0.6086   age135_m52            0.0000     6.9347E+01     5.6379   1.4968   104.3881
 91      0.0000     0.0000E+00    0.0000E+00    1.278050E+09  0.00800  2.242E-04    0   0.5907   age138_m52            0.0000     4.8441E+01     4.8260   0.8592   103.4338
 92      0.0000     0.0000E+00    0.0000E+00    1.434000E+09  0.00800  1.645E-04    0   0.5787   age139_m52            0.0000     3.8724E+01     4.3862   0.9939   103.2703
 93      0.0000     0.0000E+00    0.0000E+00    2.500000E+09  0.00800  7.723E-05    0   0.5519   age150_m52            0.0000     4.8740E+01     4.8620   0.6495    99.6410
 94      0.0000     0.0000E+00    0.0000E+00    4.250000E+09  0.00800  4.151E-05    0   0.5320   age158_m52            0.0000     5.2031E+01     4.9929   0.5745    97.2859
 95      0.0000     0.0000E+00    0.0000E+00    6.250000E+09  0.00800  3.010E-05    0   0.5197   age166_m52            0.0000     7.4890E+01     5.8057   0.3949    95.4699
 96      0.0000     0.0000E+00    0.0000E+00    7.500000E+09  0.00800  2.467E-05    0   0.5139   age171_m52            0.0000     8.1563E+01     6.0126   0.3585    94.9349
 97      0.0000     0.0000E+00    0.0000E+00    1.000000E+10  0.00800  1.862E-05    0   0.5054   age181_m52            0.0000     1.0383E+02     6.6740   0.2471    94.0192
