###################################################################
## OUTPUT of StarlightChains_v04.for    [Cid@UFSC - 01/Apr/2007] ##
###################################################################

## Some input info
NGC6171_a_1.cxt                          [arq_obs]
Base.BC03.S                              [arq_base]
NGC6171_a_1.msk                          [arq_masks]
StCv04.C99.config                        [arq_config]
  150                                    [N_base]
    0                                    [N_YAV_components = # of components with extra extinction!]
    0                                    [i_FitPowerLaw (1/0 = Yes/No)]
-9.99                                    [alpha_PowerLaw]
CCM                                      [red_law_option]
 1.458241                                [q_norm = A(l_norm)/A(V)]

## (Re)Sampling Parameters
 3359.00                                 [l_ini (A)]
 6428.00                                 [l_fin (A)]
    1.00                                 [dl    (A)]     (OBS: dl_cushion =    50.00 A)

## Normalization info
 4020.00                                 [l_norm (A) - for base]
 4010.00                                 [llow_norm (A) - window for f_obs]
 4060.00                                 [lupp_norm (A) - window for f_obs]
4.369149E-15                             [fobs_norm (in input units)]

## S/N
 4730.00                                 [llow_SN (A) - window for S/N]
 4780.00                                 [lupp_SN (A) - window for S/N]
  52.314                                 [S/N in S/N window]
  35.378                                 [S/N in norm. window]
 244.302                                 [S/N_err in S/N window]
 165.214                                 [S/N_err in norm. window]
  1.0000                                 [fscale_chi2]

## etc...
  2147483627                             [idum_orig]
  3066                                   [NOl_eff]
   735                                   [Nl_eff]
  2331    NSIGMA                         [Ntot_cliped & clip_method]
  4419870                                [Nglobal_steps]
   7                                     [N_chains]
  27                                     [NEX0s_base = N_base in EX0s-fits]
 0   0   1      258   2.0   3.468E+02    [Clip-Bug, RC-Crash & Burn-In warning-flags, n_censored_weights, wei_nsig_threshold & wei_limit]
   173    173.185    173.173      0.012  [idt_all, wdt_TotTime, wdt_UsrTime & wdt_SysTime (sec)]

## Synthesis Results - Best model ##

 2.71385E+00                             [chi2/Nl_eff]
     1.24328                             [adev (%)]

   100.12257                             [sum-of-x (%)]
 2.66945E-14                             [Flux_tot (units of input spectrum!)]
 7.15775E-10                             [Mini_tot (???)]
 3.63164E-10                             [Mcor_tot (???)]

  -7.04                                  [v0_min  (km/s)]
  43.50                                  [vd_min  (km/s)]
 1.3466                                  [AV_min  (mag)]
 0.0000                                  [YAV_min (mag)]

# j     x_j(%)      Mini_j(%)     Mcor_j(%)     age_j(yr)     Z_j      (L/M)_j    YAV?  Mstars   component_j        a/Fe...       SSP_chi2r SSP_adev(%)   SSP_AV   SSP_x(%)
  1      0.0000     0.0000E+00    0.0000E+00    1.000000E+06  0.00010  8.160E-03    0   1.0000   age020_m22            0.0000     1.9970E+03    25.0196   4.0000    95.1244
  2      6.5465     5.1240E-03    1.0099E-02    3.160000E+06  0.00010  4.759E-02    0   1.0000   age045_m22            0.0000     1.8480E+02     5.9557   2.8603   100.0608
  3     19.3049     3.7220E-02    7.0292E-02    5.010000E+06  0.00010  1.932E-02    0   0.9582   age055_m22            0.0000     4.1436E+02    11.8130   3.0989    89.1517
  4      0.0000     0.0000E+00    0.0000E+00    6.610000E+06  0.00010  9.973E-03    0   0.9297   age061_m22            0.0000     1.8832E+03    24.0096   4.0000    97.9526
  5      0.0000     0.0000E+00    0.0000E+00    8.710000E+06  0.00010  7.690E-03    0   0.9030   age067_m22            0.0000     1.8262E+03    23.5994   4.0000    98.2817
  6      0.0000     0.0000E+00    0.0000E+00    1.000000E+07  0.00010  6.375E-03    0   0.8902   age070_m22            0.0000     1.8443E+03    23.5285   4.0000    98.5646
  7      0.0000     0.0000E+00    0.0000E+00    1.445000E+07  0.00010  4.874E-03    0   0.8589   age078_m22            0.0000     1.1794E+03    19.2901   4.0000    99.0761
  8      0.0000     0.0000E+00    0.0000E+00    2.512000E+07  0.00010  4.103E-03    0   0.8174   age090_m22            0.0000     3.7201E+02    10.5381   4.0000    98.3402
  9      0.0000     0.0000E+00    0.0000E+00    4.000000E+07  0.00010  3.654E-03    0   0.7830   age104_m22            0.0000     3.5815E+02     8.9215   3.9503    97.5673
 10      0.0000     0.0000E+00    0.0000E+00    5.500000E+07  0.00010  3.093E-03    0   0.7597   age110_m22            0.0000     3.9850E+02     9.3050   3.8602    98.7242
 11      0.0000     0.0000E+00    0.0000E+00    1.015200E+08  0.00010  2.431E-03    0   0.7138   age116_m22            0.0000     5.1008E+02    10.4151   3.5277   101.1739
 12      0.0000     0.0000E+00    0.0000E+00    1.609000E+08  0.00010  1.319E-03    0   0.6775   age120_m22            0.0000     5.0413E+02    10.0155   3.0557   103.2614
 13      0.0000     0.0000E+00    0.0000E+00    2.861200E+08  0.00010  1.075E-03    0   0.6412   age125_m22            0.0000     1.0128E+03    14.1029   3.1592   105.2561
 14      0.0000     0.0000E+00    0.0000E+00    5.088000E+08  0.00010  7.183E-04    0   0.6083   age130_m22            0.0000     1.1798E+03    15.2018   2.9371   106.5303
 15      0.0000     0.0000E+00    0.0000E+00    9.047900E+08  0.00010  4.524E-04    0   0.5785   age135_m22            0.0000     1.1887E+03    15.3240   2.7361   107.6902
 16      0.0000     0.0000E+00    0.0000E+00    1.278050E+09  0.00010  3.018E-04    0   0.5588   age138_m22            0.0000     6.7593E+02    11.5828   2.1819   106.8842
 17      0.0000     0.0000E+00    0.0000E+00    1.434000E+09  0.00010  2.691E-04    0   0.5532   age139_m22            0.0000     5.8127E+02    10.7775   2.0221   106.5013
 18      0.0000     0.0000E+00    0.0000E+00    2.500000E+09  0.00010  1.582E-04    0   0.5296   age150_m22            0.0000     5.2373E+02    10.3925   1.9038   107.4979
 19      0.0000     0.0000E+00    0.0000E+00    4.250000E+09  0.00010  1.007E-04    0   0.5110   age158_m22            0.0000     3.4878E+02     8.5603   1.7390   106.2666
 20      0.0000     0.0000E+00    0.0000E+00    6.250000E+09  0.00010  6.869E-05    0   0.4985   age166_m22            0.0000     2.0823E+02     6.6757   1.6667   103.9744
 21      0.0000     0.0000E+00    0.0000E+00    7.500000E+09  0.00010  5.873E-05    0   0.4931   age171_m22            0.0000     1.9067E+02     6.4588   1.6512   103.5658
 22      0.0000     0.0000E+00    0.0000E+00    1.000000E+10  0.00010  4.481E-05    0   0.4854   age181_m22            0.0000     1.8473E+02     6.3529   1.6128   103.1818
 23      0.0000     0.0000E+00    0.0000E+00    1.300000E+10  0.00010  3.489E-05    0   0.4791   age193_m22            0.0000     1.7069E+02     6.0842   1.5543   102.6591
 24      0.0000     0.0000E+00    0.0000E+00    1.500000E+10  0.00010  3.035E-05    0   0.4766   age201_m22            0.0000     1.6172E+02     5.9227   1.5146   102.5067
 25      0.0000     0.0000E+00    0.0000E+00    1.800000E+10  0.00010  2.510E-05    0   0.4735   age213_m22            0.0000     1.4067E+02     5.5242   1.4443   101.9803
 26      0.0000     0.0000E+00    0.0000E+00    1.000000E+06  0.00040  8.458E-03    0   1.0000   age020_m32            0.0000     2.0419E+03    24.9969   4.0000    96.0559
 27      0.0000     0.0000E+00    0.0000E+00    3.160000E+06  0.00040  3.973E-02    0   1.0000   age045_m32            0.0000     2.9609E+02     9.5342   4.0000    96.3758
 28      0.0000     0.0000E+00    0.0000E+00    5.010000E+06  0.00040  1.935E-02    0   0.9532   age055_m32            0.0000     6.3370E+02    15.3201   4.0000    95.1388
 29      0.0000     0.0000E+00    0.0000E+00    6.610000E+06  0.00040  1.204E-02    0   0.9243   age061_m32            0.0000     1.3562E+03    20.9017   4.0000    98.1718
 30      0.0000     0.0000E+00    0.0000E+00    8.710000E+06  0.00040  9.433E-03    0   0.9001   age067_m32            0.0000     1.2398E+03    19.9706   4.0000    98.6678
 31      0.0000     0.0000E+00    0.0000E+00    1.000000E+07  0.00040  8.053E-03    0   0.8877   age070_m32            0.0000     1.1285E+03    19.1748   4.0000    98.6031
 32      0.0000     0.0000E+00    0.0000E+00    1.445000E+07  0.00040  7.027E-03    0   0.8578   age078_m32            0.0000     3.0768E+02     9.9470   4.0000    94.2394
 33      0.0000     0.0000E+00    0.0000E+00    2.512000E+07  0.00040  4.707E-03    0   0.8166   age090_m32            0.0000     2.7217E+02     8.2986   3.7775    96.3955
 34      0.0000     0.0000E+00    0.0000E+00    4.000000E+07  0.00040  3.714E-03    0   0.7827   age104_m32            0.0000     3.2473E+02     8.4411   3.5980    99.0017
 35      0.0000     0.0000E+00    0.0000E+00    5.500000E+07  0.00040  2.982E-03    0   0.7593   age110_m32            0.0000     3.6880E+02     8.8891   3.5455    99.8558
 36      0.0000     0.0000E+00    0.0000E+00    1.015200E+08  0.00040  2.188E-03    0   0.7143   age116_m32            0.0000     6.4723E+02    11.5074   3.3148   102.9313
 37      0.0000     0.0000E+00    0.0000E+00    1.609000E+08  0.00040  1.690E-03    0   0.6856   age120_m32            0.0000     8.5739E+02    13.0673   3.1314   104.9065
 38      0.0000     0.0000E+00    0.0000E+00    2.861200E+08  0.00040  1.152E-03    0   0.6509   age125_m32            0.0000     1.0513E+03    14.3580   2.9179   106.1542
 39      0.0000     0.0000E+00    0.0000E+00    5.088000E+08  0.00040  7.331E-04    0   0.6182   age130_m32            0.0000     1.1207E+03    14.8092   2.7561   106.6900
 40      0.0000     0.0000E+00    0.0000E+00    9.047900E+08  0.00040  3.960E-04    0   0.5890   age135_m32            0.0000     7.0377E+02    11.8865   2.2742   106.0623
 41      0.0000     0.0000E+00    0.0000E+00    1.278050E+09  0.00040  2.854E-04    0   0.5687   age138_m32            0.0000     5.9120E+02    11.0152   1.9755   108.2331
 42      0.0000     0.0000E+00    0.0000E+00    1.434000E+09  0.00040  2.531E-04    0   0.5632   age139_m32            0.0000     5.7522E+02    10.8808   1.9143   108.2379
 43      0.0000     0.0000E+00    0.0000E+00    2.500000E+09  0.00040  1.488E-04    0   0.5386   age150_m32            0.0000     4.3380E+02     9.5053   1.6540   106.6390
 44      0.0000     0.0000E+00    0.0000E+00    4.250000E+09  0.00040  9.082E-05    0   0.5199   age158_m32            0.0000     2.0243E+02     6.5036   1.5329   104.0980
 45      9.5995     5.6204E+00    5.6230E+00    6.250000E+09  0.00040  6.362E-05    0   0.5076   age166_m32            0.0000     8.8408E+01     4.3229   1.4722   101.4115
 46     17.6229     1.2411E+01    1.2297E+01    7.500000E+09  0.00040  5.289E-05    0   0.5027   age171_m32            0.0000     7.1044E+01     3.8939   1.4324   100.2374
 47      2.3048     2.1614E+00    2.1079E+00    1.000000E+10  0.00040  3.972E-05    0   0.4948   age181_m32            0.0000     5.9827E+01     3.6063   1.3675    98.9067
 48      0.0000     0.0000E+00    0.0000E+00    1.300000E+10  0.00040  3.283E-05    0   0.4870   age193_m32            0.0000     1.0265E+02     4.6636   1.3361   101.2974
 49      0.0000     0.0000E+00    0.0000E+00    1.500000E+10  0.00040  2.925E-05    0   0.4854   age201_m32            0.0000     1.3922E+02     5.4400   1.3251   102.6829
 50      0.0000     0.0000E+00    0.0000E+00    1.800000E+10  0.00040  2.469E-05    0   0.4819   age213_m32            0.0000     1.5441E+02     5.7208   1.2890   103.1052
 51      0.0000     0.0000E+00    0.0000E+00    1.000000E+06  0.00400  1.114E-02    0   1.0000   age020_m42            0.0000     1.7641E+03    23.5467   4.0000    95.6989
 52      0.0000     0.0000E+00    0.0000E+00    3.160000E+06  0.00400  4.073E-02    0   0.9999   age045_m42            0.0000     2.1786E+02     7.2489   3.8255    96.2536
 53      0.0000     0.0000E+00    0.0000E+00    5.010000E+06  0.00400  2.534E-02    0   0.9488   age055_m42            0.0000     3.8044E+02    11.9310   4.0000    94.9778
 54      0.0000     0.0000E+00    0.0000E+00    6.610000E+06  0.00400  2.583E-02    0   0.9220   age061_m42            0.0000     2.4899E+02     7.5540   3.6488    96.8956
 55      0.0000     0.0000E+00    0.0000E+00    8.710000E+06  0.00400  1.706E-02    0   0.8983   age067_m42            0.0000     2.3433E+02     8.2166   3.4560    95.8334
 56      0.0000     0.0000E+00    0.0000E+00    1.000000E+07  0.00400  1.271E-02    0   0.8862   age070_m42            0.0000     2.8684E+02     9.6343   3.4309    94.8855
 57      0.0000     0.0000E+00    0.0000E+00    1.445000E+07  0.00400  7.666E-03    0   0.8571   age078_m42            0.0000     3.2076E+02    10.7553   3.8159    91.8989
 58      0.0000     0.0000E+00    0.0000E+00    2.512000E+07  0.00400  5.070E-03    0   0.8174   age090_m42            0.0000     2.4391E+02     8.8997   3.3038    96.5019
 59      0.0000     0.0000E+00    0.0000E+00    4.000000E+07  0.00400  3.505E-03    0   0.7851   age104_m42            0.0000     1.7566E+02     7.1031   2.9992    99.1192
 60      0.0000     0.0000E+00    0.0000E+00    5.500000E+07  0.00400  3.059E-03    0   0.7629   age110_m42            0.0000     3.0469E+02     7.5051   3.0930   102.2785
 61      0.0000     0.0000E+00    0.0000E+00    1.015200E+08  0.00400  2.268E-03    0   0.7207   age116_m42            0.0000     7.5353E+02    12.1276   3.0458   105.7723
 62      0.0000     0.0000E+00    0.0000E+00    1.609000E+08  0.00400  1.720E-03    0   0.6930   age120_m42            0.0000     8.2340E+02    12.6654   2.9142   106.9781
 63      0.0000     0.0000E+00    0.0000E+00    2.861200E+08  0.00400  1.079E-03    0   0.6613   age125_m42            0.0000     8.2207E+02    12.7197   2.5588   107.3734
 64      0.0000     0.0000E+00    0.0000E+00    5.088000E+08  0.00400  6.261E-04    0   0.6313   age130_m42            0.0000     9.1350E+02    13.5139   2.3711   110.0500
 65      0.0000     0.0000E+00    0.0000E+00    9.047900E+08  0.00400  3.535E-04    0   0.6024   age135_m42            0.0000     6.0034E+02    11.0876   1.9586   110.8290
 66      0.0005     7.4702E-05    8.5940E-05    1.278050E+09  0.00400  2.677E-04    0   0.5837   age138_m42            0.0000     2.8760E+02     8.6850   1.2670   108.7029
 67      0.0000     0.0000E+00    0.0000E+00    1.434000E+09  0.00400  1.910E-04    0   0.5716   age139_m42            0.0000     3.4718E+02     8.9437   1.4369   109.4750
 68      4.9613     1.8823E+00    2.0267E+00    2.500000E+09  0.00400  9.818E-05    0   0.5463   age150_m42            0.0000     1.5443E+02     6.4677   1.1515   105.1643
 69      4.1971     2.8472E+00    2.9568E+00    4.250000E+09  0.00400  5.491E-05    0   0.5269   age158_m42            0.0000     1.0750E+02     5.6849   1.0222   102.6475
 70      1.1125     1.0744E+00    1.0907E+00    6.250000E+09  0.00400  3.857E-05    0   0.5151   age166_m42            0.0000     1.2935E+02     6.1103   0.8999   101.2051
 71      1.3188     1.5148E+00    1.5256E+00    7.500000E+09  0.00400  3.243E-05    0   0.5110   age171_m42            0.0000     1.5517E+02     6.5628   0.8257   100.5487
 72      1.6774     2.5776E+00    2.5543E+00    1.000000E+10  0.00400  2.424E-05    0   0.5028   age181_m42            0.0000     1.9373E+02     7.1849   0.7509    99.8048
 73      0.4175     8.2581E-01    8.0193E-01    1.300000E+10  0.00400  1.883E-05    0   0.4927   age193_m42            0.0000     2.2434E+02     7.6130   0.7130    99.4800
 74      0.0000     0.0000E+00    0.0000E+00    1.500000E+10  0.00400  1.685E-05    0   0.4919   age201_m42            0.0000     2.1554E+02     7.4539   0.7184    99.5215
 75      0.0000     0.0000E+00    0.0000E+00    1.800000E+10  0.00400  1.452E-05    0   0.4874   age213_m42            0.0000     1.9955E+02     7.1834   0.7340    99.8508
 76      0.0000     0.0000E+00    0.0000E+00    1.000000E+06  0.00800  1.286E-02    0   1.0000   age020_m52            0.0000     1.6228E+03    22.4053   4.0000    97.3603
 77      0.0000     0.0000E+00    0.0000E+00    3.160000E+06  0.00800  3.147E-02    0   0.9966   age045_m52            0.0000     1.3671E+03    20.9353   4.0000    97.9605
 78      0.0000     0.0000E+00    0.0000E+00    5.010000E+06  0.00800  2.664E-02    0   0.9443   age055_m52            0.0000     5.5804E+02    14.3172   4.0000    96.2484
 79      0.0000     0.0000E+00    0.0000E+00    6.610000E+06  0.00800  2.151E-02    0   0.9177   age061_m52            0.0000     1.8055E+02     8.1001   3.0133    96.7989
 80      0.0000     0.0000E+00    0.0000E+00    8.710000E+06  0.00800  1.628E-02    0   0.8948   age067_m52            0.0000     2.4305E+02     8.7263   3.4043    96.6880
 81      0.0000     0.0000E+00    0.0000E+00    1.000000E+07  0.00800  1.215E-02    0   0.8827   age070_m52            0.0000     2.8261E+02     9.6644   3.7442    94.8552
 82      0.0000     0.0000E+00    0.0000E+00    1.445000E+07  0.00800  8.739E-03    0   0.8552   age078_m52            0.0000     2.8335E+02     9.0928   3.7945    95.7904
 83      0.0000     0.0000E+00    0.0000E+00    2.512000E+07  0.00800  5.676E-03    0   0.8162   age090_m52            0.0000     3.2579E+02     8.2902   3.4249    99.8418
 84      0.0000     0.0000E+00    0.0000E+00    4.000000E+07  0.00800  3.939E-03    0   0.7841   age104_m52            0.0000     3.6872E+02     8.3416   3.2787   101.7108
 85      0.0000     0.0000E+00    0.0000E+00    5.500000E+07  0.00800  3.155E-03    0   0.7627   age110_m52            0.0000     4.4362E+02     9.1034   3.2536   103.0254
 86      0.0000     0.0000E+00    0.0000E+00    1.015200E+08  0.00800  2.206E-03    0   0.7226   age116_m52            0.0000     6.2642E+02    10.9740   3.0853   106.1215
 87      0.0000     0.0000E+00    0.0000E+00    1.609000E+08  0.00800  1.596E-03    0   0.6963   age120_m52            0.0000     7.1430E+02    11.7960   2.8809   107.4033
 88      0.0000     0.0000E+00    0.0000E+00    2.861200E+08  0.00800  1.002E-03    0   0.6665   age125_m52            0.0000     9.6241E+02    13.8634   2.6082   109.3827
 89      0.0000     0.0000E+00    0.0000E+00    5.088000E+08  0.00800  5.759E-04    0   0.6377   age130_m52            0.0000     1.0023E+03    14.3760   2.2674   113.1140
 90      0.0000     0.0000E+00    0.0000E+00    9.047900E+08  0.00800  2.972E-04    0   0.6086   age135_m52            0.0000     6.3314E+02    11.7089   1.7142   112.3469
 91      0.0000     0.0000E+00    0.0000E+00    1.278050E+09  0.00800  2.242E-04    0   0.5907   age138_m52            0.0000     3.0540E+02     8.7485   1.0897   111.8314
 92      0.0006     1.3253E-04    1.5117E-04    1.434000E+09  0.00800  1.645E-04    0   0.5787   age139_m52            0.0000     2.6752E+02     8.1042   1.2351   111.3412
 93      0.0005     2.6135E-04    2.8429E-04    2.500000E+09  0.00800  7.723E-05    0   0.5519   age150_m52            0.0000     1.8914E+02     7.2787   0.8926   107.7753
 94     10.8435     9.7304E+00    1.0203E+01    4.250000E+09  0.00800  4.151E-05    0   0.5320   age158_m52            0.0000     1.7283E+02     7.1029   0.8226   105.1671
 95      2.9650     3.6692E+00    3.7584E+00    6.250000E+09  0.00800  3.010E-05    0   0.5197   age166_m52            0.0000     2.2936E+02     7.9104   0.6357   103.6301
 96      0.0000     0.0000E+00    0.0000E+00    7.500000E+09  0.00800  2.467E-05    0   0.5139   age171_m52            0.0000     2.5010E+02     8.1988   0.5953   103.1870
 97      1.6492     3.2992E+00    3.2863E+00    1.000000E+10  0.00800  1.862E-05    0   0.5054   age181_m52            0.0000     3.2505E+02     9.1502   0.4705   102.6682
