###################################################################
## OUTPUT of StarlightChains_v04.for    [Cid@UFSC - 01/Apr/2007] ##
###################################################################

## Some input info
NGC6284_a_1.cxt                          [arq_obs]
Base.BC03.S                              [arq_base]
NGC6284_a_1.msk                          [arq_masks]
StCv04.C99.config                        [arq_config]
  150                                    [N_base]
    0                                    [N_YAV_components = # of components with extra extinction!]
    0                                    [i_FitPowerLaw (1/0 = Yes/No)]
-9.99                                    [alpha_PowerLaw]
CCM                                      [red_law_option]
 1.458241                                [q_norm = A(l_norm)/A(V)]

## (Re)Sampling Parameters
 3359.00                                 [l_ini (A)]
 6428.00                                 [l_fin (A)]
    1.00                                 [dl    (A)]     (OBS: dl_cushion =    50.00 A)

## Normalization info
 4020.00                                 [l_norm (A) - for base]
 4010.00                                 [llow_norm (A) - window for f_obs]
 4060.00                                 [lupp_norm (A) - window for f_obs]
9.247314E-15                             [fobs_norm (in input units)]

## S/N
 4730.00                                 [llow_SN (A) - window for S/N]
 4780.00                                 [lupp_SN (A) - window for S/N]
  76.302                                 [S/N in S/N window]
  62.584                                 [S/N in norm. window]
  42.607                                 [S/N_err in S/N window]
  34.947                                 [S/N_err in norm. window]
  1.0000                                 [fscale_chi2]

## etc...
  2147483621                             [idum_orig]
  3065                                   [NOl_eff]
  1589                                   [Nl_eff]
  1476    NSIGMA                         [Ntot_cliped & clip_method]
  3475920                                [Nglobal_steps]
   7                                     [N_chains]
  21                                     [NEX0s_base = N_base in EX0s-fits]
 0   0   1      208   2.0   7.612E+02    [Clip-Bug, RC-Crash & Burn-In warning-flags, n_censored_weights, wei_nsig_threshold & wei_limit]
   133    133.351    133.339      0.012  [idt_all, wdt_TotTime, wdt_UsrTime & wdt_SysTime (sec)]

## Synthesis Results - Best model ##

 1.21722E+00                             [chi2/Nl_eff]
     1.47747                             [adev (%)]

   100.28188                             [sum-of-x (%)]
 2.77683E-14                             [Flux_tot (units of input spectrum!)]
 7.01172E-10                             [Mini_tot (???)]
 3.50592E-10                             [Mcor_tot (???)]

  -6.48                                  [v0_min  (km/s)]
  59.52                                  [vd_min  (km/s)]
 0.8166                                  [AV_min  (mag)]
 0.0000                                  [YAV_min (mag)]

# j     x_j(%)      Mini_j(%)     Mcor_j(%)     age_j(yr)     Z_j      (L/M)_j    YAV?  Mstars   component_j        a/Fe...       SSP_chi2r SSP_adev(%)   SSP_AV   SSP_x(%)
  1      0.0000     0.0000E+00    0.0000E+00    1.000000E+06  0.00010  8.160E-03    0   1.0000   age020_m22            0.0000     7.1704E+02    12.8614   4.0000    75.2394
  2      7.9755     6.6183E-03    1.3236E-02    3.160000E+06  0.00010  4.759E-02    0   1.0000   age045_m22            0.0000     6.7440E+01     5.4322   2.4086    93.3659
  3      0.0000     0.0000E+00    0.0000E+00    5.010000E+06  0.00010  1.932E-02    0   0.9582   age055_m22            0.0000     3.9065E+02    13.7080   2.9032    80.3709
  4      0.0000     0.0000E+00    0.0000E+00    6.610000E+06  0.00010  9.973E-03    0   0.9297   age061_m22            0.0000     6.3670E+02    12.5400   4.0000    77.5117
  5      0.0000     0.0000E+00    0.0000E+00    8.710000E+06  0.00010  7.690E-03    0   0.9030   age067_m22            0.0000     6.0165E+02    12.1349   4.0000    77.9678
  6      0.0000     0.0000E+00    0.0000E+00    1.000000E+07  0.00010  6.375E-03    0   0.8902   age070_m22            0.0000     5.8311E+02    12.3267   4.0000    78.1866
  7      0.0000     0.0000E+00    0.0000E+00    1.445000E+07  0.00010  4.874E-03    0   0.8589   age078_m22            0.0000     3.7388E+02     7.9285   4.0000    80.9848
  8      0.0000     0.0000E+00    0.0000E+00    2.512000E+07  0.00010  4.103E-03    0   0.8174   age090_m22            0.0000     1.3571E+02     8.2306   3.8360    86.4480
  9      0.0000     0.0000E+00    0.0000E+00    4.000000E+07  0.00010  3.654E-03    0   0.7830   age104_m22            0.0000     1.1647E+02     4.8879   3.4523    90.6143
 10      1.4704     1.8774E-02    2.8525E-02    5.500000E+07  0.00010  3.093E-03    0   0.7597   age110_m22            0.0000     1.2706E+02     3.9450   3.2976    92.4215
 11     14.9158     2.4231E-01    3.4591E-01    1.015200E+08  0.00010  2.431E-03    0   0.7138   age116_m22            0.0000     1.8222E+02     4.5140   2.8818    95.3292
 12      0.0000     0.0000E+00    0.0000E+00    1.609000E+08  0.00010  1.319E-03    0   0.6775   age120_m22            0.0000     1.8252E+02     5.6271   2.3200    98.4790
 13      0.0000     0.0000E+00    0.0000E+00    2.861200E+08  0.00010  1.075E-03    0   0.6412   age125_m22            0.0000     5.2384E+02    12.5309   2.1153   103.5601
 14      0.0000     0.0000E+00    0.0000E+00    5.088000E+08  0.00010  7.183E-04    0   0.6083   age130_m22            0.0000     6.5165E+02    15.6142   1.7458   106.3446
 15      0.0000     0.0000E+00    0.0000E+00    9.047900E+08  0.00010  4.524E-04    0   0.5785   age135_m22            0.0000     6.5807E+02    16.4293   1.5083   107.7841
 16      0.0000     0.0000E+00    0.0000E+00    1.278050E+09  0.00010  3.018E-04    0   0.5588   age138_m22            0.0000     2.9253E+02    11.0196   1.1820   104.8724
 17      0.0000     0.0000E+00    0.0000E+00    1.434000E+09  0.00010  2.691E-04    0   0.5532   age139_m22            0.0000     2.3007E+02     9.9700   1.0606   104.1768
 18      0.0000     0.0000E+00    0.0000E+00    2.500000E+09  0.00010  1.582E-04    0   0.5296   age150_m22            0.0000     1.9453E+02     8.8534   1.0067   104.2294
 19      0.0000     0.0000E+00    0.0000E+00    4.250000E+09  0.00010  1.007E-04    0   0.5110   age158_m22            0.0000     9.2022E+01     5.9752   0.9474   102.2798
 20      0.0000     0.0000E+00    0.0000E+00    6.250000E+09  0.00010  6.869E-05    0   0.4985   age166_m22            0.0000     3.0880E+01     3.2615   0.9775    99.3835
 21      1.4476     9.7340E-01    9.5996E-01    7.500000E+09  0.00010  5.873E-05    0   0.4931   age171_m22            0.0000     2.5792E+01     2.8396   0.9911    98.6510
 22      0.2106     1.8563E-01    1.8020E-01    1.000000E+10  0.00010  4.481E-05    0   0.4854   age181_m22            0.0000     2.4033E+01     2.7510   0.9522    98.3783
 23      0.0315     3.5632E-02    3.4142E-02    1.300000E+10  0.00010  3.489E-05    0   0.4791   age193_m22            0.0000     2.0085E+01     2.5435   0.8960    98.0025
 24      0.0000     0.0000E+00    0.0000E+00    1.500000E+10  0.00010  3.035E-05    0   0.4766   age201_m22            0.0000     1.7688E+01     2.3801   0.8610    97.8762
 25      0.0000     0.0000E+00    0.0000E+00    1.800000E+10  0.00010  2.510E-05    0   0.4735   age213_m22            0.0000     1.3331E+01     2.0732   0.8043    97.3718
 26      0.0000     0.0000E+00    0.0000E+00    1.000000E+06  0.00040  8.458E-03    0   1.0000   age020_m32            0.0000     7.0426E+02    13.3860   4.0000    75.7888
 27      0.0000     0.0000E+00    0.0000E+00    3.160000E+06  0.00040  3.973E-02    0   1.0000   age045_m32            0.0000     1.5414E+02     9.0944   3.7657    86.2884
 28      0.0000     0.0000E+00    0.0000E+00    5.010000E+06  0.00040  1.935E-02    0   0.9532   age055_m32            0.0000     3.3676E+02    11.4048   4.0000    80.6441
 29      0.0000     0.0000E+00    0.0000E+00    6.610000E+06  0.00040  1.204E-02    0   0.9243   age061_m32            0.0000     4.7582E+02     9.1739   4.0000    79.3826
 30      0.0000     0.0000E+00    0.0000E+00    8.710000E+06  0.00040  9.433E-03    0   0.9001   age067_m32            0.0000     4.1819E+02     8.5497   4.0000    80.2433
 31      0.0000     0.0000E+00    0.0000E+00    1.000000E+07  0.00040  8.053E-03    0   0.8877   age070_m32            0.0000     3.8705E+02     8.2414   4.0000    80.6840
 32      0.0000     0.0000E+00    0.0000E+00    1.445000E+07  0.00040  7.027E-03    0   0.8578   age078_m32            0.0000     1.8711E+02    10.1402   3.7487    84.8282
 33      0.0000     0.0000E+00    0.0000E+00    2.512000E+07  0.00040  4.707E-03    0   0.8166   age090_m32            0.0000     1.1318E+02     7.3035   3.3806    88.6840
 34      0.0000     0.0000E+00    0.0000E+00    4.000000E+07  0.00040  3.714E-03    0   0.7827   age104_m32            0.0000     1.0045E+02     4.9000   3.1056    91.8729
 35      0.0035     4.6951E-05    7.1298E-05    5.500000E+07  0.00040  2.982E-03    0   0.7593   age110_m32            0.0000     1.1290E+02     4.2159   3.0015    93.1433
 36      0.0000     0.0000E+00    0.0000E+00    1.015200E+08  0.00040  2.188E-03    0   0.7143   age116_m32            0.0000     2.6097E+02     6.6561   2.5492    98.3006
 37      0.0000     0.0000E+00    0.0000E+00    1.609000E+08  0.00040  1.690E-03    0   0.6856   age120_m32            0.0000     4.1183E+02     9.7392   2.2254   101.5900
 38      0.0000     0.0000E+00    0.0000E+00    2.861200E+08  0.00040  1.152E-03    0   0.6509   age125_m32            0.0000     5.5633E+02    13.6855   1.8180   105.0485
 39      0.0000     0.0000E+00    0.0000E+00    5.088000E+08  0.00040  7.331E-04    0   0.6182   age130_m32            0.0000     6.0386E+02    15.2647   1.5749   106.5069
 40      0.0000     0.0000E+00    0.0000E+00    9.047900E+08  0.00040  3.960E-04    0   0.5890   age135_m32            0.0000     2.9696E+02    11.6345   1.2277   104.7865
 41      0.0000     0.0000E+00    0.0000E+00    1.278050E+09  0.00040  2.854E-04    0   0.5687   age138_m32            0.0000     2.3430E+02     9.8518   1.0309   105.5454
 42      0.0000     0.0000E+00    0.0000E+00    1.434000E+09  0.00040  2.531E-04    0   0.5632   age139_m32            0.0000     2.2539E+02     9.6776   0.9787   105.4283
 43      0.0000     0.0000E+00    0.0000E+00    2.500000E+09  0.00040  1.488E-04    0   0.5386   age150_m32            0.0000     1.3753E+02     7.8698   0.7743   103.6545
 44     42.8181     1.8619E+01    1.9359E+01    4.250000E+09  0.00040  9.082E-05    0   0.5199   age158_m32            0.0000     2.7301E+01     3.5197   0.8090   100.1212
 45      4.7537     2.9508E+00    2.9956E+00    6.250000E+09  0.00040  6.362E-05    0   0.5076   age166_m32            0.0000     1.2031E+01     2.0054   0.8788    96.5518
 46      0.0631     4.7128E-02    4.7382E-02    7.500000E+09  0.00040  5.289E-05    0   0.5027   age171_m32            0.0000     1.7545E+01     2.1865   0.8522    95.4939
 47      0.0000     0.0000E+00    0.0000E+00    1.000000E+10  0.00040  3.972E-05    0   0.4948   age181_m32            0.0000     2.4430E+01     2.2837   0.7873    94.4459
 48      0.0000     0.0000E+00    0.0000E+00    1.300000E+10  0.00040  3.283E-05    0   0.4870   age193_m32            0.0000     8.8832E+00     1.6900   0.6884    97.2214
 49      0.0000     0.0000E+00    0.0000E+00    1.500000E+10  0.00040  2.925E-05    0   0.4854   age201_m32            0.0000     1.0742E+01     2.2168   0.6371    98.8263
 50      0.0124     1.9756E-02    1.9041E-02    1.800000E+10  0.00040  2.469E-05    0   0.4819   age213_m32            0.0000     1.3697E+01     2.5540   0.5809    99.4363
 51      0.0000     0.0000E+00    0.0000E+00    1.000000E+06  0.00400  1.114E-02    0   1.0000   age020_m42            0.0000     6.4648E+02    11.1819   4.0000    76.3592
 52      0.0009     8.3528E-07    1.6704E-06    3.160000E+06  0.00400  4.073E-02    0   0.9999   age045_m42            0.0000     1.0411E+02     7.0839   3.4190    89.3633
 53      0.0000     0.0000E+00    0.0000E+00    5.010000E+06  0.00400  2.534E-02    0   0.9488   age055_m42            0.0000     2.3804E+02    11.2174   3.9210    83.0368
 54      0.0290     4.4413E-05    8.1895E-05    6.610000E+06  0.00400  2.583E-02    0   0.9220   age061_m42            0.0000     1.0063E+02     6.1385   3.2202    89.7485
 55      0.0000     0.0000E+00    0.0000E+00    8.710000E+06  0.00400  1.706E-02    0   0.8983   age067_m42            0.0000     1.3637E+02     8.4211   3.1175    87.5778
 56      0.0000     0.0000E+00    0.0000E+00    1.000000E+07  0.00400  1.271E-02    0   0.8862   age070_m42            0.0000     1.8650E+02     9.9297   3.1463    85.8881
 57      0.0000     0.0000E+00    0.0000E+00    1.445000E+07  0.00400  7.666E-03    0   0.8571   age078_m42            0.0000     2.6493E+02    11.5831   3.5647    83.3358
 58      0.0000     0.0000E+00    0.0000E+00    2.512000E+07  0.00400  5.070E-03    0   0.8174   age090_m42            0.0000     1.5317E+02     8.9186   2.9823    87.9748
 59      0.0000     0.0000E+00    0.0000E+00    4.000000E+07  0.00400  3.505E-03    0   0.7851   age104_m42            0.0000     9.3293E+01     6.3567   2.5935    91.6218
 60      0.0000     0.0000E+00    0.0000E+00    5.500000E+07  0.00400  3.059E-03    0   0.7629   age110_m42            0.0000     8.9367E+01     2.9680   2.4826    96.6369
 61      0.0000     0.0000E+00    0.0000E+00    1.015200E+08  0.00400  2.268E-03    0   0.7207   age116_m42            0.0000     3.4700E+02     8.7308   2.1464   102.9040
 62      0.0000     0.0000E+00    0.0000E+00    1.609000E+08  0.00400  1.720E-03    0   0.6930   age120_m42            0.0000     3.8367E+02    10.1301   1.9349   105.2739
 63      0.0000     0.0000E+00    0.0000E+00    2.861200E+08  0.00400  1.079E-03    0   0.6613   age125_m42            0.0000     4.0478E+02    11.8272   1.5027   106.4214
 64      0.0000     0.0000E+00    0.0000E+00    5.088000E+08  0.00400  6.261E-04    0   0.6313   age130_m42            0.0000     4.7870E+02    13.6573   1.2497   109.4372
 65      2.7687     3.0930E-01    3.7264E-01    9.047900E+08  0.00400  3.535E-04    0   0.6024   age135_m42            0.0000     2.5568E+02    10.6298   0.9451   109.4704
 66      0.0000     0.0000E+00    0.0000E+00    1.278050E+09  0.00400  2.677E-04    0   0.5837   age138_m42            0.0000     7.7243E+01     7.4594   0.3318   108.6050
 67      0.0000     0.0000E+00    0.0000E+00    1.434000E+09  0.00400  1.910E-04    0   0.5716   age139_m42            0.0000     9.5378E+01     7.9153   0.4796   108.9296
 68      0.0000     0.0000E+00    0.0000E+00    2.500000E+09  0.00400  9.818E-05    0   0.5463   age150_m42            0.0000     4.1799E+01     5.2758   0.3344   104.3993
 69      0.0000     0.0000E+00    0.0000E+00    4.250000E+09  0.00400  5.491E-05    0   0.5269   age158_m42            0.0000     7.5670E+01     4.5456   0.2726   101.7363
 70      0.0000     0.0000E+00    0.0000E+00    6.250000E+09  0.00400  3.857E-05    0   0.5151   age166_m42            0.0000     1.1840E+02     5.0664   0.1512   100.8912
 71      0.0000     0.0000E+00    0.0000E+00    7.500000E+09  0.00400  3.243E-05    0   0.5110   age171_m42            0.0000     1.4832E+02     5.4982   0.0679   100.6791
 72      0.0000     0.0000E+00    0.0000E+00    1.000000E+10  0.00400  2.424E-05    0   0.5028   age181_m42            0.0000     1.9942E+02     6.0430  -0.0186   100.5085
 73      0.0000     0.0000E+00    0.0000E+00    1.300000E+10  0.00400  1.883E-05    0   0.4927   age193_m42            0.0000     2.5096E+02     6.3850  -0.0574   100.5236
 74      0.0000     0.0000E+00    0.0000E+00    1.500000E+10  0.00400  1.685E-05    0   0.4919   age201_m42            0.0000     2.3770E+02     6.2465  -0.0489   100.4346
 75      0.0000     0.0000E+00    0.0000E+00    1.800000E+10  0.00400  1.452E-05    0   0.4874   age213_m42            0.0000     2.1519E+02     6.0108  -0.0276   100.5112
 76      0.0000     0.0000E+00    0.0000E+00    1.000000E+06  0.00800  1.286E-02    0   1.0000   age020_m52            0.0000     5.4867E+02    10.2417   4.0000    78.1301
 77      0.0000     0.0000E+00    0.0000E+00    3.160000E+06  0.00800  3.147E-02    0   0.9966   age045_m52            0.0000     4.8133E+02     8.7090   4.0000    79.3485
 78      0.0000     0.0000E+00    0.0000E+00    5.010000E+06  0.00800  2.664E-02    0   0.9443   age055_m52            0.0000     2.8522E+02    10.9563   4.0000    82.4097
 79      0.0000     0.0000E+00    0.0000E+00    6.610000E+06  0.00800  2.151E-02    0   0.9177   age061_m52            0.0000     1.5853E+02     9.0655   2.6977    88.8356
 80      0.0000     0.0000E+00    0.0000E+00    8.710000E+06  0.00800  1.628E-02    0   0.8948   age067_m52            0.0000     1.4261E+02     8.6005   3.0650    88.4133
 81      0.0000     0.0000E+00    0.0000E+00    1.000000E+07  0.00800  1.215E-02    0   0.8827   age070_m52            0.0000     1.8177E+02     9.6299   3.4258    86.4881
 82      0.0000     0.0000E+00    0.0000E+00    1.445000E+07  0.00800  8.739E-03    0   0.8552   age078_m52            0.0000     1.5328E+02     8.5997   3.4413    87.6092
 83      0.0000     0.0000E+00    0.0000E+00    2.512000E+07  0.00800  5.676E-03    0   0.8162   age090_m52            0.0000     1.1812E+02     5.7132   2.9741    91.8456
 84      0.0000     0.0000E+00    0.0000E+00    4.000000E+07  0.00800  3.939E-03    0   0.7841   age104_m52            0.0000     1.1657E+02     4.0289   2.7183    94.9550
 85      0.0000     0.0000E+00    0.0000E+00    5.500000E+07  0.00800  3.155E-03    0   0.7627   age110_m52            0.0000     1.4659E+02     3.8907   2.6082    97.2383
 86      0.0000     0.0000E+00    0.0000E+00    1.015200E+08  0.00800  2.206E-03    0   0.7226   age116_m52            0.0000     2.5341E+02     6.9746   2.2720   102.2072
 87      0.0000     0.0000E+00    0.0000E+00    1.609000E+08  0.00800  1.596E-03    0   0.6963   age120_m52            0.0000     3.1747E+02     8.9907   1.9691   104.6167
 88      0.0000     0.0000E+00    0.0000E+00    2.861200E+08  0.00800  1.002E-03    0   0.6665   age125_m52            0.0000     5.0613E+02    13.9532   1.4524   109.4494
 89      0.0000     0.0000E+00    0.0000E+00    5.088000E+08  0.00800  5.759E-04    0   0.6377   age130_m52            0.0000     5.3487E+02    16.1615   0.9838   114.7985
 90      0.0000     0.0000E+00    0.0000E+00    9.047900E+08  0.00800  2.972E-04    0   0.6086   age135_m52            0.0000     2.5078E+02    13.5777   0.5056   114.0733
 91      0.0000     0.0000E+00    0.0000E+00    1.278050E+09  0.00800  2.242E-04    0   0.5907   age138_m52            0.0000     1.0417E+02     8.9393   0.0932   112.7086
 92      0.0000     0.0000E+00    0.0000E+00    1.434000E+09  0.00800  1.645E-04    0   0.5787   age139_m52            0.0000     8.1328E+01     7.9009   0.2840   111.5462
 93      0.0016     8.3421E-04    9.2079E-04    2.500000E+09  0.00800  7.723E-05    0   0.5519   age150_m52            0.0000     1.1079E+02     7.1758   0.0000   108.2681
 94      0.0000     0.0000E+00    0.0000E+00    4.250000E+09  0.00800  4.151E-05    0   0.5320   age158_m52            0.0000     1.3669E+02     6.3291  -0.0002   105.5047
 95      0.0000     0.0000E+00    0.0000E+00    6.250000E+09  0.00800  3.010E-05    0   0.5197   age166_m52            0.0000     2.2205E+02     7.1031  -0.1978   104.8767
 96      0.0000     0.0000E+00    0.0000E+00    7.500000E+09  0.00800  2.467E-05    0   0.5139   age171_m52            0.0000     2.4707E+02     7.3817  -0.2452   104.7090
 97      0.0011     2.3480E-03    2.3733E-03    1.000000E+10  0.00800  1.862E-05    0   0.5054   age181_m52            0.0000     3.2381E+02     8.3396  -0.4006   105.0457
