###################################################################
## OUTPUT of StarlightChains_v04.for    [Cid@UFSC - 01/Apr/2007] ##
###################################################################

## Some input info
NGC7078_a_1.cxt                          [arq_obs]
Base.BC03.S                              [arq_base]
NGC7078_a_1.msk                          [arq_masks]
StCv04.C99.config                        [arq_config]
  150                                    [N_base]
    0                                    [N_YAV_components = # of components with extra extinction!]
    0                                    [i_FitPowerLaw (1/0 = Yes/No)]
-9.99                                    [alpha_PowerLaw]
CCM                                      [red_law_option]
 1.458241                                [q_norm = A(l_norm)/A(V)]

## (Re)Sampling Parameters
 3359.00                                 [l_ini (A)]
 6428.00                                 [l_fin (A)]
    1.00                                 [dl    (A)]     (OBS: dl_cushion =    50.00 A)

## Normalization info
 4020.00                                 [l_norm (A) - for base]
 4010.00                                 [llow_norm (A) - window for f_obs]
 4060.00                                 [lupp_norm (A) - window for f_obs]
6.411706E-14                             [fobs_norm (in input units)]

## S/N
 4730.00                                 [llow_SN (A) - window for S/N]
 4780.00                                 [lupp_SN (A) - window for S/N]
 192.615                                 [S/N in S/N window]
 195.031                                 [S/N in norm. window]
 239.554                                 [S/N_err in S/N window]
 242.560                                 [S/N_err in norm. window]
  1.0000                                 [fscale_chi2]

## etc...
  2147483588                             [idum_orig]
  3065                                   [NOl_eff]
  1238                                   [Nl_eff]
  1827    NSIGMA                         [Ntot_cliped & clip_method]
  2470860                                [Nglobal_steps]
   7                                     [N_chains]
  15                                     [NEX0s_base = N_base in EX0s-fits]
 0   0   1      254   2.0   5.109E+02    [Clip-Bug, RC-Crash & Burn-In warning-flags, n_censored_weights, wei_nsig_threshold & wei_limit]
   155    154.393    154.385      0.008  [idt_all, wdt_TotTime, wdt_UsrTime & wdt_SysTime (sec)]

## Synthesis Results - Best model ##

 2.40449E+00                             [chi2/Nl_eff]
     0.59457                             [adev (%)]

   104.00484                             [sum-of-x (%)]
 1.53055E-13                             [Flux_tot (units of input spectrum!)]
 6.97353E-10                             [Mini_tot (???)]
 3.68190E-10                             [Mcor_tot (???)]

 -53.00                                  [v0_min  (km/s)]
  88.68                                  [vd_min  (km/s)]
 0.6186                                  [AV_min  (mag)]
 0.0000                                  [YAV_min (mag)]

# j     x_j(%)      Mini_j(%)     Mcor_j(%)     age_j(yr)     Z_j      (L/M)_j    YAV?  Mstars   component_j        a/Fe...       SSP_chi2r SSP_adev(%)   SSP_AV   SSP_x(%)
  1      0.0000     0.0000E+00    0.0000E+00    1.000000E+06  0.00010  8.160E-03    0   1.0000   age020_m22            0.0000     1.2813E+03    11.2610   3.4139    76.1576
  2     34.3904     1.5250E-01    2.8883E-01    3.160000E+06  0.00010  4.759E-02    0   1.0000   age045_m22            0.0000     1.2544E+02     3.3254   1.3305    98.1016
  3      0.0000     0.0000E+00    0.0000E+00    5.010000E+06  0.00010  1.932E-02    0   0.9582   age055_m22            0.0000     1.1674E+03    11.5398   1.6960    82.2396
  4      0.0000     0.0000E+00    0.0000E+00    6.610000E+06  0.00010  9.973E-03    0   0.9297   age061_m22            0.0000     1.2598E+03    11.6103   3.3696    78.8647
  5      0.0000     0.0000E+00    0.0000E+00    8.710000E+06  0.00010  7.690E-03    0   0.9030   age067_m22            0.0000     1.1921E+03    11.2629   3.3614    79.3520
  6      0.0000     0.0000E+00    0.0000E+00    1.000000E+07  0.00010  6.375E-03    0   0.8902   age070_m22            0.0000     1.1370E+03    10.9558   3.3747    79.5877
  7      0.0000     0.0000E+00    0.0000E+00    1.445000E+07  0.00010  4.874E-03    0   0.8589   age078_m22            0.0000     8.2691E+02     9.2298   3.1858    82.8244
  8      0.0000     0.0000E+00    0.0000E+00    2.512000E+07  0.00010  4.103E-03    0   0.8174   age090_m22            0.0000     2.8355E+02     5.3573   2.7480    90.4982
  9      0.0000     0.0000E+00    0.0000E+00    4.000000E+07  0.00010  3.654E-03    0   0.7830   age104_m22            0.0000     6.0640E+01     2.3448   2.4177    96.6334
 10      0.0000     0.0000E+00    0.0000E+00    5.500000E+07  0.00010  3.093E-03    0   0.7597   age110_m22            0.0000     3.6572E+01     1.6500   2.3053    98.6665
 11      8.4592     7.3432E-01    9.9275E-01    1.015200E+08  0.00010  2.431E-03    0   0.7138   age116_m22            0.0000     6.9697E+01     1.9458   1.9408   102.3344
 12      0.0000     0.0000E+00    0.0000E+00    1.609000E+08  0.00010  1.319E-03    0   0.6775   age120_m22            0.0000     7.8327E+01     2.0785   1.4680   104.4276
 13      0.0000     0.0000E+00    0.0000E+00    2.861200E+08  0.00010  1.075E-03    0   0.6412   age125_m22            0.0000     5.5689E+02     6.6907   1.4936   109.9407
 14      0.0000     0.0000E+00    0.0000E+00    5.088000E+08  0.00010  7.183E-04    0   0.6083   age130_m22            0.0000     7.7943E+02     8.0820   1.2528   112.1692
 15      0.0000     0.0000E+00    0.0000E+00    9.047900E+08  0.00010  4.524E-04    0   0.5785   age135_m22            0.0000     8.0889E+02     8.3444   1.0560   113.4468
 16      0.0000     0.0000E+00    0.0000E+00    1.278050E+09  0.00010  3.018E-04    0   0.5588   age138_m22            0.0000     2.8641E+02     5.2637   0.5476   110.1666
 17      0.0000     0.0000E+00    0.0000E+00    1.434000E+09  0.00010  2.691E-04    0   0.5532   age139_m22            0.0000     2.1382E+02     4.6633   0.3983   109.2337
 18      0.0161     2.1442E-02    2.1508E-02    2.500000E+09  0.00010  1.582E-04    0   0.5296   age150_m22            0.0000     1.5005E+02     3.7607   0.2908   109.7245
 19      0.0000     0.0000E+00    0.0000E+00    4.250000E+09  0.00010  1.007E-04    0   0.5110   age158_m22            0.0000     5.0641E+01     2.2935   0.1549   107.1578
 20      1.1800     3.6251E+00    3.4227E+00    6.250000E+09  0.00010  6.869E-05    0   0.4985   age166_m22            0.0000     2.7737E+01     1.4371   0.1151   103.4656
 21      0.0000     0.0000E+00    0.0000E+00    7.500000E+09  0.00010  5.873E-05    0   0.4931   age171_m22            0.0000     2.8812E+01     1.3119   0.1064   102.7428
 22      0.0000     0.0000E+00    0.0000E+00    1.000000E+10  0.00010  4.481E-05    0   0.4854   age181_m22            0.0000     3.0746E+01     1.3489   0.0684   102.3412
 23      2.3728     1.4351E+01    1.3023E+01    1.300000E+10  0.00010  3.489E-05    0   0.4791   age193_m22            0.0000     3.6746E+01     1.4445   0.0129   101.6940
 24      0.0000     0.0000E+00    0.0000E+00    1.500000E+10  0.00010  3.035E-05    0   0.4766   age201_m22            0.0000     4.0330E+01     1.4889  -0.0259   101.4420
 25      0.0000     0.0000E+00    0.0000E+00    1.800000E+10  0.00010  2.510E-05    0   0.4735   age213_m22            0.0000     5.1554E+01     1.6012  -0.0920   100.6567
 26      0.0000     0.0000E+00    0.0000E+00    1.000000E+06  0.00040  8.458E-03    0   1.0000   age020_m32            0.0000     1.2653E+03    11.3025   3.4295    76.7715
 27      0.0000     0.0000E+00    0.0000E+00    3.160000E+06  0.00040  3.973E-02    0   1.0000   age045_m32            0.0000     3.3468E+02     5.8406   2.6393    90.4885
 28      0.0000     0.0000E+00    0.0000E+00    5.010000E+06  0.00040  1.935E-02    0   0.9532   age055_m32            0.0000     9.1593E+02    10.1328   2.8996    83.2048
 29      0.0000     0.0000E+00    0.0000E+00    6.610000E+06  0.00040  1.204E-02    0   0.9243   age061_m32            0.0000     1.0347E+03    10.4940   3.2231    81.1117
 30      0.0000     0.0000E+00    0.0000E+00    8.710000E+06  0.00040  9.433E-03    0   0.9001   age067_m32            0.0000     9.1722E+02     9.8321   3.1924    82.1712
 31      0.0000     0.0000E+00    0.0000E+00    1.000000E+07  0.00040  8.053E-03    0   0.8877   age070_m32            0.0000     8.7247E+02     9.5669   3.1551    82.6922
 32      0.0000     0.0000E+00    0.0000E+00    1.445000E+07  0.00040  7.027E-03    0   0.8578   age078_m32            0.0000     4.5999E+02     7.1098   2.6082    88.7257
 33      0.0000     0.0000E+00    0.0000E+00    2.512000E+07  0.00040  4.707E-03    0   0.8166   age090_m32            0.0000     2.1371E+02     4.8550   2.2957    93.3547
 34      0.0000     0.0000E+00    0.0000E+00    4.000000E+07  0.00040  3.714E-03    0   0.7827   age104_m32            0.0000     6.0807E+01     2.5187   2.0710    97.7267
 35      0.0166     1.1746E-03    1.6892E-03    5.500000E+07  0.00040  2.982E-03    0   0.7593   age110_m32            0.0000     3.5343E+01     1.7310   2.0015    99.3422
 36      0.1798     1.7345E-02    2.3465E-02    1.015200E+08  0.00040  2.188E-03    0   0.7143   age116_m32            0.0000     1.7225E+02     3.4751   1.7006   105.3304
 37      5.1712     6.4572E-01    8.3849E-01    1.609000E+08  0.00040  1.690E-03    0   0.6856   age120_m32            0.0000     3.8444E+02     5.2670   1.4744   108.8747
 38      0.5051     9.2521E-02    1.1406E-01    2.861200E+08  0.00040  1.152E-03    0   0.6509   age125_m32            0.0000     6.1322E+02     7.0775   1.2410   111.2968
 39      0.3752     1.0801E-01    1.2647E-01    5.088000E+08  0.00040  7.331E-04    0   0.6182   age130_m32            0.0000     7.2200E+02     7.8882   1.0742   112.2288
 40      0.0000     0.0000E+00    0.0000E+00    9.047900E+08  0.00040  3.960E-04    0   0.5890   age135_m32            0.0000     3.2628E+02     5.9233   0.6417   109.5126
 41      0.0000     0.0000E+00    0.0000E+00    1.278050E+09  0.00040  2.854E-04    0   0.5687   age138_m32            0.0000     2.0344E+02     4.4695   0.3527   110.9928
 42      0.0000     0.0000E+00    0.0000E+00    1.434000E+09  0.00040  2.531E-04    0   0.5632   age139_m32            0.0000     1.9258E+02     4.3018   0.2912   110.9260
 43     41.8738     5.9386E+01    6.0580E+01    2.500000E+09  0.00040  1.488E-04    0   0.5386   age150_m32            0.0000     1.0959E+02     3.4526   0.0413   108.6318
 44      8.9530     2.0803E+01    2.0485E+01    4.250000E+09  0.00040  9.082E-05    0   0.5199   age158_m32            0.0000     3.7815E+01     1.8553  -0.0323   103.8456
 45      0.0000     0.0000E+00    0.0000E+00    6.250000E+09  0.00040  6.362E-05    0   0.5076   age166_m32            0.0000     1.0923E+02     2.0797  -0.0507    99.2354
 46      0.0000     0.0000E+00    0.0000E+00    7.500000E+09  0.00040  5.289E-05    0   0.5027   age171_m32            0.0000     1.4041E+02     2.3172  -0.0827    97.7764
 47      0.0000     0.0000E+00    0.0000E+00    1.000000E+10  0.00040  3.972E-05    0   0.4948   age181_m32            0.0000     1.6772E+02     2.4950  -0.1413    96.3110
 48      0.0000     0.0000E+00    0.0000E+00    1.300000E+10  0.00040  3.283E-05    0   0.4870   age193_m32            0.0000     9.3938E+01     2.1206  -0.1991    99.6397
 49      0.0000     0.0000E+00    0.0000E+00    1.500000E+10  0.00040  2.925E-05    0   0.4854   age201_m32            0.0000     6.7142E+01     2.0741  -0.2256   101.5983
 50      0.0000     0.0000E+00    0.0000E+00    1.800000E+10  0.00040  2.469E-05    0   0.4819   age213_m32            0.0000     6.2795E+01     2.1648  -0.2702   102.2561
 51      0.0000     0.0000E+00    0.0000E+00    1.000000E+06  0.00400  1.114E-02    0   1.0000   age020_m42            0.0000     1.2221E+03    10.9846   3.3591    77.2373
 52      0.0000     0.0000E+00    0.0000E+00    3.160000E+06  0.00400  4.073E-02    0   0.9999   age045_m42            0.0000     2.0094E+02     4.3129   2.3208    93.7108
 53      0.0000     0.0000E+00    0.0000E+00    5.010000E+06  0.00400  2.534E-02    0   0.9488   age055_m42            0.0000     6.0126E+02     7.7371   2.7643    86.0462
 54      0.0002     1.9729E-06    3.4451E-06    6.610000E+06  0.00400  2.583E-02    0   0.9220   age061_m42            0.0000     1.1960E+02     3.2747   2.1300    94.9212
 55      0.0000     0.0000E+00    0.0000E+00    8.710000E+06  0.00400  1.706E-02    0   0.8983   age067_m42            0.0000     3.0771E+02     5.8089   1.9705    92.0078
 56      0.0000     0.0000E+00    0.0000E+00    1.000000E+07  0.00400  1.271E-02    0   0.8862   age070_m42            0.0000     4.9484E+02     7.6164   1.9645    89.8943
 57      0.0000     0.0000E+00    0.0000E+00    1.445000E+07  0.00400  7.666E-03    0   0.8571   age078_m42            0.0000     7.1583E+02     8.7745   2.3903    86.0563
 58      0.0000     0.0000E+00    0.0000E+00    2.512000E+07  0.00400  5.070E-03    0   0.8174   age090_m42            0.0000     4.2779E+02     6.9963   1.8299    91.5687
 59      0.0000     0.0000E+00    0.0000E+00    4.000000E+07  0.00400  3.505E-03    0   0.7851   age104_m42            0.0000     2.3803E+02     4.8860   1.4968    95.0999
 60      0.0000     0.0000E+00    0.0000E+00    5.500000E+07  0.00400  3.059E-03    0   0.7629   age110_m42            0.0000     2.6350E+01     1.4807   1.5182   101.6399
 61      0.0000     0.0000E+00    0.0000E+00    1.015200E+08  0.00400  2.268E-03    0   0.7207   age116_m42            0.0000     3.2145E+02     5.2018   1.3872   109.2216
 62      0.0000     0.0000E+00    0.0000E+00    1.609000E+08  0.00400  1.720E-03    0   0.6930   age120_m42            0.0000     3.9818E+02     6.0354   1.2410   111.2238
 63      0.0000     0.0000E+00    0.0000E+00    2.861200E+08  0.00400  1.079E-03    0   0.6613   age125_m42            0.0000     4.1996E+02     6.1976   0.8934   111.3472
 64      0.0000     0.0000E+00    0.0000E+00    5.088000E+08  0.00400  6.261E-04    0   0.6313   age130_m42            0.0000     5.3469E+02     6.8218   0.6924   114.7350
 65      0.0000     0.0000E+00    0.0000E+00    9.047900E+08  0.00400  3.535E-04    0   0.6024   age135_m42            0.0000     2.7806E+02     5.3473   0.3070   113.9507
 66      0.0000     0.0000E+00    0.0000E+00    1.278050E+09  0.00400  2.677E-04    0   0.5837   age138_m42            0.0000     2.8342E+02     5.6230  -0.3503   109.1786
 67      0.0000     0.0000E+00    0.0000E+00    1.434000E+09  0.00400  1.910E-04    0   0.5716   age139_m42            0.0000     2.3491E+02     5.4165  -0.1932   110.8001
 68      0.0000     0.0000E+00    0.0000E+00    2.500000E+09  0.00400  9.818E-05    0   0.5463   age150_m42            0.0000     3.1721E+02     5.2086  -0.4265   104.0429
 69      0.0000     0.0000E+00    0.0000E+00    4.250000E+09  0.00400  5.491E-05    0   0.5269   age158_m42            0.0000     4.2442E+02     5.2762  -0.5310   100.2876
 70      0.0000     0.0000E+00    0.0000E+00    6.250000E+09  0.00400  3.857E-05    0   0.5151   age166_m42            0.0000     5.4317E+02     5.9066  -0.6482    98.5089
 71      0.0000     0.0000E+00    0.0000E+00    7.500000E+09  0.00400  3.243E-05    0   0.5110   age171_m42            0.0000     6.2039E+02     6.3088  -0.7214    97.7169
 72      0.0000     0.0000E+00    0.0000E+00    1.000000E+10  0.00400  2.424E-05    0   0.5028   age181_m42            0.0000     7.3218E+02     6.8089  -0.7933    96.7594
 73      0.0000     0.0000E+00    0.0000E+00    1.300000E+10  0.00400  1.883E-05    0   0.4927   age193_m42            0.0000     8.2276E+02     7.1183  -0.8266    96.1448
 74      0.0000     0.0000E+00    0.0000E+00    1.500000E+10  0.00400  1.685E-05    0   0.4919   age201_m42            0.0000     7.9509E+02     6.9884  -0.8235    96.2045
 75      0.0000     0.0000E+00    0.0000E+00    1.800000E+10  0.00400  1.452E-05    0   0.4874   age213_m42            0.0000     7.4684E+02     6.7720  -0.8123    96.5660
 76      0.0000     0.0000E+00    0.0000E+00    1.000000E+06  0.00800  1.286E-02    0   1.0000   age020_m52            0.0000     1.0685E+03    10.2420   3.3304    79.1839
 77      0.0000     0.0000E+00    0.0000E+00    3.160000E+06  0.00800  3.147E-02    0   0.9966   age045_m52            0.0000     1.0153E+03    10.1101   3.2395    80.7598
 78      0.0000     0.0000E+00    0.0000E+00    5.010000E+06  0.00800  2.664E-02    0   0.9443   age055_m52            0.0000     7.1118E+02     8.2712   2.8959    84.7148
 79      0.0000     0.0000E+00    0.0000E+00    6.610000E+06  0.00800  2.151E-02    0   0.9177   age061_m52            0.0000     4.8308E+02     6.7389   1.5589    91.3974
 80      0.0000     0.0000E+00    0.0000E+00    8.710000E+06  0.00800  1.628E-02    0   0.8948   age067_m52            0.0000     3.7431E+02     6.3959   1.9276    92.1283
 81      0.0000     0.0000E+00    0.0000E+00    1.000000E+07  0.00800  1.215E-02    0   0.8827   age070_m52            0.0000     4.6833E+02     7.2055   2.2793    89.9932
 82      0.0000     0.0000E+00    0.0000E+00    1.445000E+07  0.00800  8.739E-03    0   0.8552   age078_m52            0.0000     3.3306E+02     5.9892   2.3090    91.8549
 83      0.0000     0.0000E+00    0.0000E+00    2.512000E+07  0.00800  5.676E-03    0   0.8162   age090_m52            0.0000     1.2653E+02     3.8993   1.8759    97.7793
 84      0.0000     0.0000E+00    0.0000E+00    4.000000E+07  0.00800  3.939E-03    0   0.7841   age104_m52            0.0000     5.5515E+01     2.3022   1.7014   101.0512
 85      0.0000     0.0000E+00    0.0000E+00    5.500000E+07  0.00800  3.155E-03    0   0.7627   age110_m52            0.0000     5.5138E+01     1.6392   1.6616   103.4491
 86      0.0000     0.0000E+00    0.0000E+00    1.015200E+08  0.00800  2.206E-03    0   0.7226   age116_m52            0.0000     1.8985E+02     3.9421   1.4561   108.4967
 87      0.0000     0.0000E+00    0.0000E+00    1.609000E+08  0.00800  1.596E-03    0   0.6963   age120_m52            0.0000     2.8460E+02     5.0594   1.2365   110.4875
 88      0.0000     0.0000E+00    0.0000E+00    2.861200E+08  0.00800  1.002E-03    0   0.6665   age125_m52            0.0000     6.0471E+02     7.6796   0.9240   114.1369
 89      0.0000     0.0000E+00    0.0000E+00    5.088000E+08  0.00800  5.759E-04    0   0.6377   age130_m52            0.0000     7.2021E+02     8.8026   0.5631   118.6090
 90      0.0000     0.0000E+00    0.0000E+00    9.047900E+08  0.00800  2.972E-04    0   0.6086   age135_m52            0.0000     4.7443E+02     7.8480   0.0536   115.8406
 91      0.0000     0.0000E+00    0.0000E+00    1.278050E+09  0.00800  2.242E-04    0   0.5907   age138_m52            0.0000     4.4483E+02     6.7812  -0.5195   111.8302
 92      0.0000     0.0000E+00    0.0000E+00    1.434000E+09  0.00800  1.645E-04    0   0.5787   age139_m52            0.0000     3.6726E+02     6.1732  -0.3695   111.1769
 93      0.0000     0.0000E+00    0.0000E+00    2.500000E+09  0.00800  7.723E-05    0   0.5519   age150_m52            0.0000     5.4846E+02     6.5805  -0.6754   105.7507
 94      0.0000     0.0000E+00    0.0000E+00    4.250000E+09  0.00800  4.151E-05    0   0.5320   age158_m52            0.0000     6.0223E+02     6.5796  -0.7345   102.7334
 95      0.0000     0.0000E+00    0.0000E+00    6.250000E+09  0.00800  3.010E-05    0   0.5197   age166_m52            0.0000     8.0949E+02     7.4349  -0.9141   100.7149
 96      0.0000     0.0000E+00    0.0000E+00    7.500000E+09  0.00800  2.467E-05    0   0.5139   age171_m52            0.0000     8.6796E+02     7.6850  -0.9524   100.1894
 97      0.0000     0.0000E+00    0.0000E+00    1.000000E+10  0.00800  1.862E-05    0   0.5054   age181_m52            0.0000     1.0590E+03     7.9179  -1.0000    97.8085
