###################################################################
## OUTPUT of StarlightChains_v04.for    [Cid@UFSC - 01/Apr/2007] ##
###################################################################

## Some input info
NGC7089_a_1.cxt                          [arq_obs]
Base.BC03.S                              [arq_base]
NGC7089_a_1.msk                          [arq_masks]
StCv04.C99.config                        [arq_config]
  150                                    [N_base]
    0                                    [N_YAV_components = # of components with extra extinction!]
    0                                    [i_FitPowerLaw (1/0 = Yes/No)]
-9.99                                    [alpha_PowerLaw]
CCM                                      [red_law_option]
 1.458241                                [q_norm = A(l_norm)/A(V)]

## (Re)Sampling Parameters
 3359.00                                 [l_ini (A)]
 6428.00                                 [l_fin (A)]
    1.00                                 [dl    (A)]     (OBS: dl_cushion =    50.00 A)

## Normalization info
 4020.00                                 [l_norm (A) - for base]
 4010.00                                 [llow_norm (A) - window for f_obs]
 4060.00                                 [lupp_norm (A) - window for f_obs]
7.608305E-14                             [fobs_norm (in input units)]

## S/N
 4730.00                                 [llow_SN (A) - window for S/N]
 4780.00                                 [lupp_SN (A) - window for S/N]
 117.458                                 [S/N in S/N window]
 112.425                                 [S/N in norm. window]
 300.443                                 [S/N_err in S/N window]
 287.568                                 [S/N_err in norm. window]
  1.0000                                 [fscale_chi2]

## etc...
  2147483586                             [idum_orig]
  3066                                   [NOl_eff]
   690                                   [Nl_eff]
  2376    NSIGMA                         [Ntot_cliped & clip_method]
  2672460                                [Nglobal_steps]
   7                                     [N_chains]
  15                                     [NEX0s_base = N_base in EX0s-fits]
 0   0   1      249   2.0   6.084E+02    [Clip-Bug, RC-Crash & Burn-In warning-flags, n_censored_weights, wei_nsig_threshold & wei_limit]
   113    112.265    112.253      0.012  [idt_all, wdt_TotTime, wdt_UsrTime & wdt_SysTime (sec)]

## Synthesis Results - Best model ##

 2.55827E+00                             [chi2/Nl_eff]
     0.65869                             [adev (%)]

   102.25357                             [sum-of-x (%)]
 9.36171E-14                             [Flux_tot (units of input spectrum!)]
 8.92571E-10                             [Mini_tot (???)]
 4.69440E-10                             [Mcor_tot (???)]

 -18.30                                  [v0_min  (km/s)]
  58.59                                  [vd_min  (km/s)]
 0.1378                                  [AV_min  (mag)]
 0.0000                                  [YAV_min (mag)]

# j     x_j(%)      Mini_j(%)     Mcor_j(%)     age_j(yr)     Z_j      (L/M)_j    YAV?  Mstars   component_j        a/Fe...       SSP_chi2r SSP_adev(%)   SSP_AV   SSP_x(%)
  1      0.0000     0.0000E+00    0.0000E+00    1.000000E+06  0.00010  8.160E-03    0   1.0000   age020_m22            0.0000     2.4363E+03    15.7716   3.6978    75.1326
  2     15.4055     3.3204E-02    6.3133E-02    3.160000E+06  0.00010  4.759E-02    0   1.0000   age045_m22            0.0000     3.0989E+02     5.7738   1.5470    96.3056
  3      0.0000     0.0000E+00    0.0000E+00    5.010000E+06  0.00010  1.932E-02    0   0.9582   age055_m22            0.0000     2.1608E+03    14.9278   1.9860    81.1788
  4      0.0000     0.0000E+00    0.0000E+00    6.610000E+06  0.00010  9.973E-03    0   0.9297   age061_m22            0.0000     2.3834E+03    15.7382   3.6547    77.9536
  5      0.0000     0.0000E+00    0.0000E+00    8.710000E+06  0.00010  7.690E-03    0   0.9030   age067_m22            0.0000     2.2529E+03    15.3314   3.6441    78.4263
  6      0.0000     0.0000E+00    0.0000E+00    1.000000E+07  0.00010  6.375E-03    0   0.8902   age070_m22            0.0000     2.1414E+03    14.9695   3.6547    78.6712
  7      0.0000     0.0000E+00    0.0000E+00    1.445000E+07  0.00010  4.874E-03    0   0.8589   age078_m22            0.0000     1.5779E+03    13.0539   3.4464    81.8068
  8      0.0000     0.0000E+00    0.0000E+00    2.512000E+07  0.00010  4.103E-03    0   0.8174   age090_m22            0.0000     6.5756E+02     8.9430   2.9727    89.1348
  9      0.0000     0.0000E+00    0.0000E+00    4.000000E+07  0.00010  3.654E-03    0   0.7830   age104_m22            0.0000     3.3132E+02     5.9625   2.6068    95.0595
 10      0.0000     0.0000E+00    0.0000E+00    5.500000E+07  0.00010  3.093E-03    0   0.7597   age110_m22            0.0000     2.9460E+02     5.0413   2.4752    97.1374
 11      0.0000     0.0000E+00    0.0000E+00    1.015200E+08  0.00010  2.431E-03    0   0.7138   age116_m22            0.0000     3.9199E+02     4.6616   2.0910   100.7851
 12      0.0000     0.0000E+00    0.0000E+00    1.609000E+08  0.00010  1.319E-03    0   0.6775   age120_m22            0.0000     3.7886E+02     4.2690   1.6001   103.1550
 13      0.0000     0.0000E+00    0.0000E+00    2.861200E+08  0.00010  1.075E-03    0   0.6412   age125_m22            0.0000     1.3792E+03     8.4861   1.5603   108.9638
 14      0.0000     0.0000E+00    0.0000E+00    5.088000E+08  0.00010  7.183E-04    0   0.6083   age130_m22            0.0000     1.8204E+03    10.1882   1.2972   111.2787
 15      0.0000     0.0000E+00    0.0000E+00    9.047900E+08  0.00010  4.524E-04    0   0.5785   age135_m22            0.0000     1.8713E+03    10.3963   1.0930   112.5439
 16      0.0000     0.0000E+00    0.0000E+00    1.278050E+09  0.00010  3.018E-04    0   0.5588   age138_m22            0.0000     7.2489E+02     6.4325   0.6191   109.1648
 17      0.0000     0.0000E+00    0.0000E+00    1.434000E+09  0.00010  2.691E-04    0   0.5532   age139_m22            0.0000     5.4960E+02     5.6030   0.4745   108.2421
 18      0.0000     0.0000E+00    0.0000E+00    2.500000E+09  0.00010  1.582E-04    0   0.5296   age150_m22            0.0000     4.4537E+02     4.7883   0.3871   108.4770
 19      0.0000     0.0000E+00    0.0000E+00    4.250000E+09  0.00010  1.007E-04    0   0.5110   age158_m22            0.0000     1.6469E+02     2.9022   0.2679   105.9751
 20      0.0000     0.0000E+00    0.0000E+00    6.250000E+09  0.00010  6.869E-05    0   0.4985   age166_m22            0.0000     3.5111E+01     1.5720   0.2419   102.4565
 21      0.0281     4.9037E-02    4.5975E-02    7.500000E+09  0.00010  5.873E-05    0   0.4931   age171_m22            0.0000     3.6546E+01     1.7473   0.2411   101.7149
 22      0.2877     6.5862E-01    6.0785E-01    1.000000E+10  0.00010  4.481E-05    0   0.4854   age181_m22            0.0000     3.2767E+01     1.6783   0.2027   101.3277
 23      0.5285     1.5537E+00    1.4153E+00    1.300000E+10  0.00010  3.489E-05    0   0.4791   age193_m22            0.0000     2.5425E+01     1.5313   0.1456   100.7288
 24      1.4669     4.9575E+00    4.4924E+00    1.500000E+10  0.00010  3.035E-05    0   0.4766   age201_m22            0.0000     2.3215E+01     1.4942   0.1072   100.4853
 25      0.0000     0.0000E+00    0.0000E+00    1.800000E+10  0.00010  2.510E-05    0   0.4735   age213_m22            0.0000     2.3471E+01     1.5497   0.0421    99.7348
 26      0.0000     0.0000E+00    0.0000E+00    1.000000E+06  0.00040  8.458E-03    0   1.0000   age020_m32            0.0000     2.3896E+03    15.6416   3.7118    75.8261
 27      0.0000     0.0000E+00    0.0000E+00    3.160000E+06  0.00040  3.973E-02    0   1.0000   age045_m32            0.0000     7.6056E+02     9.4033   2.8795    88.9397
 28      0.0000     0.0000E+00    0.0000E+00    5.010000E+06  0.00040  1.935E-02    0   0.9532   age055_m32            0.0000     1.7865E+03    13.9989   3.1763    82.0215
 29      0.0000     0.0000E+00    0.0000E+00    6.610000E+06  0.00040  1.204E-02    0   0.9243   age061_m32            0.0000     1.9817E+03    14.4862   3.4989    80.0806
 30      0.0000     0.0000E+00    0.0000E+00    8.710000E+06  0.00040  9.433E-03    0   0.9001   age067_m32            0.0000     1.7660E+03    13.7513   3.4619    81.1023
 31      0.0000     0.0000E+00    0.0000E+00    1.000000E+07  0.00040  8.053E-03    0   0.8877   age070_m32            0.0000     1.6844E+03    13.4596   3.4235    81.5825
 32      0.0000     0.0000E+00    0.0000E+00    1.445000E+07  0.00040  7.027E-03    0   0.8578   age078_m32            0.0000     9.8340E+02    10.7670   2.8552    87.2926
 33      0.0000     0.0000E+00    0.0000E+00    2.512000E+07  0.00040  4.707E-03    0   0.8166   age090_m32            0.0000     5.5038E+02     8.3295   2.5136    91.8662
 34      0.0000     0.0000E+00    0.0000E+00    4.000000E+07  0.00040  3.714E-03    0   0.7827   age104_m32            0.0000     3.1995E+02     5.9995   2.2632    96.1124
 35      0.0000     0.0000E+00    0.0000E+00    5.500000E+07  0.00040  2.982E-03    0   0.7593   age110_m32            0.0000     2.9304E+02     5.2877   2.1788    97.7539
 36      0.0000     0.0000E+00    0.0000E+00    1.015200E+08  0.00040  2.188E-03    0   0.7143   age116_m32            0.0000     5.9451E+02     5.2133   1.8225   103.9101
 37      0.0000     0.0000E+00    0.0000E+00    1.609000E+08  0.00040  1.690E-03    0   0.6856   age120_m32            0.0000     1.0375E+03     6.9944   1.5690   107.5877
 38      0.0000     0.0000E+00    0.0000E+00    2.861200E+08  0.00040  1.152E-03    0   0.6509   age125_m32            0.0000     1.4948E+03     8.9896   1.3036   110.2730
 39      0.0000     0.0000E+00    0.0000E+00    5.088000E+08  0.00040  7.331E-04    0   0.6182   age130_m32            0.0000     1.6829E+03     9.8259   1.1196   111.3198
 40      0.0000     0.0000E+00    0.0000E+00    9.047900E+08  0.00040  3.960E-04    0   0.5890   age135_m32            0.0000     7.7185E+02     6.8458   0.6956   108.6866
 41      0.2413     8.6714E-02    9.3764E-02    1.278050E+09  0.00040  2.854E-04    0   0.5687   age138_m32            0.0000     5.4680E+02     5.3973   0.4387   109.7723
 42      0.0000     0.0000E+00    0.0000E+00    1.434000E+09  0.00040  2.531E-04    0   0.5632   age139_m32            0.0000     5.2644E+02     5.2868   0.3805   109.6792
 43     11.0688     7.6301E+00    7.8138E+00    2.500000E+09  0.00040  1.488E-04    0   0.5386   age150_m32            0.0000     2.8835E+02     3.9475   0.1375   107.5265
 44     50.3885     5.6909E+01    5.6256E+01    4.250000E+09  0.00040  9.082E-05    0   0.5199   age158_m32            0.0000     2.0172E+01     1.1603   0.0870   102.8904
 45      0.1491     2.4033E-01    2.3195E-01    6.250000E+09  0.00040  6.362E-05    0   0.5076   age166_m32            0.0000     6.8399E+01     2.4265   0.0933    98.3599
 46      0.2676     5.1893E-01    4.9600E-01    7.500000E+09  0.00040  5.289E-05    0   0.5027   age171_m32            0.0000     9.9521E+01     2.7700   0.0609    96.9680
 47      1.9301     4.9844E+00    4.6893E+00    1.000000E+10  0.00040  3.972E-05    0   0.4948   age181_m32            0.0000     1.2228E+02     2.8609  -0.0038    95.6041
 48      0.2646     8.2657E-01    7.6537E-01    1.300000E+10  0.00040  3.283E-05    0   0.4870   age193_m32            0.0000     2.9322E+01     1.4914  -0.0728    98.8064
 49      0.0000     0.0000E+00    0.0000E+00    1.500000E+10  0.00040  2.925E-05    0   0.4854   age201_m32            0.0000     9.4648E+00     0.9864  -0.1054   100.6912
 50      0.0000     0.0000E+00    0.0000E+00    1.800000E+10  0.00040  2.469E-05    0   0.4819   age213_m32            0.0000     9.4184E+00     0.9812  -0.1536   101.3311
 51      0.0000     0.0000E+00    0.0000E+00    1.000000E+06  0.00400  1.114E-02    0   1.0000   age020_m42            0.0000     2.2971E+03    15.2703   3.6364    76.2863
 52      0.0000     0.0000E+00    0.0000E+00    3.160000E+06  0.00400  4.073E-02    0   0.9999   age045_m42            0.0000     4.8352E+02     7.4576   2.5484    92.0590
 53      0.0000     0.0000E+00    0.0000E+00    5.010000E+06  0.00400  2.534E-02    0   0.9488   age055_m42            0.0000     1.1914E+03    11.4056   3.0156    84.7576
 54      0.0000     0.0000E+00    0.0000E+00    6.610000E+06  0.00400  2.583E-02    0   0.9220   age061_m42            0.0000     3.7076E+02     6.6253   2.3392    93.2307
 55      0.0000     0.0000E+00    0.0000E+00    8.710000E+06  0.00400  1.706E-02    0   0.8983   age067_m42            0.0000     6.7770E+02     9.0426   2.2039    90.3726
 56      0.0000     0.0000E+00    0.0000E+00    1.000000E+07  0.00400  1.271E-02    0   0.8862   age070_m42            0.0000     9.9419E+02    10.9128   2.2158    88.3125
 57      0.0000     0.0000E+00    0.0000E+00    1.445000E+07  0.00400  7.666E-03    0   0.8571   age078_m42            0.0000     1.3486E+03    12.3016   2.6401    84.8340
 58      0.0000     0.0000E+00    0.0000E+00    2.512000E+07  0.00400  5.070E-03    0   0.8174   age090_m42            0.0000     8.4213E+02    10.0120   2.0687    90.0719
 59      0.0000     0.0000E+00    0.0000E+00    4.000000E+07  0.00400  3.505E-03    0   0.7851   age104_m42            0.0000     4.9570E+02     7.4927   1.7110    93.5471
 60      0.0000     0.0000E+00    0.0000E+00    5.500000E+07  0.00400  3.059E-03    0   0.7629   age110_m42            0.0000     2.0887E+02     3.9899   1.6791   100.0771
 61      0.0000     0.0000E+00    0.0000E+00    1.015200E+08  0.00400  2.268E-03    0   0.7207   age116_m42            0.0000     8.6060E+02     6.4367   1.4767   107.9282
 62      0.0000     0.0000E+00    0.0000E+00    1.609000E+08  0.00400  1.720E-03    0   0.6930   age120_m42            0.0000     9.8909E+02     7.2242   1.3155   110.0139
 63      0.0000     0.0000E+00    0.0000E+00    2.861200E+08  0.00400  1.079E-03    0   0.6613   age125_m42            0.0000     1.0339E+03     7.8407   0.9601   110.2794
 64      0.0000     0.0000E+00    0.0000E+00    5.088000E+08  0.00400  6.261E-04    0   0.6313   age130_m42            0.0000     1.2869E+03     8.6127   0.7587   113.3464
 65      0.0000     0.0000E+00    0.0000E+00    9.047900E+08  0.00400  3.535E-04    0   0.6024   age135_m42            0.0000     6.3815E+02     6.4325   0.3864   112.4613
 66      0.0000     0.0000E+00    0.0000E+00    1.278050E+09  0.00400  2.677E-04    0   0.5837   age138_m42            0.0000     2.6765E+02     5.4587  -0.2935   108.1978
 67      0.0000     0.0000E+00    0.0000E+00    1.434000E+09  0.00400  1.910E-04    0   0.5716   age139_m42            0.0000     2.7500E+02     5.3210  -0.1346   109.7009
 68     13.4727     1.4076E+01    1.4620E+01    2.500000E+09  0.00400  9.818E-05    0   0.5463   age150_m42            0.0000     2.1044E+02     4.6395  -0.3597   103.2832
 69      0.0000     0.0000E+00    0.0000E+00    4.250000E+09  0.00400  5.491E-05    0   0.5269   age158_m42            0.0000     3.3396E+02     5.0378  -0.4551    99.6767
 70      0.0000     0.0000E+00    0.0000E+00    6.250000E+09  0.00400  3.857E-05    0   0.5151   age166_m42            0.0000     4.8920E+02     5.9186  -0.5824    98.0290
 71      0.0000     0.0000E+00    0.0000E+00    7.500000E+09  0.00400  3.243E-05    0   0.5110   age171_m42            0.0000     5.9162E+02     6.4810  -0.6642    97.3490
 72      0.0000     0.0000E+00    0.0000E+00    1.000000E+10  0.00400  2.424E-05    0   0.5028   age181_m42            0.0000     7.4676E+02     7.2297  -0.7453    96.5437
 73      0.0000     0.0000E+00    0.0000E+00    1.300000E+10  0.00400  1.883E-05    0   0.4927   age193_m42            0.0000     8.8137E+02     7.7839  -0.7826    96.0520
 74      0.0000     0.0000E+00    0.0000E+00    1.500000E+10  0.00400  1.685E-05    0   0.4919   age201_m42            0.0000     8.4670E+02     7.6044  -0.7771    96.0888
 75      0.0000     0.0000E+00    0.0000E+00    1.800000E+10  0.00400  1.452E-05    0   0.4874   age213_m42            0.0000     7.8282E+02     7.2879  -0.7604    96.3825
 76      0.0000     0.0000E+00    0.0000E+00    1.000000E+06  0.00800  1.286E-02    0   1.0000   age020_m52            0.0000     2.0280E+03    14.3406   3.6053    78.2153
 77      0.0000     0.0000E+00    0.0000E+00    3.160000E+06  0.00800  3.147E-02    0   0.9966   age045_m52            0.0000     1.9409E+03    14.1027   3.5085    79.7809
 78      0.0000     0.0000E+00    0.0000E+00    5.010000E+06  0.00800  2.664E-02    0   0.9443   age055_m52            0.0000     1.4022E+03    12.0859   3.1467    83.5477
 79      0.0000     0.0000E+00    0.0000E+00    6.610000E+06  0.00800  2.151E-02    0   0.9177   age061_m52            0.0000     8.7910E+02     9.3844   1.7974    89.8659
 80      0.0000     0.0000E+00    0.0000E+00    8.710000E+06  0.00800  1.628E-02    0   0.8948   age067_m52            0.0000     8.0004E+02     9.5376   2.1610    90.5816
 81      0.0000     0.0000E+00    0.0000E+00    1.000000E+07  0.00800  1.215E-02    0   0.8827   age070_m52            0.0000     1.0037E+03    10.6897   2.5159    88.5880
 82      0.0000     0.0000E+00    0.0000E+00    1.445000E+07  0.00800  8.739E-03    0   0.8552   age078_m52            0.0000     7.8990E+02     9.5624   2.5374    90.3253
 83      0.0000     0.0000E+00    0.0000E+00    2.512000E+07  0.00800  5.676E-03    0   0.8162   age090_m52            0.0000     4.6469E+02     7.3604   2.0851    95.9747
 84      0.0000     0.0000E+00    0.0000E+00    4.000000E+07  0.00800  3.939E-03    0   0.7841   age104_m52            0.0000     3.3773E+02     5.6123   1.8855    99.3196
 85      0.0000     0.0000E+00    0.0000E+00    5.500000E+07  0.00800  3.155E-03    0   0.7627   age110_m52            0.0000     3.4291E+02     4.6338   1.8206   101.7985
 86      0.0000     0.0000E+00    0.0000E+00    1.015200E+08  0.00800  2.206E-03    0   0.7226   age116_m52            0.0000     5.8567E+02     5.0575   1.5645   107.0456
 87      0.0000     0.0000E+00    0.0000E+00    1.609000E+08  0.00800  1.596E-03    0   0.6963   age120_m52            0.0000     7.6947E+02     6.1759   1.3228   109.1812
 88      0.0000     0.0000E+00    0.0000E+00    2.861200E+08  0.00800  1.002E-03    0   0.6665   age125_m52            0.0000     1.3942E+03     9.3851   0.9609   113.1141
 89      0.0000     0.0000E+00    0.0000E+00    5.088000E+08  0.00800  5.759E-04    0   0.6377   age130_m52            0.0000     1.5435E+03    10.4658   0.5753   117.4770
 90      0.0000     0.0000E+00    0.0000E+00    9.047900E+08  0.00800  2.972E-04    0   0.6086   age135_m52            0.0000     7.3327E+02     8.1684   0.0569   115.1022
 91      0.0000     0.0000E+00    0.0000E+00    1.278050E+09  0.00800  2.242E-04    0   0.5907   age138_m52            0.0000     4.0580E+02     6.6236  -0.5075   111.5247
 92      0.0000     0.0000E+00    0.0000E+00    1.434000E+09  0.00800  1.645E-04    0   0.5787   age139_m52            0.0000     3.1597E+02     5.8425  -0.3426   110.7796
 93      0.0000     0.0000E+00    0.0000E+00    2.500000E+09  0.00800  7.723E-05    0   0.5519   age150_m52            0.0000     4.5778E+02     6.4730  -0.6498   105.7041
 94      0.0000     0.0000E+00    0.0000E+00    4.250000E+09  0.00800  4.151E-05    0   0.5320   age158_m52            0.0000     5.4742E+02     6.6573  -0.6982   102.5456
 95      0.0000     0.0000E+00    0.0000E+00    6.250000E+09  0.00800  3.010E-05    0   0.5197   age166_m52            0.0000     8.0513E+02     7.8732  -0.8959   100.8394
 96      0.0000     0.0000E+00    0.0000E+00    7.500000E+09  0.00800  2.467E-05    0   0.5139   age171_m52            0.0000     8.7616E+02     8.2043  -0.9412   100.4238
 97      0.0000     0.0000E+00    0.0000E+00    1.000000E+10  0.00800  1.862E-05    0   0.5054   age181_m52            0.0000     1.1121E+03     9.2047  -1.0000    98.7865
