###################################################################
## OUTPUT of StarlightChains_v04.for    [Cid@UFSC - 01/Apr/2007] ##
###################################################################

## Some input info
NGC7078_a_2.cxt                          [arq_obs]
Base.BC03.S                              [arq_base]
NGC7078_a_2.msk                          [arq_masks]
StCv04.C99.config                        [arq_config]
  150                                    [N_base]
    0                                    [N_YAV_components = # of components with extra extinction!]
    0                                    [i_FitPowerLaw (1/0 = Yes/No)]
-9.99                                    [alpha_PowerLaw]
CCM                                      [red_law_option]
 1.458241                                [q_norm = A(l_norm)/A(V)]

## (Re)Sampling Parameters
 3359.00                                 [l_ini (A)]
 6428.00                                 [l_fin (A)]
    1.00                                 [dl    (A)]     (OBS: dl_cushion =    50.00 A)

## Normalization info
 4020.00                                 [l_norm (A) - for base]
 4010.00                                 [llow_norm (A) - window for f_obs]
 4060.00                                 [lupp_norm (A) - window for f_obs]
1.263103E-13                             [fobs_norm (in input units)]

## S/N
 4730.00                                 [llow_SN (A) - window for S/N]
 4780.00                                 [lupp_SN (A) - window for S/N]
 205.831                                 [S/N in S/N window]
 202.695                                 [S/N in norm. window]
 485.220                                 [S/N_err in S/N window]
 477.827                                 [S/N_err in norm. window]
  1.0000                                 [fscale_chi2]

## etc...
  2147483587                             [idum_orig]
  3064                                   [NOl_eff]
   745                                   [Nl_eff]
  2319    NSIGMA                         [Ntot_cliped & clip_method]
 10248210                                [Nglobal_steps]
   7                                     [N_chains]
  15                                     [NEX0s_base = N_base in EX0s-fits]
 0   1   1      254   2.0   1.005E+03    [Clip-Bug, RC-Crash & Burn-In warning-flags, n_censored_weights, wei_nsig_threshold & wei_limit]
   604    604.679    604.662      0.016  [idt_all, wdt_TotTime, wdt_UsrTime & wdt_SysTime (sec)]

## Synthesis Results - Best model ##

 2.64273E+00                             [chi2/Nl_eff]
     0.34073                             [adev (%)]

   103.95455                             [sum-of-x (%)]
 3.59782E-13                             [Flux_tot (units of input spectrum!)]
 1.32997E-09                             [Mini_tot (???)]
 7.13277E-10                             [Mcor_tot (???)]

 -57.97                                  [v0_min  (km/s)]
  95.79                                  [vd_min  (km/s)]
 0.7505                                  [AV_min  (mag)]
 0.0000                                  [YAV_min (mag)]

# j     x_j(%)      Mini_j(%)     Mcor_j(%)     age_j(yr)     Z_j      (L/M)_j    YAV?  Mstars   component_j        a/Fe...       SSP_chi2r SSP_adev(%)   SSP_AV   SSP_x(%)
  1      0.0000     0.0000E+00    0.0000E+00    1.000000E+06  0.00010  8.160E-03    0   1.0000   age020_m22            0.0000     4.4250E+03    10.9561   3.4966    76.4856
  2     44.3059     2.4227E-01    4.5174E-01    3.160000E+06  0.00010  4.759E-02    0   1.0000   age045_m22            0.0000     3.2372E+02     2.8668   1.4155    98.7207
  3      0.0000     0.0000E+00    0.0000E+00    5.010000E+06  0.00010  1.932E-02    0   0.9582   age055_m22            0.0000     4.0804E+03    11.1873   1.7759    82.5641
  4      0.0000     0.0000E+00    0.0000E+00    6.610000E+06  0.00010  9.973E-03    0   0.9297   age061_m22            0.0000     4.4406E+03    11.3485   3.4501    79.1968
  5      0.0000     0.0000E+00    0.0000E+00    8.710000E+06  0.00010  7.690E-03    0   0.9030   age067_m22            0.0000     4.1967E+03    11.0032   3.4413    79.7126
  6      0.0000     0.0000E+00    0.0000E+00    1.000000E+07  0.00010  6.375E-03    0   0.8902   age070_m22            0.0000     4.0029E+03    10.7215   3.4560    79.9433
  7      0.0000     0.0000E+00    0.0000E+00    1.445000E+07  0.00010  4.874E-03    0   0.8589   age078_m22            0.0000     2.8666E+03     8.9778   3.2682    83.2400
  8      0.0000     0.0000E+00    0.0000E+00    2.512000E+07  0.00010  4.103E-03    0   0.8174   age090_m22            0.0000     8.9668E+02     5.0009   2.8307    91.1449
  9      0.0000     0.0000E+00    0.0000E+00    4.000000E+07  0.00010  3.654E-03    0   0.7830   age104_m22            0.0000     1.7167E+02     1.9526   2.5018    97.4789
 10      0.0000     0.0000E+00    0.0000E+00    5.500000E+07  0.00010  3.093E-03    0   0.7597   age110_m22            0.0000     1.3385E+02     1.4713   2.3903    99.5728
 11      5.0099     5.3628E-01    7.1376E-01    1.015200E+08  0.00010  2.431E-03    0   0.7138   age116_m22            0.0000     3.5233E+02     2.1224   2.0244   103.3866
 12      0.0000     0.0000E+00    0.0000E+00    1.609000E+08  0.00010  1.319E-03    0   0.6775   age120_m22            0.0000     4.1335E+02     2.4708   1.5515   105.4877
 13      0.1311     3.1748E-02    3.7957E-02    2.861200E+08  0.00010  1.075E-03    0   0.6412   age125_m22            0.0000     2.5499E+03     7.4284   1.5772   111.3199
 14      0.0000     0.0000E+00    0.0000E+00    5.088000E+08  0.00010  7.183E-04    0   0.6083   age130_m22            0.0000     3.4926E+03     8.9064   1.3378   113.5907
 15      0.0000     0.0000E+00    0.0000E+00    9.047900E+08  0.00010  4.524E-04    0   0.5785   age135_m22            0.0000     3.5928E+03     9.2031   1.1405   114.8856
 16      0.0000     0.0000E+00    0.0000E+00    1.278050E+09  0.00010  3.018E-04    0   0.5588   age138_m22            0.0000     1.3327E+03     5.9247   0.6363   111.2494
 17      0.0000     0.0000E+00    0.0000E+00    1.434000E+09  0.00010  2.691E-04    0   0.5532   age139_m22            0.0000     1.0058E+03     5.2708   0.4883   110.2088
 18      0.0884     1.4545E-01    1.4363E-01    2.500000E+09  0.00010  1.582E-04    0   0.5296   age150_m22            0.0000     7.1265E+02     4.3261   0.3813   110.6050
 19      0.0000     0.0000E+00    0.0000E+00    4.250000E+09  0.00010  1.007E-04    0   0.5110   age158_m22            0.0000     2.5424E+02     2.7116   0.2489   107.8009
 20      0.0000     0.0000E+00    0.0000E+00    6.250000E+09  0.00010  6.869E-05    0   0.4985   age166_m22            0.0000     1.0346E+02     1.4845   0.2129   103.8667
 21      0.0000     0.0000E+00    0.0000E+00    7.500000E+09  0.00010  5.873E-05    0   0.4931   age171_m22            0.0000     9.7040E+01     1.2388   0.2037   103.1274
 22      0.2397     1.3918E+00    1.2597E+00    1.000000E+10  0.00010  4.481E-05    0   0.4854   age181_m22            0.0000     1.0503E+02     1.2804   0.1656   102.7460
 23      0.0000     0.0000E+00    0.0000E+00    1.300000E+10  0.00010  3.489E-05    0   0.4791   age193_m22            0.0000     1.2325E+02     1.3558   0.1102   102.0955
 24      0.0000     0.0000E+00    0.0000E+00    1.500000E+10  0.00010  3.035E-05    0   0.4766   age201_m22            0.0000     1.3235E+02     1.3725   0.0716   101.8311
 25      0.0000     0.0000E+00    0.0000E+00    1.800000E+10  0.00010  2.510E-05    0   0.4735   age213_m22            0.0000     1.6329E+02     1.4097   0.0060   101.0119
 26      0.0000     0.0000E+00    0.0000E+00    1.000000E+06  0.00040  8.458E-03    0   1.0000   age020_m32            0.0000     4.4039E+03    11.0193   3.5108    77.1180
 27      0.0000     0.0000E+00    0.0000E+00    3.160000E+06  0.00040  3.973E-02    0   1.0000   age045_m32            0.0000     1.0435E+03     5.4558   2.7206    91.1217
 28      0.0000     0.0000E+00    0.0000E+00    5.010000E+06  0.00040  1.935E-02    0   0.9532   age055_m32            0.0000     3.1664E+03     9.8180   2.9786    83.6434
 29      0.0000     0.0000E+00    0.0000E+00    6.610000E+06  0.00040  1.204E-02    0   0.9243   age061_m32            0.0000     3.6068E+03    10.2121   3.3030    81.5081
 30      0.0000     0.0000E+00    0.0000E+00    8.710000E+06  0.00040  9.433E-03    0   0.9001   age067_m32            0.0000     3.1799E+03     9.5534   3.2728    82.5928
 31      0.0000     0.0000E+00    0.0000E+00    1.000000E+07  0.00040  8.053E-03    0   0.8877   age070_m32            0.0000     3.0167E+03     9.2854   3.2358    83.1216
 32      0.0000     0.0000E+00    0.0000E+00    1.445000E+07  0.00040  7.027E-03    0   0.8578   age078_m32            0.0000     1.5165E+03     6.7601   2.6895    89.2934
 33      0.0000     0.0000E+00    0.0000E+00    2.512000E+07  0.00040  4.707E-03    0   0.8166   age090_m32            0.0000     6.6257E+02     4.4585   2.3793    94.0007
 34      0.0000     0.0000E+00    0.0000E+00    4.000000E+07  0.00040  3.714E-03    0   0.7827   age104_m32            0.0000     1.6829E+02     2.0823   2.1545    98.5422
 35      0.1264     1.1026E-02    1.5611E-02    5.500000E+07  0.00040  2.982E-03    0   0.7593   age110_m32            0.0000     1.1516E+02     1.4301   2.0851   100.2354
 36      1.3247     1.5755E-01    2.0984E-01    1.015200E+08  0.00040  2.188E-03    0   0.7143   age116_m32            0.0000     8.5774E+02     3.9884   1.7841   106.5050
 37      2.1984     3.3851E-01    4.3274E-01    1.609000E+08  0.00040  1.690E-03    0   0.6856   age120_m32            0.0000     1.8068E+03     5.9508   1.5575   110.1852
 38      0.0000     0.0000E+00    0.0000E+00    2.861200E+08  0.00040  1.152E-03    0   0.6509   age125_m32            0.0000     2.7931E+03     7.8670   1.3246   112.7075
 39      0.0000     0.0000E+00    0.0000E+00    5.088000E+08  0.00040  7.331E-04    0   0.6182   age130_m32            0.0000     3.2505E+03     8.7268   1.1583   113.6608
 40      0.0000     0.0000E+00    0.0000E+00    9.047900E+08  0.00040  3.960E-04    0   0.5890   age135_m32            0.0000     1.4934E+03     6.5599   0.7331   110.5331
 41      0.0000     0.0000E+00    0.0000E+00    1.278050E+09  0.00040  2.854E-04    0   0.5687   age138_m32            0.0000     9.5345E+02     5.0994   0.4440   111.9159
 42      0.5514     5.6697E-01    5.9540E-01    1.434000E+09  0.00040  2.531E-04    0   0.5632   age139_m32            0.0000     9.0479E+02     4.9306   0.3819   111.8525
 43     41.1342     7.1937E+01    7.2244E+01    2.500000E+09  0.00040  1.488E-04    0   0.5386   age150_m32            0.0000     5.3210E+02     3.9928   0.1327   109.4639
 44      8.5030     2.4364E+01    2.3618E+01    4.250000E+09  0.00040  9.082E-05    0   0.5199   age158_m32            0.0000     1.4826E+02     1.9946   0.0651   104.2871
 45      0.0590     2.4115E-01    2.2824E-01    6.250000E+09  0.00040  6.362E-05    0   0.5076   age166_m32            0.0000     3.4832E+02     1.6926   0.0499    99.4045
 46      0.0000     0.0000E+00    0.0000E+00    7.500000E+09  0.00040  5.289E-05    0   0.5027   age171_m32            0.0000     4.5953E+02     1.9079   0.0188    97.9091
 47      0.0000     0.0000E+00    0.0000E+00    1.000000E+10  0.00040  3.972E-05    0   0.4948   age181_m32            0.0000     5.6216E+02     2.0926  -0.0389    96.4253
 48      0.0000     0.0000E+00    0.0000E+00    1.300000E+10  0.00040  3.283E-05    0   0.4870   age193_m32            0.0000     3.1372E+02     1.9166  -0.0988    99.8875
 49      0.0000     0.0000E+00    0.0000E+00    1.500000E+10  0.00040  2.925E-05    0   0.4854   age201_m32            0.0000     2.3341E+02     2.0236  -0.1264   101.9301
 50      0.0000     0.0000E+00    0.0000E+00    1.800000E+10  0.00040  2.469E-05    0   0.4819   age213_m32            0.0000     2.2518E+02     2.1667  -0.1716   102.6258
 51      0.0000     0.0000E+00    0.0000E+00    1.000000E+06  0.00400  1.114E-02    0   1.0000   age020_m42            0.0000     4.2513E+03    10.7136   3.4427    77.5456
 52      0.0000     0.0000E+00    0.0000E+00    3.160000E+06  0.00400  4.073E-02    0   0.9999   age045_m42            0.0000     5.6847E+02     3.8989   2.4044    94.3517
 53      0.0000     0.0000E+00    0.0000E+00    5.010000E+06  0.00400  2.534E-02    0   0.9488   age055_m42            0.0000     1.9981E+03     7.4049   2.8471    86.4958
 54      0.0000     0.0000E+00    0.0000E+00    6.610000E+06  0.00400  2.583E-02    0   0.9220   age061_m42            0.0000     3.1487E+02     2.8174   2.2135    95.6119
 55      0.0000     0.0000E+00    0.0000E+00    8.710000E+06  0.00400  1.706E-02    0   0.8983   age067_m42            0.0000     9.6008E+02     5.3800   2.0518    92.5895
 56      0.0000     0.0000E+00    0.0000E+00    1.000000E+07  0.00400  1.271E-02    0   0.8862   age070_m42            0.0000     1.6424E+03     7.2103   2.0459    90.3749
 57      0.0000     0.0000E+00    0.0000E+00    1.445000E+07  0.00400  7.666E-03    0   0.8571   age078_m42            0.0000     2.4667E+03     8.4296   2.4738    86.3966
 58      0.0000     0.0000E+00    0.0000E+00    2.512000E+07  0.00400  5.070E-03    0   0.8174   age090_m42            0.0000     1.4126E+03     6.5912   1.9120    92.0468
 59      0.0000     0.0000E+00    0.0000E+00    4.000000E+07  0.00400  3.505E-03    0   0.7851   age104_m42            0.0000     7.2126E+02     4.4268   1.5786    95.6866
 60      0.0000     0.0000E+00    0.0000E+00    5.500000E+07  0.00400  3.059E-03    0   0.7629   age110_m42            0.0000     1.0196E+02     1.3083   1.6015   102.5066
 61      0.0000     0.0000E+00    0.0000E+00    1.015200E+08  0.00400  2.268E-03    0   0.7207   age116_m42            0.0000     1.5314E+03     5.8537   1.4716   110.4524
 62      0.0000     0.0000E+00    0.0000E+00    1.609000E+08  0.00400  1.720E-03    0   0.6930   age120_m42            0.0000     1.8749E+03     6.7496   1.3268   112.4520
 63      0.0000     0.0000E+00    0.0000E+00    2.861200E+08  0.00400  1.079E-03    0   0.6613   age125_m42            0.0000     1.9484E+03     6.9613   0.9761   112.6980
 64      0.0000     0.0000E+00    0.0000E+00    5.088000E+08  0.00400  6.261E-04    0   0.6313   age130_m42            0.0000     2.4041E+03     7.6627   0.7741   116.1938
 65      0.0000     0.0000E+00    0.0000E+00    9.047900E+08  0.00400  3.535E-04    0   0.6024   age135_m42            0.0000     1.2779E+03     6.0312   0.3943   115.0691
 66      0.0000     0.0000E+00    0.0000E+00    1.278050E+09  0.00400  2.677E-04    0   0.5837   age138_m42            0.0000     1.2325E+03     5.9721  -0.2561   109.8941
 67      0.0000     0.0000E+00    0.0000E+00    1.434000E+09  0.00400  1.910E-04    0   0.5716   age139_m42            0.0000     1.0641E+03     5.8647  -0.0995   111.6023
 68      0.0000     0.0000E+00    0.0000E+00    2.500000E+09  0.00400  9.818E-05    0   0.5463   age150_m42            0.0000     1.2898E+03     5.2135  -0.3255   104.4163
 69      0.0000     0.0000E+00    0.0000E+00    4.250000E+09  0.00400  5.491E-05    0   0.5269   age158_m42            0.0000     1.6685E+03     5.0969  -0.4286   100.5139
 70      0.0000     0.0000E+00    0.0000E+00    6.250000E+09  0.00400  3.857E-05    0   0.5151   age166_m42            0.0000     2.1411E+03     5.6735  -0.5431    98.6535
 71      0.0000     0.0000E+00    0.0000E+00    7.500000E+09  0.00400  3.243E-05    0   0.5110   age171_m42            0.0000     2.4548E+03     6.0721  -0.6161    97.8484
 72      0.0000     0.0000E+00    0.0000E+00    1.000000E+10  0.00400  2.424E-05    0   0.5028   age181_m42            0.0000     2.9022E+03     6.5491  -0.6855    96.8086
 73      0.0000     0.0000E+00    0.0000E+00    1.300000E+10  0.00400  1.883E-05    0   0.4927   age193_m42            0.0000     3.2521E+03     6.8386  -0.7175    96.1342
 74      0.0000     0.0000E+00    0.0000E+00    1.500000E+10  0.00400  1.685E-05    0   0.4919   age201_m42            0.0000     3.1385E+03     6.7105  -0.7151    96.2065
 75      0.0000     0.0000E+00    0.0000E+00    1.800000E+10  0.00400  1.452E-05    0   0.4874   age213_m42            0.0000     2.9389E+03     6.5048  -0.7056    96.6005
 76      0.0000     0.0000E+00    0.0000E+00    1.000000E+06  0.00800  1.286E-02    0   1.0000   age020_m52            0.0000     3.6900E+03     9.9727   3.4117    79.5791
 77      0.0000     0.0000E+00    0.0000E+00    3.160000E+06  0.00800  3.147E-02    0   0.9966   age045_m52            0.0000     3.5145E+03     9.8243   3.3208    81.1431
 78      0.0000     0.0000E+00    0.0000E+00    5.010000E+06  0.00800  2.664E-02    0   0.9443   age055_m52            0.0000     2.3941E+03     7.9231   2.9763    85.2004
 79      0.0000     0.0000E+00    0.0000E+00    6.610000E+06  0.00800  2.151E-02    0   0.9177   age061_m52            0.0000     1.5624E+03     6.3346   1.6385    91.9746
 80      0.0000     0.0000E+00    0.0000E+00    8.710000E+06  0.00800  1.628E-02    0   0.8948   age067_m52            0.0000     1.1864E+03     5.9544   2.0066    92.7615
 81      0.0000     0.0000E+00    0.0000E+00    1.000000E+07  0.00800  1.215E-02    0   0.8827   age070_m52            0.0000     1.5251E+03     6.7630   2.3569    90.6052
 82      0.0000     0.0000E+00    0.0000E+00    1.445000E+07  0.00800  8.739E-03    0   0.8552   age078_m52            0.0000     1.0471E+03     5.5370   2.3880    92.5243
 83      0.0000     0.0000E+00    0.0000E+00    2.512000E+07  0.00800  5.676E-03    0   0.8162   age090_m52            0.0000     3.6624E+02     3.3889   1.9527    98.6754
 84      0.0000     0.0000E+00    0.0000E+00    4.000000E+07  0.00800  3.939E-03    0   0.7841   age104_m52            0.0000     1.8788E+02     1.9069   1.7791   102.0727
 85      0.0000     0.0000E+00    0.0000E+00    5.500000E+07  0.00800  3.155E-03    0   0.7627   age110_m52            0.0000     2.6980E+02     1.6601   1.7421   104.5111
 86      0.0000     0.0000E+00    0.0000E+00    1.015200E+08  0.00800  2.206E-03    0   0.7226   age116_m52            0.0000     9.4520E+02     4.5263   1.5411   109.6175
 87      0.0000     0.0000E+00    0.0000E+00    1.609000E+08  0.00800  1.596E-03    0   0.6963   age120_m52            0.0000     1.3533E+03     5.7073   1.3223   111.6546
 88      0.0000     0.0000E+00    0.0000E+00    2.861200E+08  0.00800  1.002E-03    0   0.6665   age125_m52            0.0000     2.7276E+03     8.5176   1.0089   115.4971
 89      0.0000     0.0000E+00    0.0000E+00    5.088000E+08  0.00800  5.759E-04    0   0.6377   age130_m52            0.0000     3.2221E+03     9.7039   0.6512   119.9028
 90      0.0000     0.0000E+00    0.0000E+00    9.047900E+08  0.00800  2.972E-04    0   0.6086   age135_m52            0.0000     2.1545E+03     8.5245   0.1507   116.6883
 91      0.0000     0.0000E+00    0.0000E+00    1.278050E+09  0.00800  2.242E-04    0   0.5907   age138_m52            0.0000     1.9025E+03     7.0821  -0.4171   112.2903
 92      0.0000     0.0000E+00    0.0000E+00    1.434000E+09  0.00800  1.645E-04    0   0.5787   age139_m52            0.0000     1.5505E+03     6.4372  -0.2668   111.5722
 93      0.0000     0.0000E+00    0.0000E+00    2.500000E+09  0.00800  7.723E-05    0   0.5519   age150_m52            0.0000     2.2287E+03     6.6144  -0.5690   105.9437
 94      0.0000     0.0000E+00    0.0000E+00    4.250000E+09  0.00800  4.151E-05    0   0.5320   age158_m52            0.0000     2.4406E+03     6.5389  -0.6269   102.8739
 95      0.0000     0.0000E+00    0.0000E+00    6.250000E+09  0.00800  3.010E-05    0   0.5197   age166_m52            0.0000     3.3045E+03     7.3608  -0.8027   100.7299
 96      0.0000     0.0000E+00    0.0000E+00    7.500000E+09  0.00800  2.467E-05    0   0.5139   age171_m52            0.0000     3.5458E+03     7.6010  -0.8398   100.1716
 97      0.0000     0.0000E+00    0.0000E+00    1.000000E+10  0.00800  1.862E-05    0   0.5054   age181_m52            0.0000     4.2964E+03     8.3745  -0.9605    99.4444
