BITPIX  =                    8  /  8-bit ASCII characters                       
NAXIS   =                    1  /  Number of Image Dimensions                   
NAXIS1  =                 2048  /  Length of axis                               
ORIGIN  = 'NOAO-IRAF: WTEXTIMAGE'  /
IRAF-MAX=                   0.  /  Max image pixel (out of date)                
IRAF-MIN=                   0.  /  Min image pixel (out of date)                
IRAF-B/P=                   32  /  Image bits per pixel                         
IRAFTYPE= 'REAL FLOATING     '  /  Image datatype                              
OBJECT  = 'S HR  2002        R+L 050414'  /
FILENAME= 'SDR_1.FITS        '  /  IRAF filename                               
FORMAT  = '5G14.7            '  /  Text line format                            
EXTEND  =                    F / File may contain extensions                    
ORIGIN  = 'NOAO-IRAF FITS Image Kernel July 2003' / FITS file originator        
DATE    = '2015-11-14T21:45:13' / Date FITS file was generated                  
IRAF-TLM= '2015-11-14T21:45:13' / Time of last modification                     
                                                                                
CRVAL1  =   3968.3                                                  
CDELT1  =   1.25                                                  
CRPIX1  =                    1                                                  
STATUS  = 'SPECTRUM                                                        '    
CTYPE1  = 'LAMBDA                                                          '    
OBJECT  = 'S HR  2002        R+L 050414'                                        
OBSNUM  =                 5414                                                  
SDR RUN =                    5                                                  
RUN TAPE=                    4                                                  
TAPESCAN=                   14                                                  
IDS SLIT= 'R+L                                                             '    
INSTRUME= 'Lick 3.0 mts, Blue ITS                                          '    
OBSERVER= 'S.M. Faber et al                                                '    
TAPENUM =                  189                                                  
LICK    = 'FITS2                                                           '    
APNUM1  = '1 0 1.00 1.00 1.00 1.00'                                             
DC-FLAG =                    0                                                  
WCSDIM  =                    1                                                  
CD1_1   =  1.25                                                  
LTM1_1  =                   1.                                                  
WAT0_001= 'system=equispec'                                                     
WAT1_001= 'wtype=linear label=lambda units=angstroms'                           
END                                                                             
                                                                                
                                                                                
                                                                                
                                                                                
                                                                                
                                                                                
                                                                                
                                                                                
                                                                                
                                                                                
                                                                                
                                                                                
                                                                                
                                                                                
                                                                                
                                                                                
                                                                                
                                                                                
                                                                                
                                                                                
                                                                                
                                                                                
                                                                                
                                                                                
                                                                                
                                                                                
                                                                                
                                                                                
                                                                                
                                                                                
                                                                                
3968.2  130.1259
3969.5  425.9776
3970.7  464.0329
3972.0  621.1656
3973.2  576.1539
3974.5  743.9254
3975.7  1016.044
3977.0  1394.553
3978.2  1453.479
3979.5  1325.808
3980.7  1275.068
3982.0  1096.247
3983.2  1159.673
3984.5  1117.525
3985.7  1104.431
3987.0  1067.603
3988.2  1279.978
3989.5  1234.556
3990.7  1402.737
3992.0  1360.999
3993.2  1440.384
3994.5  1373.275
3995.7  1429.335
3997.0  1407.648
3998.2  1485.805
3999.5  1481.304
4000.7  1468.619
4002.0  1453.887
4003.2  1348.723
4004.5  1482.941
4005.7  1468.619
4007.0  1534.5
4008.2  1532.863
4009.5  1554.141
4010.7  1611.839
4012.0  1592.198
4013.2  1501.355
4014.5  1539.001
4015.7  1475.984
4017.0  1474.348
4018.2  1508.721
4019.5  1522.224
4020.7  1484.987
4022.0  1420.742
4023.2  1504.219
4024.5  1462.072
4025.7  1417.878
4027.0  1562.734
4028.2  1520.178
4029.5  1449.386
4030.7  1472.301
4032.0  1520.587
4033.2  1536.955
4034.5  1439.157
4035.7  1404.375
4037.0  1416.241
4038.2  1455.524
4039.5  1564.781
4040.7  1476.393
4042.0  1540.638
4043.2  1507.902
4044.5  1501.355
4045.7  1493.171
4047.0  1467.391
4048.2  1418.288
4049.5  1475.166
4050.7  1495.217
4052.0  1620.432
4053.2  1532.454
4054.5  1550.868
4055.7  1520.997
4057.0  1459.616
4058.2  1677.311
4059.5  1694.088
4060.7  1616.749
4062.0  1583.195
4063.2  1612.657
4064.5  1651.122
4065.7  1676.083
4067.0  1624.524
4068.2  1674.038
4069.5  1761.606
4070.7  1718.23
4072.0  1781.248
4073.2  1742.783
4074.5  1872.909
4075.7  1713.321
4077.0  1846.311
4078.2  1945.746
4079.5  1873.727
4080.7  1914.237
4082.0  1965.387
4083.2  1909.327
4084.5  1871.681
4085.7  1728.461
4087.0  1804.163
4088.2  1728.051
4089.5  1733.781
4090.7  1813.983
4092.0  1775.109
4093.2  1744.419
4094.5  1746.875
4095.7  1820.531
4097.0  1737.873
4098.2  1681.403
4099.5  1692.042
4100.7  1798.434
4102.0  1808.664
4103.2  1842.219
4104.5  1723.141
4105.7  1775.519
4107.0  1899.507
4108.2  1799.253
4109.5  1879.046
4110.7  1750.558
4112.0  1799.253
4113.2  1810.71
4114.5  1830.76
4115.7  1795.57
4117.0  1802.526
4118.2  1854.085
4119.5  1862.269
4120.7  1803.345
4122.0  1778.792
4123.2  1683.04
4124.5  1797.615
4125.7  1774.7
4127.0  1737.873
4128.2  1774.291
4129.5  1823.804
4130.7  1870.044
4132.0  1830.76
4133.2  1837.308
4134.5  1835.671
4135.7  1756.287
4137.0  1754.24
4138.2  1674.038
4139.5  1843.855
4140.7  1744.829
4142.0  1671.582
4143.2  1772.245
4144.5  1763.652
4145.7  1817.667
4147.0  1853.267
4148.2  1824.214
4149.5  1825.441
4150.7  1864.315
4152.0  1816.439
4153.2  1874.954
4154.5  1828.715
4155.7  1987.893
4157.0  1908.1
4158.2  1951.066
4159.5  1946.565
4160.7  1941.245
4162.0  1985.029
4163.2  1798.025
4164.5  1873.727
4165.7  1843.037
4167.0  1926.923
4168.2  1962.932
4169.5  1887.639
4170.7  2042.318
4172.0  1888.458
4173.2  1882.32
4174.5  1907.281
4175.7  1975.208
4177.0  1971.935
4178.2  1931.424
4179.5  1960.477
4180.7  1943.7
4182.0  1969.479
4183.2  2039.043
4184.5  1957.613
4185.7  2051.729
4187.0  2093.467
4188.2  1981.756
4189.5  2068.097
4190.7  2123.339
4192.0  2085.693
4193.2  2095.104
4194.5  2064.005
4195.7  2058.685
4197.0  2117.61
4198.2  2258.784
4199.5  2296.84
4200.7  2379.498
4202.0  2345.535
4203.2  2242.825
4204.5  2366.404
4205.7  2423.692
4207.0  2441.288
4208.2  2427.784
4209.5  2341.443
4210.7  2447.016
4212.0  2495.301
4213.2  2417.963
4214.5  2442.105
4215.7  2320.982
4217.0  2336.123
4218.2  2349.217
4219.5  2342.26
4220.7  2359.856
4222.0  2341.034
4223.2  2396.275
4224.5  2466.248
4225.7  2503.076
4227.0  2521.49
4228.2  2578.369
4229.5  2654.889
4230.7  2772.739
4232.0  2803.02
4233.2  2758.417
4234.5  2838.62
4235.7  2817.751
4237.0  2855.398
4238.2  2858.671
4239.5  2879.949
4240.7  2900.41
4242.0  2896.727
4243.2  2797.291
4244.5  2879.131
4245.7  2987.569
4247.0  2912.276
4248.2  2920.46
4249.5  2773.148
4250.7  2768.238
4252.0  2838.211
4253.2  2880.359
4254.5  2892.635
4255.7  2796.882
4257.0  2982.25
4258.2  2882.814
4259.5  2819.797
4260.7  2792.381
4262.0  2902.046
4263.2  2917.596
4264.5  2851.715
4265.7  2880.359
4267.0  2788.698
4268.2  2978.976
4269.5  2950.332
4270.7  2839.848
4272.0  2902.865
4273.2  2919.233
4274.5  2957.289
4275.7  2907.775
4277.0  2950.741
4278.2  2938.056
4279.5  2937.237
4280.7  2921.688
4282.0  2943.785
4283.2  2949.923
4284.5  2857.444
4285.7  2802.611
4287.0  2816.114
4288.2  2740.003
4289.5  2762.509
4290.7  2693.763
4292.0  2578.778
4293.2  2551.771
4294.5  2449.472
4295.7  2422.873
4297.0  2395.457
4298.2  2280.063
4299.5  2271.879
4300.7  2275.971
4302.0  2281.29
4303.2  2227.685
4304.5  2272.697
4305.7  2359.448
4307.0  2450.29
4308.2  2593.101
4309.5  2791.154
4310.7  3076.775
4312.0  3199.535
4313.2  3358.305
4314.5  3480.656
4315.7  3684.846
4317.0  3662.34
4318.2  3550.628
4319.5  3689.347
4320.7  3639.425
4322.0  3663.568
4323.2  3605.871
4324.5  3655.792
4325.7  3691.803
4327.0  3738.86
4328.2  3816.608
4329.5  3856.71
4330.7  3820.291
4332.0  3920.545
4333.2  4001.567
4334.5  3886.582
4335.7  3681.572
4337.0  3762.594
4338.2  3871.85
4339.5  3908.679
4340.7  3805.969
4342.0  3817.836
4343.2  3935.277
4344.5  3928.729
4345.7  4053.126
4347.0  4095.274
4348.2  4159.518
4349.5  4167.702
4350.7  4080.542
4352.0  4096.5
4353.2  4166.065
4354.5  4317.878
4355.7  4389.488
4357.0  4273.276
4358.2  4327.29
4359.5  4401.355
4360.7  4586.313
4362.0  4518.386
4363.2  4537.21
4364.5  4541.711
4365.7  4419.36
4367.0  4450.459
4368.2  4370.255
4369.5  4297.828
4370.7  4261.
4372.0  4225.4
4373.2  4110.004
4374.5  3978.652
4375.7  3952.054
4377.0  3875.533
4378.2  3837.477
4379.5  3775.688
4380.7  3692.621
4382.0  3589.502
4383.2  3504.798
4384.5  3588.684
4385.7  3690.165
4387.0  3752.773
4388.2  3868.986
4389.5  4049.852
4390.7  4030.62
4392.0  4139.058
4393.2  4154.607
4394.5  4128.01
4395.7  4266.729
4397.0  4295.782
4398.2  4132.102
4399.5  4176.295
4400.7  4283.915
4402.0  4231.538
4403.2  4125.964
4404.5  4182.024
4405.7  4173.84
4407.0  4402.992
4408.2  4318.696
4409.5  4468.873
4410.7  4490.561
4412.0  4470.101
4413.2  4559.716
4414.5  4607.183
4415.7  4482.376
4417.0  4529.844
4418.2  4640.328
4419.5  4652.195
4420.7  4620.687
4422.0  4618.231
4423.2  4673.473
4424.5  4595.725
4425.7  4560.125
4427.0  4601.863
4428.2  4728.715
4429.5  4822.422
4430.7  4804.417
4432.0  4752.04
4433.2  4746.312
4434.5  4634.599
4435.7  4761.86
4437.0  4941.499
4438.2  5002.062
4439.5  5115.818
4440.7  5132.187
4442.0  5170.651
4443.2  5271.724
4444.5  5286.045
4445.7  5304.46
4447.0  5402.667
4448.2  5466.094
4449.5  5397.348
4450.7  5284.818
4452.0  5160.421
4453.2  5234.896
4454.5  5038.479
4455.7  4926.359
4457.0  4801.144
4458.2  4658.333
4459.5  4603.909
4460.7  4563.808
4462.0  4650.149
4463.2  4695.979
4464.5  4801.553
4465.7  4847.383
4467.0  5124.002
4468.2  5039.298
4469.5  5145.281
4470.7  5373.614
4472.0  5484.917
4473.2  5689.926
4474.5  5738.621
4475.7  5831.918
4477.0  5998.463
4478.2  5756.216
4479.5  5918.26
4480.7  5862.608
4482.0  5739.03
4483.2  5743.123
4484.5  5841.33
4485.7  5862.608
4487.0  5845.422
4488.2  5731.664
4489.5  5660.873
4490.7  5632.229
4492.0  5503.741
4493.2  5466.094
4494.5  5537.704
4495.7  5540.568
4497.0  5681.333
4498.2  5752.943
4499.5  5961.635
4500.7  6149.458
4502.0  6139.227
4503.2  6340.555
4504.5  6464.132
4505.7  6415.028
4507.0  6557.839
4508.2  6665.868
4509.5  6617.173
4510.7  6515.691
4512.0  6374.927
4513.2  6286.539
4514.5  6183.012
4515.7  6130.225
4517.0  6171.554
4518.2  6049.204
4519.5  5925.216
4520.7  5971.456
4522.0  6008.283
4523.2  5878.976
4524.5  5632.638
4525.7  5696.473
4527.0  5501.285
4528.2  5421.491
4529.5  5243.898
4530.7  5229.576
4532.0  5219.346
4533.2  5373.205
4534.5  5296.276
4535.7  5531.975
4537.0  5533.612
4538.2  5658.827
4539.5  5836.419
4540.7  5932.582
4542.0  6045.112
4543.2  6151.503
4544.5  6220.25
4545.7  6131.043
4547.0  5962.453
4548.2  5805.32
4549.5  5863.427
4550.7  5815.959
4552.0  5878.976
4553.2  6068.027
4554.5  6053.295
4555.7  6224.75
4557.0  6309.864
4558.2  6255.44
4559.5  6333.597
4560.7  6523.875
4562.0  6568.888
4563.2  6582.391
4564.5  6723.975
4565.7  6693.693
4567.0  6566.023
4568.2  6553.747
4569.5  6544.335
4570.7  6593.439
4572.0  6634.359
4573.2  6588.529
4574.5  6617.992
4575.7  6633.541
4577.0  6615.946
4578.2  6648.682
4579.5  6559.476
4580.7  6520.193
4582.0  6566.023
4583.2  6499.733
4584.5  6467.406
4585.7  6389.25
4587.0  6450.629
4588.2  6276.31
4589.5  6367.97
4590.7  6515.282
4592.0  6552.52
4593.2  6547.2
4594.5  6485.82
4595.7  6345.874
4597.0  6170.327
4598.2  6038.155
4599.5  6054.523
4600.7  6133.089
4602.0  6182.193
4603.2  6298.815
4604.5  6465.769
4605.7  6581.573
4607.0  6646.227
4608.2  6672.824
4609.5  6886.427
4610.7  6911.797
4612.0  6953.126
4613.2  7190.872
4614.5  7282.941
4615.7  7116.807
4617.0  7316.905
4618.2  7229.336
4619.5  7162.228
4620.7  7251.433
4622.0  7352.505
4623.2  7350.869
4624.5  7324.68
4625.7  7489.178
4627.0  7575.52
4628.2  7447.44
4629.5  7333.683
4630.7  7256.344
4632.0  7118.443
4633.2  7002.23
4634.5  6963.766
4635.7  7021.872
4637.0  6925.301
4638.2  6847.144
4639.5  6891.337
4640.7  6909.751
4642.0  6800.495
4643.2  6624.539
4644.5  6694.921
4645.7  6661.776
4647.0  6574.616
4648.2  6585.255
4649.5  6490.321
4650.7  6467.406
4652.0  6539.016
4653.2  6568.069
4654.5  6725.611
4655.7  6886.836
4657.0  6867.194
4658.2  6955.582
4659.5  7127.446
4660.7  7255.525
4662.0  7392.198
4663.2  7366.418
4664.5  7211.332
4665.7  7214.605
4667.0  7019.008
4668.2  6606.125
4669.5  6420.348
4670.7  6416.665
4672.0  6534.105
4673.2  6705.561
4674.5  6937.167
4675.7  7071.794
4677.0  7183.915
4678.2  7326.726
4679.5  7374.603
4680.7  7366.418
4682.0  7371.329
4683.2  7293.171
4684.5  7037.012
4685.7  7042.332
4687.0  7171.23
4688.2  7146.678
4689.5  6970.313
4690.7  6890.519
4692.0  7029.238
4693.2  6977.269
4694.5  7059.109
4695.7  7051.744
4697.0  7052.153
4698.2  7143.404
4699.5  7102.894
4700.7  6934.303
4702.0  6911.797
4703.2  6985.862
4704.5  6913.843
4705.7  6711.289
4707.0  6687.556
4708.2  6676.917
4709.5  6787.4
4710.7  6774.715
4712.0  6874.151
4713.2  6981.771
4714.5  7020.235
4715.7  7019.008
4717.0  7083.252
4718.2  7257.98
4719.5  7392.198
4720.7  7423.297
4722.0  7555.469
4723.2  7607.028
4724.5  7600.481
4725.7  7807.536
4727.0  7775.209
4728.2  7650.812
4729.5  7483.859
4730.7  7460.943
4732.0  7348.004
4733.2  7226.472
4734.5  7207.24
4735.7  7191.69
4737.0  7274.349
4738.2  7449.077
4739.5  7570.609
4740.7  7873.417
4742.0  7925.386
4743.2  7939.708
4744.5  7991.267
4745.7  8048.964
4747.0  8112.39
4748.2  8009.271
4749.5  8120.983
4750.7  8262.157
4752.0  8143.08
4753.2  8008.044
4754.5  7914.337
4755.7  7794.851
4757.0  7776.437
4758.2  7796.079
4759.5  7821.449
4760.7  7892.24
4762.0  7855.822
4763.2  7859.914
4764.5  7900.015
4765.7  7821.858
4767.0  7742.064
4768.2  7653.677
4769.5  7686.822
4770.7  7707.282
4772.0  7688.459
4773.2  7819.403
4774.5  8040.371
4775.7  8092.749
4777.0  8311.261
4778.2  8367.321
4779.5  8529.365
4780.7  8567.42
4782.0  8494.992
4783.2  8434.021
4784.5  8348.907
4785.7  8012.136
4787.0  7844.773
4788.2  7897.56
4789.5  7920.884
4790.7  7983.492
4792.0  8023.185
4793.2  8124.257
4794.5  8228.603
4795.7  8323.537
4797.0  8483.534
4798.2  8754.834
4799.5  8556.372
4800.7  8708.595
4802.0  8650.079
4803.2  8493.765
4804.5  8428.701
4805.7  8352.182
4807.0  8367.73
4808.2  8247.017
4809.5  8132.85
4810.7  8169.269
4812.0  8033.824
4813.2  8297.349
4814.5  8302.259
4815.7  8438.522
4817.0  8502.357
4818.2  8594.837
4819.5  8756.471
4820.7  8820.306
4822.0  8721.688
4823.2  8602.611
4824.5  8582.97
4825.7  8376.324
4827.0  8395.966
4828.2  8336.632
4829.5  8332.131
4830.7  8416.017
4832.0  8364.048
4833.2  8311.261
4834.5  8335.404
4835.7  8371.823
4837.0  8402.104
4838.2  8414.789
4839.5  8336.632
4840.7  8325.992
4842.0  8249.472
4843.2  8161.903
4844.5  8179.09
4845.7  8129.167
4847.0  8204.46
4848.2  8316.581
4849.5  8424.2
4850.7  8481.488
4852.0  8375.097
4853.2  8240.47
4854.5  8160.267
4855.7  7974.49
4857.0  7827.996
4858.2  7665.134
4859.5  7479.767
4860.7  7269.029
4862.0  7003.458
4863.2  6835.277
4864.5  6878.652
4865.7  7015.325
4867.0  7097.983
4868.2  7345.549
4869.5  7511.685
4870.7  7618.895
4872.0  7602.118
4873.2  7546.466
4874.5  7728.151
4875.7  7681.093
4877.0  7719.558
4878.2  7834.953
4879.5  7873.417
4880.7  8013.364
4882.0  8166.404
4883.2  8410.697
4884.5  8306.76
4885.7  8078.017
4887.0  8019.501
4888.2  7974.49
4889.5  7883.647
4890.7  7796.488
4892.0  7916.792
4893.2  8186.864
4894.5  8323.128
4895.7  8404.559
4897.0  8614.069
4898.2  8689.362
4899.5  8729.873
4900.7  8869.819
4902.0  8756.471
4903.2  8678.313
4904.5  8670.948
4905.7  8698.364
4907.0  8748.696
4908.2  8732.328
4909.5  8475.76
4910.7  8248.653
4912.0  8416.426
4913.2  8463.483
4914.5  8458.573
4915.7  8543.277
4917.0  8447.115
4918.2  8278.935
4919.5  8078.835
4920.7  7895.923
4922.0  7816.948
4923.2  7562.425
4924.5  7457.67
4925.7  7439.665
4927.0  7585.75
4928.2  7931.114
4929.5  8353.409
4930.7  8679.541
4932.0  8845.268
4933.2  8894.371
4934.5  8821.942
4935.7  8614.069
4937.0  8603.43
4938.2  8466.348
4939.5  8348.907
4940.7  8373.051
4942.0  8457.346
4943.2  8507.268
4944.5  8733.965
4945.7  8924.652
4947.0  8961.07
4948.2  9007.311
4949.5  9062.962
4950.7  9208.228
4952.0  9211.501
4953.2  9263.879
4954.5  9385.82
4955.7  9234.007
4957.0  9050.686
4958.2  8945.521
4959.5  8874.729
4960.7  8799.027
4962.0  8797.391
4963.2  8999.535
4964.5  9111.247
4965.7  9366.179
4967.0  9182.448
4968.2  9152.985
4969.5  9026.134
4970.7  8925.471
4972.0  8902.965
4973.2  8912.785
4974.5  8945.112
4975.7  8993.397
4977.0  8896.008
4978.2  8843.631
4979.5  8702.047
4980.7  8591.973
4982.0  8421.745
4983.2  8294.894
4984.5  8078.426
4985.7  7880.374
4987.0  7939.298
4988.2  8076.79
4989.5  8083.337
4990.7  8317.399
4992.0  8594.837
4993.2  8697.137
4994.5  8724.144
4995.7  8815.396
4997.0  8867.773
4998.2  8979.075
4999.5  9130.07
5000.7  8883.323
5002.0  8540.004
5003.2  8507.268
5004.5  8334.177
5005.7  8316.581
5007.0  8155.765
5008.2  8006.407
5009.5  8023.594
5010.7  8075.971
5012.0  8108.707
5013.2  8305.123
5014.5  8196.276
5015.7  7983.492
5017.0  8103.797
5018.2  7981.037
5019.5  7983.901
5020.7  7901.652
5022.0  7830.451
5023.2  7852.548
5024.5  7995.768
5025.7  8265.84
5027.0  8299.395
5028.2  8313.308
5029.5  8472.077
5030.7  8441.796
5032.0  8688.953
5033.2  8837.901
5034.5  8875.548
5035.7  8842.402
