BITPIX  =                    8  /  8-bit ASCII characters                       
NAXIS   =                    1  /  Number of Image Dimensions                   
NAXIS1  =                 2048  /  Length of axis                               
ORIGIN  = 'NOAO-IRAF: WTEXTIMAGE'  /
IRAF-MAX=                   0.  /  Max image pixel (out of date)                
IRAF-MIN=                   0.  /  Min image pixel (out of date)                
IRAF-B/P=                   32  /  Image bits per pixel                         
IRAFTYPE= 'REAL FLOATING     '  /  Image datatype                              
OBJECT  = 'S HR  2002        R+L 570326'  /
FILENAME= 'SDR_3.FITS        '  /  IRAF filename                               
FORMAT  = '5G14.7            '  /  Text line format                            
EXTEND  =                    F / File may contain extensions                    
ORIGIN  = 'NOAO-IRAF FITS Image Kernel July 2003' / FITS file originator        
DATE    = '2015-11-14T21:45:47' / Date FITS file was generated                  
IRAF-TLM= '2015-11-14T21:45:47' / Time of last modification                     
                                                                                
CRVAL1  =   3916.9                                                 
CDELT1  =   1.25                                                  
CRPIX1  =                    1                                                  
STATUS  = 'SPECTRUM                                                        '    
CTYPE1  = 'LAMBDA                                                          '    
OBJECT  = 'S HR  2002        R+L 570326'                                        
OBSNUM  =                57326                                                  
SDR RUN =                   57                                                  
RUN TAPE=                    3                                                  
TAPESCAN=                   26                                                  
IDS SLIT= 'R+L                                                             '    
INSTRUME= 'Lick 3.0 mts, Blue ITS                                          '    
OBSERVER= 'S.M. Faber, J.J. Gonzalez                                       '    
TAPENUM =                  515                                                  
LICK    = 'FITS2                                                           '    
APNUM1  = '1 0 1.00 1.00 1.00 1.00'                                             
DC-FLAG =                    0                                                  
WCSDIM  =                    1                                                  
CD1_1   =  1.25                                                  
LTM1_1  =                   1.                                                  
WAT0_001= 'system=equispec'                                                     
WAT1_001= 'wtype=linear label=lambda units=angstroms'                           
END                                                                             
                                                                                
                                                                                
                                                                                
                                                                                
                                                                                
                                                                                
                                                                                
                                                                                
                                                                                
                                                                                
                                                                                
                                                                                
                                                                                
                                                                                
                                                                                
                                                                                
                                                                                
                                                                                
                                                                                
                                                                                
                                                                                
                                                                                
                                                                                
                                                                                
                                                                                
                                                                                
                                                                                
                                                                                
                                                                                
                                                                                
                                                                                
3918.1  -677.4226
3919.3  36.67503
3920.6  -626.2118
3921.8  69.02283
3923.1  102.0496
3924.3  112.6509
3925.6  136.3647
3926.8  137.2236
3928.1  134.2256
3929.3  126.5569
3930.6  130.0293
3931.8  140.2338
3933.1  131.9025
3934.3  127.9966
3935.6  124.1315
3936.8  121.0804
3938.1  107.5834
3939.3  102.8799
3940.6  96.50356
3941.8  86.85114
3943.1  82.00043
3944.3  74.20078
3945.6  65.54633
3946.8  60.62196
3948.1  67.07191
3949.3  72.13532
3950.6  85.63642
3951.8  100.0741
3953.1  121.1622
3954.3  143.2768
3955.6  154.9292
3956.8  169.1828
3958.1  169.1665
3959.3  166.6307
3960.6  159.8985
3961.8  150.4425
3963.1  138.3402
3964.3  122.7736
3965.6  110.0456
3966.8  97.66919
3968.1  83.38284
3969.3  85.62006
3970.6  88.96569
3971.8  99.53017
3973.1  98.86349
3974.3  108.929
3975.6  110.2459
3976.8  114.7981
3978.1  125.6162
3979.3  142.8228
3980.6  158.2789
3981.8  171.3178
3983.1  187.9109
3984.3  193.2362
3985.6  205.772
3986.8  215.3467
3988.1  219.5348
3989.3  224.5042
3990.6  230.7741
3991.8  231.0359
3993.1  236.8519
3994.3  248.4552
3995.6  257.0033
3996.8  256.1608
3998.1  262.578
3999.3  261.1956
4000.6  260.5412
4001.8  266.7334
4003.1  276.1486
4004.3  278.21
4005.6  282.7499
4006.8  289.4861
4008.1  285.0158
4009.3  286.2182
4010.6  293.9442
4011.8  305.4739
4013.1  307.0117
4014.3  308.5619
4015.6  314.7214
4016.8  319.6989
4018.1  320.0425
4019.3  326.3983
4020.6  330.0793
4021.8  332.4393
4023.1  323.2122
4024.3  327.4495
4025.6  319.5108
4026.8  319.6417
4028.1  321.6131
4029.3  321.065
4030.6  320.3206
4031.8  318.6069
4033.1  308.1938
4034.3  302.66
4035.6  300.1774
4036.8  299.5271
4038.1  312.7746
4039.3  322.5988
4040.6  323.1959
4041.8  322.0752
4043.1  320.1611
4044.3  313.3431
4045.6  306.9136
4046.8  301.6416
4048.1  290.1405
4049.3  298.6436
4050.6  308.7009
4051.8  319.9934
4053.1  325.6131
4054.3  326.0834
4055.6  327.7235
4056.8  320.6805
4058.1  319.0527
4059.3  314.067
4060.6  310.8318
4061.8  311.9934
4063.1  306.1324
4064.3  314.5005
4065.6  313.7153
4066.8  310.9627
4068.1  315.9198
4069.3  321.0691
4070.6  335.1878
4071.8  332.198
4073.1  334.3493
4074.3  337.7113
4075.6  331.1632
4076.8  336.7297
4078.1  346.7829
4079.3  345.8995
4080.6  343.2205
4081.8  355.5273
4083.1  358.5785
4084.3  366.4722
4085.6  381.5438
4086.8  384.6522
4088.1  391.3557
4089.3  389.9365
4090.6  392.3741
4091.8  397.9979
4093.1  393.6666
4094.3  383.4252
4095.6  381.413
4096.8  361.8914
4098.1  344.3126
4099.3  344.9056
4100.6  340.5334
4101.8  336.6683
4103.1  339.3268
4104.3  346.4803
4105.6  361.0406
4106.8  368.5908
4108.1  370.6808
4109.3  373.9855
4110.6  367.1143
4111.8  379.0612
4113.1  377.3066
4114.3  374.8608
4115.6  373.4456
4116.8  377.0857
4118.1  377.0694
4119.3  377.7238
4120.6  376.5868
4121.8  373.8546
4123.1  375.2861
4124.3  372.6767
4125.6  370.1736
4126.8  364.9793
4128.1  361.421
4129.3  367.4456
4130.6  365.466
4131.8  362.7094
4133.1  357.0693
4134.3  354.7053
4135.6  361.1306
4136.8  361.8423
4138.1  357.147
4139.3  367.7237
4140.6  376.235
4141.8  363.2166
4143.1  359.8873
4144.3  345.1346
4145.6  338.7992
4146.8  335.1878
4148.1  334.3616
4149.3  332.2716
4150.6  328.8932
4151.8  330.3125
4153.1  332.652
4154.3  342.472
4155.6  348.2798
4156.8  344.8811
4158.1  356.9997
4159.3  369.0734
4160.6  373.0939
4161.8  380.7422
4163.1  394.775
4164.3  395.6298
4165.6  403.8589
4166.8  399.4417
4168.1  400.5623
4169.3  390.5132
4170.6  381.6134
4171.8  362.8525
4173.1  348.7175
4174.3  343.8299
4175.6  333.2737
4176.8  331.3391
4178.1  331.9526
4179.3  350.2594
4180.6  356.2349
4181.8  365.0979
4183.1  379.1307
4184.3  389.2289
4185.6  391.7647
4186.8  399.1676
4188.1  398.1002
4189.3  395.6421
4190.6  400.4478
4191.8  410.8937
4193.1  409.7117
4194.3  406.2474
4195.6  406.2106
4196.8  395.9693
4198.1  400.0388
4199.3  404.2433
4200.6  395.3189
4201.8  402.231
4203.1  397.0899
4204.3  412.6851
4205.6  412.91
4206.8  419.0123
4208.1  430.8202
4209.3  434.4602
4210.6  441.8918
4211.8  449.8755
4213.1  446.8693
4214.3  451.6382
4215.6  457.5524
4216.8  471.5974
4218.1  477.7447
4219.3  490.6773
4220.6  508.5302
4221.8  503.1395
4223.1  493.6589
4224.3  482.1415
4225.6  457.2047
4226.8  443.3355
4228.1  430.2476
4229.3  433.2455
4230.6  457.4174
4231.8  476.3459
4233.1  488.8286
4234.3  495.2417
4235.6  502.6937
4236.8  510.8287
4238.1  510.6283
4239.3  510.5506
4240.6  534.428
4241.8  538.3831
4243.1  540.7839
4244.3  543.5978
4245.6  550.4772
4246.8  551.2338
4248.1  544.7184
4249.3  533.017
4250.6  524.2767
4251.8  515.2664
4253.1  510.3093
4254.3  507.7408
4255.6  510.2643
4256.8  514.9556
4258.1  519.475
4259.3  527.062
4260.6  535.8636
4261.8  544.105
4263.1  555.1766
4264.3  561.9783
4265.6  567.5488
4266.8  567.5447
4268.1  554.9353
4269.3  543.696
4270.6  523.111
4271.8  499.7898
4273.1  501.4831
4274.3  501.798
4275.6  509.2991
4276.8  523.021
4278.1  537.9904
4279.3  551.2993
4280.6  559.1398
4281.8  560.42
4283.1  562.8126
4284.3  557.4588
4285.6  551.9291
4286.8  537.8514
4288.1  525.1601
4289.3  511.1355
4290.6  509.7408
4291.8  510.2766
4293.1  518.0926
4294.3  513.8267
4295.6  505.6467
4296.8  502.3951
4298.1  488.6282
4299.3  467.4911
4300.6  456.354
4301.8  428.9756
4303.1  418.6033
4304.3  400.2679
4305.6  406.2679
4306.8  400.7341
4308.1  403.9775
4309.3  415.5399
4310.6  429.3518
4311.8  457.2579
4313.1  490.6732
4314.3  531.9617
4315.6  579.6185
4316.8  630.4285
4318.1  663.7661
4319.3  686.666
4320.6  696.0566
4321.8  693.2018
4323.1  660.3101
4324.3  631.7373
4325.6  606.2116
4326.8  602.7474
4328.1  622.1585
4329.3  637.1606
4330.6  659.9501
4331.8  682.077
4333.1  696.8746
4334.3  706.3471
4335.6  706.4943
4336.8  691.3163
4338.1  674.5923
4339.3  655.5493
4340.6  638.8498
4341.8  633.4633
4343.1  646.2364
4344.3  653.1525
4345.6  672.6905
4346.8  691.9871
4348.1  705.2796
4349.3  714.5189
4350.6  713.9504
4351.8  713.5782
4353.1  706.8338
4354.3  698.1835
4355.6  700.8583
4356.8  702.8174
4358.1  713.1365
4359.3  728.2204
4360.6  742.6008
4361.8  761.0836
4363.1  784.8055
4364.3  791.4723
4365.6  792.2494
4366.8  792.1348
4368.1  782.1962
4369.3  769.7053
4370.6  753.108
4371.8  734.5149
4373.1  729.1038
4374.3  723.7255
4375.6  706.4534
4376.8  690.6906
4378.1  688.3388
4379.3  678.9155
4380.6  669.8889
4381.8  651.4797
4383.1  624.1667
4384.3  608.1012
4385.6  601.2831
4386.8  594.5878
4388.1  596.003
4389.3  611.9662
4390.6  637.7987
4391.8  649.8642
4393.1  663.5779
4394.3  686.7682
4395.6  709.0097
4396.8  728.3554
4398.1  737.0221
4399.3  741.8524
4400.6  730.3309
4401.8  716.6825
4403.1  706.6129
4404.3  689.8726
4405.6  682.4451
4406.8  678.4778
4408.1  692.9114
4409.3  722.3962
4410.6  732.9852
4411.8  756.1265
4413.1  783.2513
4414.3  800.1594
4415.6  804.1063
4416.8  799.366
4418.1  799.9385
4419.3  803.2596
4420.6  806.7689
4421.8  815.137
4423.1  826.18
4424.3  824.27
4425.6  821.5256
4426.8  823.0143
4428.1  824.5358
4429.3  823.1902
4430.6  823.6933
4431.8  820.0613
4433.1  813.4724
4434.3  810.2004
4435.6  795.6195
4436.8  798.6911
4438.1  803.0142
4439.3  818.5235
4440.6  827.6933
4441.8  816.5685
4443.1  840.1923
4444.3  849.8038
4445.6  850.3396
4446.8  864.262
4448.1  881.44
4449.3  907.5873
4450.6  913.9391
4451.8  904.3522
4453.1  887.665
4454.3  859.8652
4455.6  831.5665
4456.8  807.6727
4458.1  786.6992
4459.3  773.3945
4460.6  765.4353
4461.8  775.3699
4463.1  764.5233
4464.3  790.1512
4465.6  798.3475
4466.8  820.2495
4468.1  847.1044
4469.3  864.0248
4470.6  881.5259
4471.8  902.7244
4473.1  917.5261
4474.3  939.8493
4475.6  971.2523
4476.8  982.1154
4478.1  986.4548
4479.3  988.1481
4480.6  975.6286
4481.8  967.2441
4483.1  957.4445
4484.3  952.8964
4485.6  946.6877
4486.8  957.1581
4488.1  967.0601
4489.3  962.0171
4490.6  958.7859
4491.8  951.6121
4493.1  935.7593
4494.3  927.7347
4495.6  926.6672
4496.8  933.7715
4498.1  939.248
4499.3  970.8801
4500.6  989.3997
4501.8  1009.371
4503.1  1042.414
4504.3  1054.148
4505.6  1067.355
4506.8  1082.459
4508.1  1097.887
4509.3  1091.453
4510.6  1077.977
4511.8  1066.394
4513.1  1058.046
4514.3  1050.361
4515.6  1032.512
4516.8  1032.533
4518.1  1026.132
4519.3  1030.656
4520.6  1038.431
4521.8  1039.146
4523.1  1025.878
4524.3  1016.774
4525.6  1004.373
4526.8  971.1951
4528.1  946.2297
4529.3  924.8594
4530.6  908.7448
4531.8  892.4421
4533.1  890.7816
4534.3  900.5198
4535.6  911.0229
4536.8  933.1212
4538.1  948.6182
4539.3  969.0192
4540.6  987.6368
4541.8  992.2013
4543.1  997.6328
4544.3  1003.322
4545.6  998.5162
4546.8  1004.68
4548.1  1006.541
4549.3  1001.146
4550.6  989.9272
4551.8  990.0908
4553.1  990.369
4554.3  990.9743
4555.6  993.3956
4556.8  999.8209
4558.1  1022.876
4559.3  1042.791
4560.6  1061.838
4561.8  1071.629
4563.1  1070.378
4564.3  1075.011
4565.6  1075.47
4566.8  1073.02
4568.1  1066.324
4569.3  1073.363
4570.6  1072.59
4571.8  1074.893
4573.1  1067.106
4574.3  1063.588
4575.6  1062.995
4576.8  1063.764
4578.1  1055.367
4579.3  1058.758
4580.6  1047.412
4581.8  1041.31
4583.1  1032.267
4584.3  1024.745
4585.6  1021.866
4586.8  1027.69
4588.1  1040.013
4589.3  1037.449
4590.6  1052.823
4591.8  1056.897
4593.1  1057.249
4594.3  1044.165
4595.6  1038.676
4596.8  1027.948
4598.1  1026.627
4599.3  1025.981
4600.6  1040.034
4601.8  1033.273
4603.1  1044.725
4604.3  1060.971
4605.6  1069.621
4606.8  1093.695
4608.1  1115.838
4609.3  1139.495
4610.6  1153.327
4611.8  1168.488
4613.1  1169.511
4614.3  1171.503
4615.6  1171.225
4616.8  1171.994
4618.1  1173.658
4619.3  1177.711
4620.6  1186.19
4621.8  1200.112
4623.1  1202.153
4624.3  1199.63
4625.6  1188.288
4626.8  1179.544
4628.1  1175.781
4629.3  1167.54
4630.6  1186.836
4631.8  1188.476
4633.1  1193.417
4634.3  1182.529
4635.6  1171.969
4636.8  1172.022
4638.1  1162.877
4639.3  1149.822
4640.6  1123.024
4641.8  1120.803
4643.1  1105.731
4644.3  1093.314
4645.6  1075.854
4646.8  1064.447
4648.1  1067.658
4649.3  1055.11
4650.6  1057.02
4651.8  1064.083
4653.1  1081.012
4654.3  1095.122
4655.6  1104.819
4656.8  1123.867
4658.1  1136.603
4659.3  1150.239
4660.6  1156.468
4661.8  1161.789
4663.1  1166.82
4664.3  1144.591
4665.6  1113.323
4666.8  1092.517
4668.1  1070.463
4669.3  1053.367
4670.6  1052.12
4671.8  1063.097
4673.1  1077.515
4674.3  1089.359
4675.6  1109.801
4676.8  1122.779
4678.1  1140.709
4679.3  1143.781
4680.6  1156.353
4681.8  1139.11
4683.1  1119.658
4684.3  1135.069
4685.6  1120.995
4686.8  1127.249
4688.1  1119.654
4689.3  1118.333
4690.6  1128.844
4691.8  1128.202
4693.1  1125.597
4694.3  1129.65
4695.6  1134.345
4696.8  1130.12
4698.1  1127.061
4699.3  1120.611
4700.6  1114.971
4701.8  1105.58
4703.1  1090.402
4704.3  1086.811
4705.6  1087.241
4706.8  1093.331
4708.1  1102.958
4709.3  1110.19
4710.6  1111.58
4711.8  1123.846
4713.1  1120.251
4714.3  1144.517
4715.6  1154.398
4716.8  1161.204
4718.1  1183.744
4719.3  1206.014
4720.6  1225.36
4721.8  1239.609
4723.1  1256.256
4724.3  1247.38
4725.6  1223.319
4726.8  1199.781
4728.1  1184.525
4729.3  1160.051
4730.6  1137.617
4731.8  1116.059
4733.1  1107.916
4734.3  1114.541
4735.6  1120.586
4736.8  1131.458
4738.1  1150.959
4739.3  1176.832
4740.6  1207.573
4741.8  1220.399
4743.1  1234.849
4744.3  1254.342
4745.6  1275.094
4746.8  1264.751
4748.1  1259.098
4749.3  1264.796
4750.6  1263.274
4751.8  1245.291
4753.1  1231.871
4754.3  1225.176
4755.6  1221.409
4756.8  1215.098
4758.1  1222.8
4759.3  1240.235
4760.6  1232.526
4761.8  1222.869
4763.1  1209.102
4764.3  1187.364
4765.6  1186.382
4766.8  1183.159
4768.1  1188.006
4769.3  1201.483
4770.6  1217.679
4771.8  1239.933
4773.1  1267.438
4774.3  1294.559
4775.6  1309.553
4776.8  1317.005
4778.1  1319.454
4779.3  1317.209
4780.6  1306.685
4781.8  1303.238
4783.1  1297.99
4784.3  1284.056
4785.6  1262.951
4786.8  1248.182
4788.1  1234.297
4789.3  1226.17
4790.6  1238.391
4791.8  1267.
4793.1  1281.258
4794.3  1317.434
4795.6  1347.487
4796.8  1352.845
4798.1  1352.874
4799.3  1340.886
4800.6  1332.89
4801.8  1329.729
4803.1  1335.774
4804.3  1334.436
4805.6  1328.898
4806.8  1329.63
4808.1  1325.332
4809.3  1321.651
4810.6  1313.929
4811.8  1307.52
4813.1  1306.526
4814.3  1306.481
4815.6  1323.982
4816.8  1338.391
4818.1  1361.356
4819.3  1373.712
4820.6  1367.757
4821.8  1365.042
4823.1  1377.982
4824.3  1352.224
4825.6  1355.352
4826.8  1327.385
4828.1  1320.203
4829.3  1314.285
4830.6  1308.722
4831.8  1300.751
4833.1  1297.156
4834.3  1295.561
4835.6  1289.017
4836.8  1283.336
4838.1  1280.137
4839.3  1280.599
4840.6  1279.217
4841.8  1266.235
4843.1  1255.663
4844.3  1253.781
4845.6  1257.405
4846.8  1265.315
4848.1  1279.741
4849.3  1262.423
4850.6  1279.135
4851.8  1272.109
4853.1  1277.978
4854.3  1265.389
4855.6  1225.086
4856.8  1210.047
4858.1  1158.321
4859.3  1124.787
4860.6  1107.969
4861.8  1083.461
4863.1  1079.858
4864.3  1082.582
4865.6  1103.605
4866.8  1128.002
4868.1  1150.292
4869.3  1170.243
4870.6  1176.701
4871.8  1175.462
4873.1  1177.703
4874.3  1183.756
4875.6  1194.525
4876.8  1216.534
4878.1  1256.014
4879.3  1280.927
4880.6  1296.996
4881.8  1304.714
4883.1  1294.812
4884.3  1275.544
4885.6  1249.008
4886.8  1235.618
4888.1  1215.618
4889.3  1204.161
4890.6  1213.086
4891.8  1218.256
4893.1  1244.28
4894.3  1266.346
4895.6  1306.628
4896.8  1331.61
4898.1  1352.645
4899.3  1368.894
4900.6  1377.794
4901.8  1371.696
4903.1  1366.265
4904.3  1358.686
4905.6  1345.888
4906.8  1342.076
4908.1  1332.571
4909.3  1313.994
4910.6  1302.432
4911.8  1292.109
4913.1  1288.861
4914.3  1296.657
4915.6  1296.101
4916.8  1296.878
4918.1  1285.97
4919.3  1251.344
4920.6  1230.215
4921.8  1207.446
4923.1  1204.812
4924.3  1217.225
4925.6  1231.937
4926.8  1261.871
4928.1  1298.452
4929.3  1322.596
4930.6  1348.26
4931.8  1366.179
4933.1  1361.651
4934.3  1342.567
4935.6  1324.003
4936.8  1310.019
4938.1  1292.538
4939.3  1282.702
4940.6  1285.597
4941.8  1297.765
4943.1  1309.843
4944.3  1321.172
4945.6  1350.943
4946.8  1368.187
4948.1  1393.475
4949.3  1402.338
4950.6  1420.788
4951.8  1424.167
4953.1  1431.512
4954.3  1426.171
4955.6  1403.798
4956.8  1388.67
4958.1  1371.737
4959.3  1364.567
4960.6  1356.436
4961.8  1369.307
4963.1  1396.175
4964.3  1398.371
4965.6  1378.788
4966.8  1360.228
4968.1  1349.704
4969.3  1344.702
4970.6  1352.739
4971.8  1366.829
4973.1  1387.353
4974.3  1398.285
4975.6  1404.093
4976.8  1394.731
4978.1  1379.676
4979.3  1361.962
4980.6  1331.524
4981.8  1309.581
4983.1  1285.029
4984.3  1259.536
4985.6  1254.8
