###################################################################
## OUTPUT of StarlightChains_v04.for    [Cid@UFSC - 01/Apr/2007] ##
###################################################################

## Some input info
Omega_cen_cut.txt                        [arq_obs]
Base.BC03.N                              [arq_base]
Omega_cen.msk                            [arq_masks]
StCv04.C11.config                        [arq_config]
   45                                    [N_base]
    0                                    [N_YAV_components = # of components with extra extinction!]
    0                                    [i_FitPowerLaw (1/0 = Yes/No)]
-9.99                                    [alpha_PowerLaw]
CCM                                      [red_law_option]
 0.559451                                [q_norm = A(l_norm)/A(V)]

## (Re)Sampling Parameters
 7785.00                                 [l_ini (A)]
 8822.00                                 [l_fin (A)]
    1.00                                 [dl    (A)]     (OBS: dl_cushion =    50.00 A)

## Normalization info
 8275.00                                 [l_norm (A) - for base]
 8250.00                                 [llow_norm (A) - window for f_obs]
 8300.00                                 [lupp_norm (A) - window for f_obs]
3.264897E-14                             [fobs_norm (in input units)]

## S/N
 8250.00                                 [llow_SN (A) - window for S/N]
 8300.00                                 [lupp_SN (A) - window for S/N]
  22.291                                 [S/N in S/N window]
  22.140                                 [S/N in norm. window]
  10.000                                 [S/N_err in S/N window]
   9.932                                 [S/N_err in norm. window]
  1.0000                                 [fscale_chi2]

## etc...
 -2147483648                             [idum_orig]
  1038                                   [NOl_eff]
  1037                                   [Nl_eff]
     1    NSIGMA                         [Ntot_cliped & clip_method]
   303100                                [Nglobal_steps]
   7                                     [N_chains]
   8                                     [NEX0s_base = N_base in EX0s-fits]
 0   0   1       20   2.0   1.186E+01    [Clip-Bug, RC-Crash & Burn-In warning-flags, n_censored_weights, wei_nsig_threshold & wei_limit]
     4      3.546      3.520      0.027  [idt_all, wdt_TotTime, wdt_UsrTime & wdt_SysTime (sec)]

## Synthesis Results - Best model ##

 2.11601E-01                             [chi2/Nl_eff]
     3.39673                             [adev (%)]

    99.80481                             [sum-of-x (%)]
 3.57612E-14                             [Flux_tot (units of input spectrum!)]
 5.43501E-10                             [Mini_tot (???)]
 2.75556E-10                             [Mcor_tot (???)]

 135.83                                  [v0_min  (km/s)]
 104.79                                  [vd_min  (km/s)]
 0.1805                                  [AV_min  (mag)]
 0.0000                                  [YAV_min (mag)]

# j     x_j(%)      Mini_j(%)     Mcor_j(%)     age_j(yr)     Z_j      (L/M)_j    YAV?  Mstars   component_j        a/Fe...       SSP_chi2r SSP_adev(%)   SSP_AV   SSP_x(%)
  1      0.0000     0.0000E+00    0.0000E+00    1.000000E+06  0.00400  7.587E-04    0   1.0000   age020_m42            0.0000     2.5524E-01     3.5049   1.9897    99.5578
  2     33.6956     4.7134E-01    9.2957E-01    3.160000E+06  0.00400  4.713E-03    0   0.9999   age045_m42            0.0000     3.0111E-01     4.3457   0.2283    98.4656
  3      0.0000     0.0000E+00    0.0000E+00    5.010000E+06  0.00400  2.412E-03    0   0.9488   age055_m42            0.0000     2.3959E-01     3.6576   1.0391    98.7908
  4      0.0000     0.0000E+00    0.0000E+00    1.000000E+07  0.00400  2.458E-03    0   0.8862   age070_m42            0.0000     2.4022E-01     3.6864   0.1081    99.1998
  5      0.0000     0.0000E+00    0.0000E+00    2.512000E+07  0.00400  1.055E-03    0   0.8174   age090_m42            0.0000     2.3728E-01     3.6654   0.0444    99.2375
  6      0.0000     0.0000E+00    0.0000E+00    4.000000E+07  0.00400  8.590E-04    0   0.7851   age104_m42            0.0000     2.3080E-01     3.5879   0.0301    99.8178
  7      0.0000     0.0000E+00    0.0000E+00    1.015200E+08  0.00400  4.418E-04    0   0.7207   age116_m42            0.0000     2.3565E-01     3.5593   0.1913   100.4786
  8      0.0000     0.0000E+00    0.0000E+00    2.861200E+08  0.00400  3.077E-04    0   0.6613   age125_m42            0.0000     2.2562E-01     3.4288  -0.2837    99.3133
  9      0.0000     0.0000E+00    0.0000E+00    6.405400E+08  0.00400  1.743E-04    0   0.6197   age132_m42            0.0000     2.5053E-01     3.6700  -0.4535    99.1697
 10      0.0000     0.0000E+00    0.0000E+00    9.047900E+08  0.00400  1.420E-04    0   0.6024   age135_m42            0.0000     2.5075E-01     3.6820  -0.4243    99.3413
 11      0.0000     0.0000E+00    0.0000E+00    1.434000E+09  0.00400  1.135E-04    0   0.5716   age139_m42            0.0000     2.5020E-01     3.6675  -0.5341    99.2984
 12     20.0154     1.8031E+01    1.9429E+01    2.500000E+09  0.00400  7.318E-05    0   0.5463   age150_m42            0.0000     2.4657E-01     3.5659  -0.3877   100.5697
 13      0.0000     0.0000E+00    0.0000E+00    5.000000E+09  0.00400  4.244E-05    0   0.5228   age161_m42            0.0000     2.5233E-01     3.5749  -0.5049   100.9806
 14      0.0000     0.0000E+00    0.0000E+00    1.100000E+10  0.00400  2.518E-05    0   0.4980   age185_m42            0.0000     2.7942E-01     3.7380  -0.6494   101.9159
 15     26.7122     8.1042E+01    7.8756E+01    1.300000E+10  0.00400  2.173E-05    0   0.4927   age193_m42            0.0000     2.7554E-01     3.7115  -0.6537   101.7314
 16      0.0000     0.0000E+00    0.0000E+00    1.000000E+06  0.02000  1.354E-03    0   1.0000   age020_m62            0.0000     2.4982E-01     3.5210   2.0591    98.2987
 17     19.3817     4.5537E-01    8.8541E-01    3.160000E+06  0.02000  2.806E-03    0   0.9858   age045_m62            0.0000     2.4548E-01     3.5384   1.7458    98.7390
 18      0.0000     0.0000E+00    0.0000E+00    5.010000E+06  0.02000  3.300E-03    0   0.9342   age055_m62            0.0000     2.7037E-01     3.8778   0.8700    98.9719
 19      0.0000     0.0000E+00    0.0000E+00    1.000000E+07  0.02000  3.074E-03    0   0.8751   age070_m62            0.0000     2.6570E-01     3.7202  -0.7163   100.1274
 20      0.0000     0.0000E+00    0.0000E+00    2.512000E+07  0.02000  1.155E-03    0   0.8099   age090_m62            0.0000     2.6708E-01     3.7398  -0.4748    99.8717
 21      0.0000     0.0000E+00    0.0000E+00    4.000000E+07  0.02000  8.011E-04    0   0.7799   age104_m62            0.0000     2.6901E-01     3.7844  -0.1475    99.9734
 22      0.0000     0.0000E+00    0.0000E+00    1.015200E+08  0.02000  3.941E-04    0   0.7221   age116_m62            0.0000     2.7843E-01     3.8621   0.0096    99.7913
 23      0.0000     0.0000E+00    0.0000E+00    2.861200E+08  0.02000  2.305E-04    0   0.6700   age125_m62            0.0000     2.7915E-01     3.9165  -0.2318    98.5710
 24      0.0000     0.0000E+00    0.0000E+00    6.405400E+08  0.02000  1.436E-04    0   0.6322   age132_m62            0.0000     2.8697E-01     3.9755  -0.6219    98.4654
 25      0.0000     0.0000E+00    0.0000E+00    9.047900E+08  0.02000  1.175E-04    0   0.6152   age135_m62            0.0000     2.8802E-01     3.9950  -0.7245    98.3210
 26      0.0000     0.0000E+00    0.0000E+00    1.434000E+09  0.02000  8.661E-05    0   0.5865   age139_m62            0.0000     2.8152E-01     3.8155  -0.7035    99.4453
 27      0.0000     0.0000E+00    0.0000E+00    2.500000E+09  0.02000  5.666E-05    0   0.5610   age150_m62            0.0000     3.1330E-01     3.9879  -0.9744   100.5986
 28      0.0000     0.0000E+00    0.0000E+00    5.000000E+09  0.02000  3.301E-05    0   0.5353   age161_m62            0.0000     3.3128E-01     4.1060  -1.0000   101.0207
 29      0.0000     0.0000E+00    0.0000E+00    1.100000E+10  0.02000  1.872E-05    0   0.5103   age185_m62            0.0000     3.5620E-01     4.3376  -1.0000   101.2369
 30      0.0000     0.0000E+00    0.0000E+00    1.300000E+10  0.02000  1.598E-05    0   0.5047   age193_m62            0.0000     3.5914E-01     4.3706  -1.0000   101.2357
 31      0.0000     0.0000E+00    0.0000E+00    1.000000E+06  0.05000  1.777E-03    0   0.9998   age020_m72            0.0000     2.7744E-01     3.7921   1.9888    98.5776
 32      0.0000     0.0000E+00    0.0000E+00    3.160000E+06  0.05000  3.733E-03    0   0.9577   age045_m72            0.0000     2.8634E-01     3.8511   1.7353    99.0805
 33      0.0000     0.0000E+00    0.0000E+00    5.010000E+06  0.05000  5.379E-03    0   0.9147   age055_m72            0.0000     4.1464E-01     4.7307  -0.8514   103.9243
 34      0.0000     0.0000E+00    0.0000E+00    1.000000E+07  0.05000  2.368E-03    0   0.8524   age070_m72            0.0000     1.6792E+00    10.3677  -1.0000   111.5583
 35      0.0000     0.0000E+00    0.0000E+00    2.512000E+07  0.05000  9.706E-04    0   0.7902   age090_m72            0.0000     6.6957E-01     6.2746  -1.0000   106.3675
 36      0.0000     0.0000E+00    0.0000E+00    4.000000E+07  0.05000  6.855E-04    0   0.7618   age104_m72            0.0000     3.9071E-01     4.5444  -0.5227   103.0131
 37      0.0000     0.0000E+00    0.0000E+00    1.015200E+08  0.05000  3.881E-04    0   0.7092   age116_m72            0.0000     3.3304E-01     4.1400  -0.3740   101.5487
 38      0.0000     0.0000E+00    0.0000E+00    2.861200E+08  0.05000  2.160E-04    0   0.6618   age125_m72            0.0000     2.9188E-01     3.8884  -0.3846    99.4429
 39      0.0000     0.0000E+00    0.0000E+00    6.405400E+08  0.05000  1.352E-04    0   0.6253   age132_m72            0.0000     2.8456E-01     3.8792  -0.6412    98.9669
 40      0.0000     0.0000E+00    0.0000E+00    9.047900E+08  0.05000  1.089E-04    0   0.6088   age135_m72            0.0000     2.7945E-01     3.8272  -0.7082    98.7954
 41      0.0000     0.0000E+00    0.0000E+00    1.434000E+09  0.05000  8.148E-05    0   0.5847   age139_m72            0.0000     3.1046E-01     3.9436  -0.8653   100.3903
 42      0.0000     0.0000E+00    0.0000E+00    2.500000E+09  0.05000  5.181E-05    0   0.5583   age150_m72            0.0000     3.4777E-01     4.1766  -1.0000   102.0413
 43      0.0000     0.0000E+00    0.0000E+00    5.000000E+09  0.05000  3.053E-05    0   0.5320   age161_m72            0.0000     4.1295E-01     4.6320  -1.0000   102.9238
 44      0.0000     0.0000E+00    0.0000E+00    1.100000E+10  0.05000  1.621E-05    0   0.5070   age185_m72            0.0000     4.2766E-01     4.7267  -1.0000   102.7948
 45      0.0000     0.0000E+00    0.0000E+00    1.300000E+10  0.05000  1.411E-05    0   0.5018   age193_m72            0.0000     4.3145E-01     4.7519  -1.0000   102.8886


## Synthesis Results - Average & Chains ##

# j      x_j: min, <> & last-chain-values for 1 ...  7 chains
  1      0.0000      2.5849      4.3053      0.0000     21.0041      6.2448      0.0000      6.7975      6.6760
  2     33.6956     13.0582     29.2792     40.0861     23.7976     37.2299     24.5347     22.7710     23.6465
  3      0.0000      4.6761      0.0000      0.0000      9.2880      5.9595      8.8371      3.3252      1.5896
  4      0.0000      3.8727      0.0000      0.0000      0.0000      0.0000      0.3874      0.0000      0.3167
  5      0.0000      4.2026      0.0000      0.0000      0.0000      0.4981      0.1326      0.0000      1.8658
  6      0.0000      6.4791      9.1281      0.0000      0.0000      4.0703      6.9466      7.9143      0.0000
  7      0.0000      6.8890      0.0000      0.0000      0.0000      0.0000      0.0000      0.0000      0.0000
  8      0.0000      7.6346      6.9138      0.0000      0.0000      1.2858      3.1721     22.9610     19.7018
  9      0.0000      4.6568      3.0284      6.8032      0.0000      0.0000      6.0295      2.4662     30.0165
 10      0.0000      3.5633      0.0000      7.3083      0.0000      0.0000      3.7446     11.2836      3.3150
 11      0.0000      1.9306      2.1698      0.0000     12.1727      2.4211      0.0000      0.0000      1.3477
 12     20.0154      6.0772     19.1195     14.5634      0.0000      0.0000      4.3143      0.0000      0.0000
 13      0.0000      3.0247      0.0000      0.0000      6.2383     17.6700      8.8184      3.9127      0.0000
 14      0.0000      2.4033      1.1815     15.5413      0.0000      0.0000      0.0000      0.0000      0.0000
 15     26.7122      2.4369      0.1479      3.3554      5.3340     10.4300     10.7241      2.9904      1.6892
 16      0.0000      2.9185     12.1123      0.0000      2.6047      2.6467      4.7784      2.7855      7.7136
 17     19.3817      3.9076      0.0000      9.1234      0.0000      3.6039      8.4750      5.2051      0.0000
 18      0.0000      1.5159      0.0000      0.0000      0.0000      0.0000      0.0000      0.0000      0.0000
 19      0.0000      2.0297      0.0000      0.0000      0.0000      0.0000      0.0000      0.0000      0.0000
 20      0.0000      1.6716      0.0000      2.7339      1.7492      1.4433      0.8616      0.0000      0.0000
 21      0.0000      1.1384      0.0000      0.0000      0.0000      0.0198      0.0000      0.0000      0.0000
 22      0.0000      0.6629      0.0000      0.0000      0.0000      0.0000      0.0000      0.0000      0.0000
 23      0.0000      0.2654      0.0000      0.1219      0.0000      0.0000      0.0000      0.0000      0.0000
 24      0.0000      0.5517      0.0000      0.0000      0.0000      0.0000      0.0000      0.0000      0.0000
 25      0.0000      0.2970      0.0000      0.0000      0.0782      0.5420      0.0000      0.0000      0.0000
 26      0.0000      0.8715      0.0000      0.0000      0.0000      0.0000      0.0000      0.0000      0.0000
 27      0.0000      1.0322      0.0000      0.0000      8.3646      0.0000      0.0000      0.0000      0.0000
 28      0.0000      0.9583      0.0000      0.0000      2.3985      0.0000      7.8711      1.9358      0.0000
 29      0.0000      0.8833      0.0000      0.0000      0.0000      0.0000      0.0000      0.0000      0.0000
 30      0.0000      0.8637      0.0000      0.0000      0.0000      0.0000      0.0000      3.8537      0.0000
 31      0.0000      0.7253      0.0000      0.0000      0.0000      0.0000      0.0000      0.7163      0.0000
 32      0.0000      0.7653      0.0000      0.0000      0.0000      0.0000      0.0000      0.0000      0.0000
 33      0.0000      0.2351      0.0000      0.0000      0.0000      0.0000      0.0000      0.4560      0.0000
 34      0.0000      0.0051      0.0000      0.0000      0.0000      0.0000      0.0000      0.0000      0.0000
 35      0.0000      0.0277      0.0000      0.0000      0.2043      0.0000      0.0000      0.0000      0.0000
 36      0.0000      0.2683      0.0000      0.0000      0.0000      0.0000      0.1264      0.0000      0.6203
 37      0.0000      0.2830      2.3958      0.0000      0.0000      0.0000      0.0000      0.0000      0.0000
 38      0.0000      0.3922      0.0000      0.0000      0.0000      0.0000      0.0000      0.0000      0.0000
 39      0.0000      0.6096      0.0000      0.0000      0.0000      0.0000      0.0000      0.0000      0.0000
 40      0.0000      0.8740      1.1374      0.0000      0.5758      0.0000      0.0000      0.0000      0.0000
 41      0.0000      0.9348      0.0000      0.0000      0.0000      3.3984      0.0000      0.0000      0.0000
 42      0.0000      0.4261      8.5645      0.0000      0.0000      2.0189      0.0000      0.0000      0.0000
 43      0.0000      0.3106      0.0000      0.0000      0.0000      0.0000      0.0000      0.0000      0.4510
 44      0.0000      0.4715      0.0000      0.0000      6.2779      0.0000      0.0000      0.0000      0.0000
 45      0.0000      0.2817      0.0000      0.0000      0.0000      0.2512      0.0000      0.0000      0.0000

# j      m_j: min, <> & last-chain-values for 1 ...  7 chains
  1  0.0000E+00  8.0981E-01  1.6778E+00  0.0000E+00  4.4617E+00  1.4861E+00  0.0000E+00  2.2299E+00  3.6901E+00
  2  9.2957E-01  6.5849E-01  1.8367E+00  1.5150E+00  8.1368E-01  1.4261E+00  9.0010E-01  1.2024E+00  2.1038E+00
  3  0.0000E+00  4.3721E-01  0.0000E+00  0.0000E+00  5.8882E-01  4.2326E-01  6.0111E-01  3.2555E-01  2.6222E-01
  4  0.0000E+00  3.3187E-01  0.0000E+00  0.0000E+00  0.0000E+00  0.0000E+00  2.4153E-02  0.0000E+00  4.7877E-02
  5  0.0000E+00  7.7395E-01  0.0000E+00  0.0000E+00  0.0000E+00  6.9673E-02  1.7760E-02  0.0000E+00  6.0622E-01
  6  0.0000E+00  1.4075E+00  2.4668E+00  0.0000E+00  0.0000E+00  6.7167E-01  1.0979E+00  1.8003E+00  0.0000E+00
  7  0.0000E+00  2.6711E+00  0.0000E+00  0.0000E+00  0.0000E+00  0.0000E+00  0.0000E+00  0.0000E+00  0.0000E+00
  8  0.0000E+00  3.9000E+00  4.3935E+00  0.0000E+00  0.0000E+00  4.9892E-01  1.1789E+00  1.2282E+01  1.7757E+01
  9  0.0000E+00  3.9353E+00  3.1836E+00  4.3089E+00  0.0000E+00  0.0000E+00  3.7069E+00  2.1823E+00  4.4754E+01
 10  0.0000E+00  3.5930E+00  0.0000E+00  5.5232E+00  0.0000E+00  0.0000E+00  2.7469E+00  1.1914E+01  5.8974E+00
 11  0.0000E+00  2.3110E+00  3.2309E+00  0.0000E+00  9.8798E+00  2.2014E+00  0.0000E+00  0.0000E+00  2.8464E+00
 12  1.9429E+01  1.0783E+01  4.2202E+01  1.9368E+01  0.0000E+00  0.0000E+00  5.5693E+00  0.0000E+00  0.0000E+00
 13  0.0000E+00  8.8563E+00  0.0000E+00  0.0000E+00  1.2385E+01  3.9301E+01  1.8785E+01  1.1996E+01  0.0000E+00
 14  0.0000E+00  1.1298E+01  6.9093E+00  5.4756E+01  0.0000E+00  0.0000E+00  0.0000E+00  0.0000E+00  0.0000E+00
 15  7.8756E+01  1.3133E+01  9.9164E-01  1.3553E+01  1.9491E+01  4.2698E+01  4.2047E+01  1.6875E+01  1.6061E+01
 16  0.0000E+00  5.1233E-01  2.6450E+00  0.0000E+00  3.1003E-01  3.5293E-01  6.1026E-01  5.1202E-01  2.3890E+00
 17  8.8541E-01  3.2630E-01  0.0000E+00  5.7100E-01  0.0000E+00  2.2860E-01  5.1487E-01  4.5513E-01  0.0000E+00
 18  0.0000E+00  1.0200E-01  0.0000E+00  0.0000E+00  0.0000E+00  0.0000E+00  0.0000E+00  0.0000E+00  0.0000E+00
 19  0.0000E+00  1.3734E-01  0.0000E+00  0.0000E+00  0.0000E+00  0.0000E+00  0.0000E+00  0.0000E+00  0.0000E+00
 20  0.0000E+00  2.7861E-01  0.0000E+00  3.4151E-01  1.9768E-01  1.8273E-01  1.0447E-01  0.0000E+00  0.0000E+00
 21  0.0000E+00  2.6342E-01  0.0000E+00  0.0000E+00  0.0000E+00  3.4856E-03  0.0000E+00  0.0000E+00  0.0000E+00
 22  0.0000E+00  2.8870E-01  0.0000E+00  0.0000E+00  0.0000E+00  0.0000E+00  0.0000E+00  0.0000E+00  0.0000E+00
 23  0.0000E+00  1.8338E-01  0.0000E+00  6.3133E-02  0.0000E+00  0.0000E+00  0.0000E+00  0.0000E+00  0.0000E+00
 24  0.0000E+00  5.7730E-01  0.0000E+00  0.0000E+00  0.0000E+00  0.0000E+00  0.0000E+00  0.0000E+00  0.0000E+00
 25  0.0000E+00  3.6962E-01  0.0000E+00  0.0000E+00  6.6005E-02  5.1235E-01  0.0000E+00  0.0000E+00  0.0000E+00
 26  0.0000E+00  1.4028E+00  0.0000E+00  0.0000E+00  0.0000E+00  0.0000E+00  0.0000E+00  0.0000E+00  0.0000E+00
 27  0.0000E+00  2.4291E+00  0.0000E+00  0.0000E+00  1.3347E+01  0.0000E+00  0.0000E+00  0.0000E+00  0.0000E+00
 28  0.0000E+00  3.6937E+00  0.0000E+00  0.0000E+00  6.2685E+00  0.0000E+00  2.2072E+01  7.8129E+00  0.0000E+00
 29  0.0000E+00  5.7230E+00  0.0000E+00  0.0000E+00  0.0000E+00  0.0000E+00  0.0000E+00  0.0000E+00  0.0000E+00
 30  0.0000E+00  6.4836E+00  0.0000E+00  0.0000E+00  0.0000E+00  0.0000E+00  0.0000E+00  3.0293E+01  0.0000E+00
 31  0.0000E+00  9.6990E-02  0.0000E+00  0.0000E+00  0.0000E+00  0.0000E+00  0.0000E+00  1.0031E-01  0.0000E+00
 32  0.0000E+00  4.6666E-02  0.0000E+00  0.0000E+00  0.0000E+00  0.0000E+00  0.0000E+00  0.0000E+00  0.0000E+00
 33  0.0000E+00  9.5007E-03  0.0000E+00  0.0000E+00  0.0000E+00  0.0000E+00  0.0000E+00  1.9301E-02  0.0000E+00
